# pn-170911/CsIIF-av-AMC2-1280-1959.psd
# Power spectrum* (dif=0,1,2) (really just |FT|^2)
# NOTE: only the first half! (symmetric)
# weeks: 1280-1959
# 291 clock-days, 335 excluded
# PSD: 1441
13234.4 0.393527 0.0637991
584704 14.037 0.094529
1.509e+06 27.7956 0.0886077
670034 24.8933 0.0839028
389079 26.3871 0.0935707
258452 25.6658 0.0844973
162685 24.1876 0.093607
130137 24.1118 0.0921941
86566.3 20.8322 0.0939588
71280.9 22.7648 0.0949078
60781.3 23.0403 0.0897557
50612.1 23.2891 0.105961
38194.8 21.5034 0.102436
33164.4 22.5626 0.109279
30601.3 22.1341 0.101781
28671.5 23.7888 0.110913
20641.2 21.2482 0.114589
21788.2 22.3849 0.112977
18426.6 23.697 0.134646
17855.2 23.3196 0.125224
14171.3 22.573 0.138459
14057.2 24.1775 0.137007
12096 22.7202 0.131218
10425.3 20.579 0.141915
10004.6 21.2338 0.145046
10221.5 23.5205 0.153928
8979.71 22.9797 0.148581
8125.92 21.6629 0.160668
7933.22 24.6011 0.177589
6724.84 21.6466 0.17145
6481.21 23.2721 0.208445
5947.85 23.9557 0.186423
6182.99 22.6801 0.204453
5993.08 24.2067 0.201044
5057.94 22.3759 0.199296
4630.02 21.5696 0.218625
4408.59 23.4379 0.232445
4668.26 23.2799 0.247552
3764.75 21.3791 0.25099
3850.36 23.0338 0.267684
4099.32 26.3099 0.294552
3568.94 23.3575 0.266153
3217.04 21.7417 0.265218
3404.66 22.8067 0.298814
3010.19 21.7966 0.289298
2994.66 23.2826 0.310222
2858.23 24.8684 0.343034
2829.39 24.4087 0.336389
2547.62 22.4459 0.338657
2689.75 25.1068 0.378051
2702.59 25.5244 0.403122
2222.08 21.9014 0.318331
2308.72 24.3446 0.362001
1983.62 22.4573 0.385561
2082.11 22.8333 0.382263
1988.6 23.0482 0.416472
1893.73 23.6574 0.439312
1790 22.0767 0.437006
1784.76 22.7477 0.472749
1740.16 23.807 0.494047
1738.98 26.1988 0.56012
1704.52 23.0975 0.469757
1561.7 22.6085 0.484996
1623.75 24.7826 0.556993
1481.18 23.1622 0.525254
1396.24 23.1584 0.542114
1275.58 20.2254 0.509413
1206.06 21.3361 0.531352
1320.9 23.3925 0.616621
1196.29 21.7935 0.624567
1362.45 25.5242 0.68129
1359 25.1987 0.692918
1100.72 20.7973 0.61495
1126.11 21.6343 0.595486
1150 25.0269 0.730511
1039.97 21.9472 0.625539
1081.96 22.9355 0.680878
1019.62 21.17 0.65308
905.077 21.1244 0.684001
976.992 23.9351 0.785432
999.4 23.8543 0.788634
972.409 24.0368 0.796016
899.787 23.033 0.776153
828.112 21.5558 0.751012
854.418 23.7212 0.843704
842.923 24.2619 0.888035
772.167 22.1914 0.843929
853.553 23.5098 0.922063
802.76 23.031 0.919954
769.711 24.3967 1.0411
759.117 23.0036 0.945595
806.234 25.1804 1.06967
685.353 22.6965 1.01126
760.636 24.317 1.04385
644.537 23.2164 1.0057
674.056 22.1888 1.06068
630.207 21.4833 1.00937
735.909 25.719 1.24455
682.579 23.9588 1.16194
591.401 21.6358 1.07668
656.504 23.8637 1.19242
606.421 23.2169 1.20725
558.658 21.9738 1.13809
505.09 21.9396 1.1784
567.41 21.6798 1.13371
546.964 21.5111 1.19356
582.423 23.1175 1.25843
500.691 22.3602 1.22981
521.515 23.0877 1.36935
556.369 24.423 1.45397
496.288 22.1169 1.30907
547.902 24.745 1.54646
440.155 22.1204 1.35431
487.444 22.7272 1.41572
460.008 23.2189 1.50214
439.438 21.7807 1.38781
477.247 22.7949 1.51475
411.228 21.3807 1.44233
437.344 23.3344 1.5987
402.891 22.0962 1.51013
381.988 20.3709 1.4578
413.921 23.0546 1.65949
446.449 27.8719 1.88913
417.292 23.6123 1.77442
404.863 23.3771 1.72104
411.88 24.0604 1.83822
354.509 19.8318 1.51136
397.076 24.1037 1.8429
370.522 25.7803 1.99566
366.638 24.0952 1.94715
363.897 23.3771 1.96447
378.463 22.682 1.86373
365.122 24.2512 2.01002
353.859 24.6468 2.11725
382.758 24.4454 2.19651
309.187 21.0003 1.81809
350.098 25.1263 2.24315
337.136 23.971 2.06205
324.291 22.5248 2.03223
349.349 25.1864 2.31628
314.573 23.1813 2.17683
328.483 24.6042 2.26049
330.968 24.6213 2.29322
270.12 19.3987 1.96348
311.384 25.0808 2.56913
274.175 21.8535 2.19469
273.82 22.2435 2.2502
268.971 23.173 2.4842
307.674 25.1508 2.57619
267.772 21.6107 2.3128
265.779 23.7665 2.46601
263.45 21.6973 2.31331
272.239 22.884 2.45622
257.199 22.0933 2.44678
250.895 23.239 2.59802
249.664 22.0514 2.58272
258.109 22.9506 2.59512
230.209 21.2096 2.42374
250.036 23.9215 2.87197
243.24 21.662 2.54934
219.222 21.5412 2.60497
251.89 25.038 3.0246
254.719 23.2757 2.87455
213.128 22.0448 2.8204
251.877 23.8527 2.98848
247.574 24.598 3.25723
222.711 23.6726 3.03809
231.256 24.677 3.28027
209.061 21.1386 2.81796
198.213 21.5829 2.90904
230.67 24.7136 3.26896
224.889 24.0337 3.2346
199.796 23.7406 3.30879
203.289 22.8893 3.22521
229.835 23.8284 3.31688
209.134 23.2061 3.36433
195.033 23.1298 3.39591
184.023 21.3266 3.22977
189.246 22.7098 3.4295
181.25 21.3057 3.23757
167.706 20.5176 3.06483
183.38 22.0319 3.34767
165.111 20.1609 3.15535
188.349 22.688 3.47064
185.042 23.1249 3.74325
187.332 22.8288 3.63929
185.321 21.9294 3.47828
171.843 21.5519 3.58188
166.362 21.9375 3.61022
177.532 23.2641 3.85452
181.268 22.1964 3.68217
174.271 22.5819 3.86459
183.835 25.4079 4.25733
171.523 22.6744 3.94125
153.579 20.0577 3.56091
177.789 24.5247 4.35856
161.861 22.1038 3.97693
162.613 22.9212 4.1042
150.449 22.2122 4.13337
148.128 22.2056 4.2491
138.143 20.5193 3.96049
153.236 22.6691 4.33034
139.182 20.2306 3.86155
138.568 22.3023 4.29943
150.577 21.4833 4.14208
155.127 25.9385 5.02484
150.295 22.6843 4.41927
138.653 21.3406 4.25898
127.93 20.3851 4.11654
132.496 20.8926 4.19387
136.646 23.2962 4.81909
144.365 23.6624 4.92169
138.334 22.6435 4.75056
133.914 22.4489 4.62741
127.236 21.4807 4.6231
134.209 20.915 4.46577
144.125 24.1807 5.19687
132.096 23.4792 5.00397
122.261 20.2562 4.39
131.183 23.7503 5.5077
140.5 24.5281 5.52404
122.617 20.9972 4.76022
130.186 24.1297 5.47233
119.603 22.6644 5.19028
120.567 21.3755 4.98861
117.887 21.8227 5.09028
117.668 21.1469 5.02694
123.632 22.7339 5.37516
127.75 23.7467 5.85733
117.766 23.1765 5.56676
117.673 21.7392 5.25628
104.647 20.3782 5.04549
118.523 21.502 5.44617
116.627 22.8686 5.75547
108.353 21.0499 5.30824
120.39 23.7569 5.97249
110.991 23.6297 6.12
116.124 23.0994 6.01235
97.294 20.9928 5.71575
102.971 20.6247 5.34119
108.568 21.4827 5.70597
104.979 20.8284 5.65145
113.955 22.1568 6.04865
107.882 22.4113 6.12325
95.4143 20.5889 5.57913
108.61 22.5734 6.37136
105.553 21.6781 6.14655
91.3239 21.6452 6.37509
102.796 19.2335 5.44309
102.223 23.316 6.78002
99.6575 23.3823 6.83611
101.332 22.1984 6.33497
85.7917 19.5395 5.87232
104.675 23.3996 6.90013
97.5122 23.9812 7.09816
98.1199 21.7189 6.48842
98.8066 23.0371 6.9233
95.3693 21.6674 6.73741
93.8252 24.3307 7.45006
101.314 24.6667 7.5023
102.549 24.1706 7.40285
84.5601 19.866 6.28182
97.6563 23.9336 7.8103
85.5085 20.8075 6.62021
87.5256 24.8047 7.89191
94.0065 21.99 6.97414
82.6869 20.7469 6.99441
88.5796 21.1811 6.93366
86.0575 21.4395 7.08402
90.7787 23.6266 7.8559
86.6838 21.6254 7.14398
92.6089 24.0441 8.37639
90.1814 24.3585 8.08054
89.0761 22.6218 7.91021
86.2119 22.5973 7.92935
86.8647 22.8758 7.78795
81.6061 21.3675 7.44514
76.2763 21.2904 7.63992
82.7538 22.4617 8.13675
90.2346 25.1042 8.93952
91.0787 23.8605 8.30473
80.6942 23.1284 8.44478
74.0143 22.4457 8.46156
80.7608 21.5913 7.77523
84.4157 25.0352 9.09379
76.1677 24.2001 9.09187
76.5324 22.9286 8.53835
71.6703 21.8723 8.479
88.7113 25.3178 9.61533
75.1517 21.2725 8.1748
82.1013 23.2033 8.89118
78.9245 21.2714 8.51718
77.0536 22.9474 8.83414
81.399 23.2911 9.28188
88.6821 23.7471 9.22046
75.2077 23.142 9.43116
77.6301 22.9985 9.32908
72.2865 21.6199 8.49151
74.6194 23.5311 9.62187
72.1483 23.3609 9.70919
76.4935 24.6174 9.98783
65.3462 20.8497 8.46688
62.7182 21.7012 9.13785
64.7886 21.9845 9.34765
63.5504 19.898 8.76776
75.4322 22.6583 9.18473
69.6998 22.3513 9.34273
67.7565 20.6618 8.93021
67.3498 23.2614 10.159
67.3082 22.7177 9.93649
68.7307 23.5642 10.2838
59.2066 21.4161 9.62144
64.3597 21.81 9.84583
68.8712 22.899 10.3036
66.0001 23.4102 10.7106
72.4257 22.5615 9.9907
69.2054 24.171 10.9707
64.0248 23.1705 10.7458
63.4095 21.9801 10.2403
66.4879 22.1451 10.3455
68.3087 23.6257 11.1969
64.1711 22.1852 10.4294
61.3652 21.0277 9.83147
61.7017 21.6346 10.273
63.9265 21.5147 10.0532
62.1341 23.878 11.482
59.9548 21.8298 10.6206
57.9979 21.8341 10.7406
61.3316 23.0309 11.1613
60.7398 22.6719 11.148
58.8258 21.4127 10.7704
67.6039 25.2673 12.6281
60.883 21.2773 10.3721
59.4554 22.0074 11.3073
52.1353 21.2634 10.8351
60.4736 23.5988 12.0867
60.2572 23.9879 12.0786
54.2489 21.3847 11.0851
57.4357 22.9065 11.6885
57.9819 24.9846 12.9628
56.3091 21.5399 11.6019
59.8281 21.8811 11.4731
58.0759 22.2636 11.6434
52.5826 21.3322 11.1395
53.2169 22.2834 12.3358
62.4778 26.621 14.4998
59.2872 22.6988 12.244
55.8247 23.4813 12.7801
52.6821 22.665 12.5941
54.238 21.8747 11.8368
50.918 21.1885 11.7968
56.2416 26.053 14.6014
53.2722 22.9599 12.6215
54.3344 22.3145 12.5593
53.6119 22.5527 13.0166
48.959 22.5543 12.8358
51.0824 21.8672 12.6019
51.7201 22.0855 12.4258
49.2483 21.8686 12.9664
52.1124 22.5694 12.9709
44.1884 19.2638 11.6115
54.7217 23.0956 13.1757
45.0169 21.0517 12.9875
52.7419 22.4371 13.1264
54.6052 22.2581 13.0233
47.2947 21.1763 12.3412
53.1315 24.4551 15.0472
49.6924 22.7528 14.3875
54.0681 22.3407 13.0306
53.3563 23.0689 13.6539
45.0257 20.6454 12.5988
47.1228 21.161 13.9342
52.7733 24.5457 14.5201
44.0309 22.7426 14.2653
42.6192 21.3205 14.0281
43.6559 19.5865 12.7049
51.072 23.9312 14.673
44.3422 21.2642 13.721
50.2146 22.7207 14.7094
54.4209 26.6662 16.8369
44.9643 21.9011 14.0147
46.8664 22.6041 14.845
47.4676 22.2277 14.4242
51.1922 22.5481 14.5365
44.394 20.4977 13.7187
48.094 24.2839 15.5353
42.185 20.3237 14.0538
46.6352 23.9772 16.4141
44.8929 22.4149 15.0987
43.3422 21.2358 14.5046
46.6644 22.2363 14.677
42.9724 20.7278 14.0323
47.1518 21.7309 14.8688
47.9341 24.3579 16.8051
41.646 22.3987 15.7768
43.2372 21.3377 14.7102
45.5679 21.0541 14.1726
38.0908 19.6904 14.3399
41.7392 20.9603 14.836
46.8425 23.1608 16.6813
40.7926 20.4278 14.275
38.8672 21.3521 15.9465
44.3546 23.4068 16.8127
41.5823 20.3597 14.7836
43.9596 23.2573 16.9488
41.8556 24.0709 17.4402
39.0762 21.0555 15.8094
41.5797 22.5198 16.8264
38.343 20.5936 15.0326
39.7318 20.1312 14.7657
38.195 20.3851 15.1993
37.2294 22.1917 16.8612
41.8327 22.6513 16.945
40.0244 22.0585 16.9225
39.2584 22.1567 17.1383
38.7689 21.4641 16.3667
35.7743 20.223 15.8889
42.1303 23.7412 18.1212
39.5109 23.5634 18.6624
39.5897 23.0424 18.6266
41.5486 23.0626 17.7772
42.593 21.7904 16.604
40.7183 23.1462 18.661
35.2962 20.38 15.738
36.1599 20.5873 16.8335
36.705 21.2007 16.6487
36.9364 21.9396 18.1595
41.406 23.8056 18.6437
38.8508 21.1859 17.026
40.6164 23.5467 18.7425
37.3762 20.8683 17.1181
34.5147 21.9698 18.7343
38.451 21.9319 18.174
34.7292 19.4548 15.8123
36.2005 21.9058 18.1566
36.2712 21.3853 17.4185
33.6065 20.2377 16.7934
37.0562 22.5208 19.3448
36.0842 23.2565 19.6204
38.0932 23.8518 20.4339
41.0633 26.8226 22.6551
37.2871 23.9 19.9857
36.0007 23.0601 19.8106
38.5638 24.9806 21.3865
36.3043 21.7755 19.5336
34.4602 19.7757 16.6622
33.2658 21.3517 20.0203
37.8711 24.1782 20.6513
32.1808 21.8072 18.7975
33.4411 21.767 19.6319
36.809 21.9557 19.9746
35.4432 24.4878 21.724
34.8245 21.8757 18.9213
32.8396 22.0638 19.7806
29.8911 20.7669 19.149
36.2746 24.3396 21.9777
35.0415 21.7147 19.8468
34.079 23.0859 21.0957
37.5635 22.2782 20.8512
33.7521 23.4573 20.9484
32.938 23.5663 22.0616
32.6997 22.6726 21.2949
33.85 24.7086 22.9344
35.3845 22.3934 20.0733
27.9711 18.9922 19.334
32.6007 20.2739 18.3911
33.3995 24.2087 23.2396
33.2431 21.5966 20.4881
31.5918 21.1763 20.4144
35.5864 22.6468 21.8361
33.3004 21.7019 20.8589
32.891 23.6242 22.8519
34.1715 22.461 21.3289
31.6821 21.7566 21.2755
34.3094 22.2315 21.667
34.0882 22.7489 22.3249
30.1578 20.5483 20.9068
33.2232 22.9969 22.1983
31.1562 22.9536 22.8989
32.8552 22.2629 21.7654
29.9541 20.5726 21.0046
28.8892 19.3259 18.7552
31.288 22.6489 22.2582
31.2232 21.7989 22.6286
29.1326 22.3166 21.9813
30.4972 19.5266 19.563
31.1696 23.0617 23.7602
26.5092 19.2274 20.3639
28.5906 20.7571 21.348
33.1244 24.5577 24.87
27.4933 19.6921 21.3285
30.1937 22.6989 24.122
33.4697 23.7402 25.2476
28.9711 21.0757 21.7071
30.3328 21.2422 22.0446
29.7992 21.8317 22.9356
28.2591 21.4375 23.0452
27.7694 22.33 24.3211
27.7194 21.6247 22.578
29.743 23.068 24.2566
31.3215 22.5736 23.8316
28.0294 21.5375 23.6733
28.8907 22.8305 24.3554
27.3669 22.0252 23.5466
30.3787 20.3752 21.8291
25.2072 20.4151 23.4513
26.3472 20.6473 22.4842
28.6317 23.7503 26.0474
25.6873 19.908 22.2221
28.0037 20.1322 22.7066
28.4593 23.5319 25.9514
26.7317 22.3174 25.5281
27.6924 20.231 23.5402
28.1848 22.9143 25.1471
28.0903 22.4241 25.923
30.2786 24.6409 28.119
25.7135 22.2918 24.2587
25.0758 21.987 25.7993
30.6633 22.0217 25.0924
26.6681 20.5141 23.3024
22.4391 21.4541 25.2678
27.5107 22.5064 26.1627
28.3144 22.6544 26.6043
27.7913 22.0851 26.1603
27.4935 21.8922 25.7035
26.9267 22.4184 26.3648
28.3003 21.4677 24.2215
24.7454 21.0427 24.8577
27.3008 23.2362 27.1896
25.4397 20.3835 23.8697
25.6861 20.9189 25.3008
27.2465 23.0523 27.3527
25.9656 22.0592 26.5155
27.5488 23.8969 28.0931
25.842 20.9473 25.3542
24.5754 20.7856 25.1851
23.9458 22.2693 27.4695
23.506 21.7453 28.0295
26.8611 22.6285 27.1083
23.2307 21.0912 26.4716
25.1535 22.8338 28.1467
26.9964 21.6146 26.5705
25.7285 25.0517 30.1229
25.9586 20.477 25.1286
24.6206 21.3369 26.7372
24.0714 22.1729 28.0125
25.5431 20.4858 25.9394
27.1311 23.7921 29.4774
25.0292 21.4615 27.3118
24.1365 22.5734 28.3779
24.6157 21.7981 28.4197
27.5136 22.5172 27.4608
22.9814 22.9998 30.6751
24.3644 23.3771 29.8434
24.0874 22.1473 27.7759
20.9493 19.6624 26.2227
24.6506 21.1012 28.5011
25.783 23.5793 29.3478
23.4408 23.0698 28.9691
26.9363 23.1916 30.974
24.9537 22.3821 30.1459
22.8102 22.4919 28.8422
26.0762 23.2466 31.3017
21.178 22.3521 30.807
22.2952 19.4391 25.7143
23.6452 21.6653 28.0685
22.4036 20.1465 26.7586
21.7414 22.2928 30.4012
24.6224 22.3146 29.8956
23.8405 20.7335 27.6042
24.2356 23.668 33.5595
24.5964 22.3916 30.4885
21.5339 21.464 29.4733
25.5843 22.7676 30.9645
22.5611 21.3256 29.8057
25.5622 23.9717 32.1767
20.912 20.9171 28.8023
22.7523 21.6737 30.6615
23.7369 22.4032 30.9514
23.0628 21.818 30.7303
23.7011 21.3152 30.2524
23.3745 23.6305 33.414
24.1636 22.4517 29.892
22.0879 22.1114 31.0926
21.3635 20.9273 30.2252
22.6406 21.684 30.0615
20.4779 21.1857 30.1298
22.8621 21.4588 30.9205
20.3768 19.8067 27.2238
21.6488 22.8071 31.7764
21.9264 21.0562 30.8183
18.2412 19.3825 29.0109
19.7067 18.4323 26.4544
19.4665 22.8242 32.9066
20.9532 20.5049 29.8668
20.2939 21.8495 31.2427
21.7053 21.6666 33.2386
20.7895 20.0664 30.7067
22.3243 21.5085 31.201
21.3711 21.39 30.9095
22.5206 21.9824 33.4637
21.944 22.9508 32.6748
21.824 21.3034 31.0807
19.3259 21.4436 32.8039
20.4577 21.5881 34.0902
19.4741 20.0519 30.6096
21.4064 22.5889 34.0872
21.0274 21.9566 32.2666
21.7504 24.0085 34.1756
19.0653 21.9085 35.1528
21.153 21.2304 32.8413
19.9932 21.9951 34.2782
19.4159 21.972 34.6551
20.3472 21.8652 33.1225
19.1619 20.5778 31.8364
19.8122 22.2785 33.5716
21.0803 23.3395 35.6382
21.8834 22.3185 33.9175
19.9812 22.6618 33.8204
20.9269 21.127 33.1913
20.534 21.6702 35.4511
21.0095 23.3235 36.1032
18.9236 21.2189 34.2976
19.8179 23.5158 36.8989
20.5045 23.2822 36.5735
20.6814 22.663 33.1838
17.0678 19.9146 32.0087
21.365 21.7233 35.9961
19.9055 22.9762 36.1604
19.7764 21.5677 35.254
19.5214 20.6185 31.8971
18.6244 22.2221 35.1144
20.4384 22.6148 36.6787
20.6081 22.5804 39.2235
19.1288 22.3966 38.3784
22.6157 23.6298 36.4833
17.7519 21.6018 35.5359
19.5386 20.3738 33.214
18.5991 22.6432 38.7194
21.1858 21.4038 34.9367
18.5398 22.2168 37.0838
18.9104 21.2607 33.3544
18.296 23.3533 38.3736
18.3846 22.5525 37.5911
19.8601 21.2366 35.1206
18.922 22.9848 40.2352
20.3056 23.059 36.5474
19.5662 22.5694 36.3438
18.5699 23.3499 39.8116
18.6085 20.9162 35.3064
18.9838 21.9824 35.9679
17.8991 20.7637 36.4142
20.1846 23.379 37.9001
18.3979 21.9999 38.0356
20.0409 21.9532 38.2564
16.7382 21.3488 36.8738
17.0686 19.318 36.56
19.1101 22.0093 38.1138
20.4451 22.0071 35.9688
19.5971 22.1166 37.4122
16.8846 21.4244 38.8877
17.7679 21.4542 38.1171
20.6229 23.2412 39.3616
20.3325 22.5591 39.3121
17.8772 21.0303 34.514
17.6516 21.8561 36.6893
15.8634 19.7868 36.7399
16.3391 19.6472 34.6915
17.1652 20.0138 36.1648
18.2413 20.5509 35.8636
16.5312 18.7243 33.7333
17.0546 21.6636 38.075
17.5303 20.3291 36.8091
17.5541 21.0466 39.2596
17.0722 22.7009 42.2717
18.5744 24.3732 43.2657
18.0716 21.5063 37.2634
15.8991 21.6891 40.6615
20.1183 24.4575 43.9277
18.392 22.5614 39.887
16.9026 19.8294 36.5951
16.7451 20.4955 39.4234
17.3983 20.0096 35.3027
15.9051 22.1988 40.2789
17.2408 21.9709 42.2786
18.4043 20.5135 38.2163
18.3687 21.3873 39.5967
17.0062 20.3137 38.5644
18.8924 21.3801 41.0808
18.6061 22.8564 39.2569
14.959 20.7196 38.2334
16.9266 21.5528 42.3324
16.4069 21.6073 40.1026
16.1605 20.1531 37.9813
16.9846 22.4997 42.3877
17.4865 23.4182 44.6764
15.5572 19.2384 36.5684
16.1809 20.0479 39.9099
16.7868 19.7288 36.0767
16.7457 20.9179 40.5653
15.9212 20.6852 40.4039
17.4311 22.2886 42.2823
16.8119 21.8315 41.3925
16.1063 20.4501 39.2303
15.5965 21.7022 42.1226
15.2006 21.3423 42.9076
16.5204 24.1776 46.7535
16.0249 21.9983 42.1704
16.4471 20.6435 40.6359
15.6976 20.2919 38.9973
17.9421 24.6581 47.599
15.9711 23.094 46.4912
15.9196 20.1556 37.8662
15.2865 20.3828 39.4568
13.7191 19.3244 41.0948
16.4171 20.4784 39.1921
17.4472 23.3822 46.1325
17.0912 23.2496 47.0393
18.3444 22.3052 39.1253
13.8309 21.9172 46.6105
16.118 22.5323 45.9773
16.258 21.9313 46.9774
16.21 19.6067 36.2416
13.7606 19.8162 39.7305
14.9166 20.6956 42.3832
15.9268 19.2437 36.8227
14.2209 19.4866 42.0821
15.0798 22.2063 45.7069
14.6954 18.4207 39.2802
15.3343 21.8696 44.0213
14.3585 21.5576 45.785
16.3046 21.488 45.3591
15.7345 22.6316 42.7882
14.7372 19.4755 41.6305
15.6291 22.5411 46.6329
16.6504 22.0935 46.1636
15.5276 19.2645 39.8454
15.3927 22.1371 46.6294
15.7263 21.3058 41.927
15.4534 19.5091 39.6276
14.4793 22.4366 47.6046
15.6694 20.9256 43.867
15.9119 20.5602 44.7473
16.8219 21.7544 45.2093
15.0513 20.265 43.5682
15.2508 20.7787 44.2894
13.9262 20.739 42.8271
14.8828 21.0655 42.6848
15.2377 19.6771 43.0248
14.7691 22.9332 48.4768
16.2201 20.2556 42.6203
13.6805 18.5359 41.069
14.6617 23.5615 47.3679
15.1455 23.1366 52.2091
15.3069 21.5027 44.0879
14.4077 19.699 41.8831
14.1661 20.4713 43.9863
14.9565 22.1156 50.566
14.5768 19.0697 40.7018
15.4708 22.4984 45.3727
14.9678 21.3901 48.2051
14.8843 22.6532 49.0017
15.1384 21.7597 46.8757
13.9218 19.7498 43.0027
15.1094 19.5508 44.6415
14.0781 20.0422 45.6354
15.2141 22.4238 49.1628
15.0552 22.8188 47.6038
14.7946 21.5517 45.9379
13.4064 19.6694 46.3164
14.4263 21.7373 46.7603
14.0118 18.3626 42.3685
13.6996 16.6135 37.6884
13.9228 21.7797 46.1762
13.43 21.6165 51.309
14.6737 21.5047 43.9845
13.9112 22.9892 52.0251
13.5052 19.4017 43.1151
14.1657 21.8579 46.2426
13.8981 20.6511 45.8163
13.7523 21.7264 52.8459
14.7301 23.66 52.8788
14.0191 19.8198 44.3645
14.7977 23.2625 53.5152
14.9276 23.0837 50.8347
12.6896 21.1976 48.7097
13.792 19.739 45.1982
14.0139 21.0148 47.7843
13.0643 20.801 51.2473
15.0735 20.9545 44.7413
13.1594 20.8368 45.5989
12.8815 21.2004 49.1426
14.3128 21.7944 52.6263
13.6472 22.629 55.7717
16.2437 20.9522 49.0781
14.5051 20.1168 43.5507
13.2122 18.5991 43.6664
13.55 21.2638 49.6173
13.6545 22.7866 54.3231
15.0775 19.9821 45.919
13.8852 20.2386 45.2704
11.7804 20.9111 52.5686
13.868 23.7885 52.0088
13.0766 19.9111 48.8975
14.6966 22.7448 53.4798
13.6106 21.0498 50.5806
14.1564 22.7571 52.1607
12.3449 19.5748 47.7355
13.973 19.9703 48.2241
13.5824 19.9842 48.3753
14.0767 21.4273 49.9523
14.1292 20.8548 48.8962
12.0671 19.2087 47.1645
11.9961 21.4005 52.7149
14.8025 20.504 48.3938
14.3038 20.3961 48.856
13.705 21.6048 50.3882
12.6257 18.4596 44.5717
12.9385 20.7549 51.9396
13.8358 19.7126 47.6954
13.3695 23.6597 58.2442
14.075 21.1223 49.4472
12.5776 20.5187 50.6869
13.1756 19.4067 50.4287
14.4896 22.9817 53.0154
13.5533 21.4544 54.3016
13.7765 24.5234 55.1379
13.423 19.4778 49.5938
12.5973 20.5587 49.5026
12.0939 20.3904 50.5013
12.7733 20.6638 49.8612
