# pn-170911/CsIIA-24-CsIIA-1280-1959.psd
# Power spectrum* (dif=0,1,2) (really just |FT|^2)
# NOTE: only the first half! (symmetric)
# weeks: 1280-1959
# 2078 clock-days, 482 excluded
# PSD: 1441
96558.4 2.34021 0.0554864
3.69307e+06 55.1835 0.0286739
2.03687e+07 435.212 0.0364433
2.95035e+06 109.313 0.0330905
2.39722e+06 167.519 0.0409464
1.11985e+06 108.017 0.0412761
797524 112.279 0.0480303
574104 109.745 0.0531081
441005 111.498 0.06013
346076 108.165 0.0685471
286489 109.103 0.0789525
223408 105.132 0.0890246
194428 108.191 0.0986689
166217 107.588 0.116407
139169 107.069 0.128825
123785 107.114 0.141519
111594 109.019 0.161084
94637.5 103.414 0.171614
88592.6 107.595 0.191214
78248.7 107.944 0.210888
70110.2 106.336 0.228105
64092 107.61 0.251893
59358.2 111.133 0.280956
53195.3 108.542 0.302648
48480.6 107.614 0.319833
43741.5 103.674 0.334133
40236.8 105.229 0.364549
39863.3 110.49 0.411239
35811.1 105.392 0.422457
31645.9 101.878 0.43111
30403.5 105.084 0.477263
28846.4 108.893 0.520753
27053.2 106.022 0.540426
26176.1 107.623 0.594921
24210.3 106.891 0.616917
22522.4 106.158 0.642553
21347.3 104.953 0.672201
20532.2 109.279 0.731004
18761.3 104.166 0.746964
17988.6 108.623 0.814805
17576.7 106.161 0.836352
16480.2 106.691 0.878546
15558.3 105.649 0.921975
14448.4 103.065 0.935629
14403.4 103.981 0.987839
13447.6 105.779 1.03886
13064.8 109.277 1.13118
12522.5 106.041 1.14936
11711.6 105.264 1.18747
11830.3 107.278 1.24438
10946.1 107.157 1.29362
11028.8 108.808 1.37623
9851.38 100.698 1.32371
9718.03 105.663 1.43976
9409.97 103.998 1.47769
8801.05 102.786 1.49436
8930.82 104.941 1.59579
8536.91 105.726 1.65243
8266.11 107.373 1.7485
7877.08 105.618 1.7764
7436.49 105.933 1.84574
7443.46 105.883 1.90659
7324.62 105.415 1.95799
7105.26 105.989 2.01766
6677.31 103.789 2.05909
6448.22 106.184 2.16642
6087.97 102.198 2.13729
6031.37 105.459 2.27422
6025.96 106 2.36908
5745.06 104.306 2.3829
5564.34 104.049 2.45954
5393.92 104.416 2.5395
5392.69 104.568 2.61229
4952.15 99.7877 2.54159
4876.68 102.792 2.69366
4863.63 103.482 2.81335
4710.43 104.124 2.88362
4469.34 101.86 2.89923
4545.48 105.719 3.088
4270.58 99.6099 2.95602
4230.99 104.188 3.19278
4195.71 105.337 3.30438
4041.34 103.876 3.34611
3973.13 103.819 3.39628
3823.92 100.247 3.38584
3747.2 105.106 3.63249
3651.72 104.034 3.68351
3447.11 99.3064 3.589
3389.11 100.479 3.74465
3528.49 102.588 3.86013
3269.75 100.602 3.88953
3224.5 101.606 4.0326
3229.99 103.123 4.15292
3136.5 104.226 4.32112
3032.86 100.955 4.25609
2957.57 100.841 4.34518
2924.29 101.531 4.47321
2916.6 104.321 4.66418
2808.6 101.117 4.64611
2679 97.4244 4.55535
2787.7 103.047 4.92343
2635.18 101.109 4.90114
2608.15 102.632 5.1074
2518.49 101.392 5.12265
2550.26 102.164 5.27653
2453.39 104.251 5.45914
2418.24 101.216 5.37442
2447.64 104.379 5.71747
2259.82 98.1076 5.44461
2270.27 100.349 5.70458
2171.61 98.267 5.66138
2164.19 100.73 5.90678
2003.16 94.3699 5.65751
2128.77 101.624 6.18255
2006.72 98.7113 6.07847
2014.45 100.379 6.29256
1982.45 99.176 6.32938
1920 97.1266 6.3009
1902.51 98.5071 6.54887
1945.89 104.072 7.00435
1795.86 98.5201 6.73585
1801.52 97.5124 6.78697
1740.69 96.0618 6.79978
1669.26 93.9171 6.75188
1682.65 98.1851 7.1544
1660.04 96.6588 7.16133
1648.41 99.1061 7.47008
1625.14 95.5347 7.3267
1582.37 97.1623 7.54183
1603.08 99.8017 7.90116
1613.72 101.176 8.11244
1560.09 99.5916 8.09814
1509.46 97.8068 8.12703
1508.8 98.9255 8.29132
1447.31 96.2597 8.24623
1402.02 94.2277 8.11231
1384.63 95.9356 8.38646
1343.47 93.785 8.3435
1369.26 96.9661 8.79298
1390.56 99.7512 9.11674
1293.59 93.955 8.70665
1335.26 100.068 9.42716
1302.52 99.1826 9.46615
1247.94 94.3561 9.118
1201.59 96.2226 9.44459
1224.09 95.7993 9.51773
1189.32 96.1577 9.74763
1209.64 93.945 9.5719
1173.77 95.4307 9.84845
1169.23 98.038 10.3296
1162.02 96.0525 10.2326
1148.24 96.6745 10.4328
1067.44 90.719 9.95781
1085.81 93.5193 10.3682
1059.69 90.2553 10.0841
1047.21 91.4534 10.4295
1027.74 91.7907 10.5228
1031.8 94.0554 10.9399
989.273 91.9034 10.8466
987.534 91.1948 10.919
975.186 92.4139 11.1127
990.343 94.2469 11.4436
969.089 96.0773 11.9586
938.551 92.7379 11.6332
960.076 95.0594 12.0467
889.142 90.6908 11.7051
961.971 96.8674 12.5815
912.387 93.5088 12.1906
906.831 93.5402 12.4749
904.926 94.1655 12.7428
869.896 92.4252 12.6005
873.446 92.6661 12.7261
832.938 91.7288 12.7921
846.964 94.2678 13.2454
836.777 90.8438 12.8984
804.244 92.2036 13.2975
784.393 89.3687 12.978
800.036 92.3881 13.6734
760.168 88.5219 13.2861
780.169 89.937 13.4686
765.51 92.6442 14.1735
736.253 88.0732 13.5587
740.47 90.6821 14.186
759.021 91.9549 14.4568
731.957 90.0603 14.2905
709.568 87.082 14.0577
718.242 91.735 14.9009
708.189 90.8051 15.0389
721.863 94.6196 15.5679
686.769 90.2862 15.2258
662.526 84.9213 14.4098
666.424 87.3907 15.0444
640.12 84.7769 14.7324
652.934 90.6391 15.944
634.076 86.8827 15.2894
630.264 86.7569 15.5144
627.379 86.7015 15.5925
623.668 85.58 15.6128
631.584 90.324 16.5302
625.358 90.5493 16.8385
590.985 85.6547 16.1271
609.453 86.674 16.3606
579.585 86.3558 16.5022
568.156 84.8602 16.4009
579.567 86.089 16.8397
580.92 88.1101 17.3033
541.094 83.6404 16.6629
546.223 84.0177 16.8595
534.11 83.6224 16.9862
538.119 84.7612 17.1761
535.006 84.4524 17.4723
532.541 83.8428 17.4375
536.1 87.5256 18.3117
522.57 84.869 18.131
520.427 85.8458 18.4666
503.164 83.2901 18.0611
491.08 82.5494 18.0919
503.97 84.13 18.5762
492.477 81.8048 18.2071
487.07 82.6188 18.4097
497.004 87.5152 19.8902
474.686 84.3858 19.2791
473.021 82.6818 19.0116
473.47 83.2887 19.3638
452.491 81.6778 19.1141
454.165 80.5955 19.0296
456.787 84.4969 20.1527
456.076 84.7036 20.3311
429.739 81.2808 19.8253
430.797 81.9981 20.0411
433.008 80.5632 20.0578
437.298 80.4056 19.9968
429.775 82.8328 20.9991
434.521 82.6508 20.7809
417.531 81.5404 20.7705
406.165 78.6478 20.2696
411.478 80.6132 20.8912
397.257 78.2032 20.5296
394.443 80.2523 21.1818
396.371 79.695 21.0945
406.267 83.0902 22.2307
396.041 79.7615 21.397
385.061 78.9154 21.4607
369.488 77.9787 21.4952
384.614 82.177 22.8672
386.865 79.8875 22.3059
380.659 80.0637 22.4682
389.591 83.9311 23.7954
371.57 78.3166 22.4245
371.654 79.464 22.808
358.192 77.3079 22.4093
353.507 77.5511 22.8201
352.973 78.765 23.1564
345.909 78.167 23.3044
351.994 78.5286 23.6529
339.93 77.8039 23.3057
342.908 78.3178 23.768
342.207 79.3893 24.2099
338.252 77.7653 24.2104
319.684 76.3148 23.8524
328.318 75.7594 23.9725
328.675 78.0969 24.4919
318.72 75.7854 24.19
327.783 79.3596 25.4639
307.309 71.6839 23.282
323.094 76.8572 25.0681
317.458 78.2034 25.7926
306.761 75.4091 24.8457
307.378 75.268 24.9202
301.754 74.8226 25.0367
301.38 74.6245 25.3921
304.684 77.7743 26.2866
297.323 76.3559 26.1899
292.861 74.6418 25.7473
284.796 75.0327 25.7829
291.736 76.1447 26.733
286.071 73.2999 25.7717
282.548 74.1712 26.2156
278.843 71.2192 25.4212
273.994 72.9594 26.4526
268.357 74.8875 26.7621
271.657 73.3183 26.8294
271.527 75.5037 27.4173
262.729 70.4584 26.2195
271.073 74.1089 27.2306
260.944 74.5348 28.109
270.149 76.2196 28.63
259.853 75.7208 28.6575
259.597 74.4367 28.7602
255.987 73.6954 28.4542
257.449 73.2891 28.3558
256.108 72.963 28.5049
246.082 73.1638 28.7516
252.433 74.2424 29.7146
241.742 69.8606 27.628
241.082 72.5129 29.1059
250.279 72.9898 29.3371
238.532 70.1172 28.2134
240.814 71.0815 29.158
240.567 71.5761 29.5325
241.216 71.0648 29.3113
235.496 72.0441 29.9136
229.216 69.4626 29.0305
234.599 71.3489 30.0121
223.224 70.0514 29.5872
223.152 70.5262 30.307
221.54 70.5741 30.3242
220.518 69.2556 30.0262
218.481 70.663 30.755
215.99 68.0497 29.5295
209.669 67.9115 30.1971
216.526 71.1841 31.4029
214.897 71.5672 31.9621
211.421 68.8499 30.8674
217.339 71.5184 32.7253
208.542 69.1792 31.211
204.276 68.267 31.3617
203.698 66.3986 30.3131
200.731 66.329 30.8613
202.674 68.3068 31.5106
197.708 66.1499 31.0305
200.244 69.7864 32.9032
199.747 70.0122 32.9061
191.807 66.708 31.8872
203.173 70.5006 33.8028
192.924 67.1084 32.4245
192.209 66.9188 32.2403
191.227 66.2919 32.2871
183.979 66.0264 32.6906
179.073 63.1311 31.2678
186.517 67.5104 33.3869
180.332 65.6286 32.703
186.818 67.5153 33.9051
184.681 65.5764 33.109
185.036 67.817 34.4999
178.397 65.753 33.7544
178.927 64.7815 33.2618
176.487 64.6173 33.4792
173.005 65.1145 33.7377
178.351 66.0629 34.1842
177.503 65.2786 34.4254
176.037 67.7675 35.9133
171.612 65.6402 35.0327
170.493 65.7237 34.9781
173.075 66.233 35.876
167.705 63.4671 34.1238
164.851 62.8371 34.6878
173.556 68.1348 37.1866
164.586 65.0218 35.6376
158.673 62.9074 34.932
161.072 63.6432 35.1024
160.781 65.1037 36.2735
164.533 63.9609 35.8027
162.419 65.7199 36.9206
155.359 62.6232 35.3914
156.388 64.0145 36.4009
157.34 63.962 37.2483
158.954 63.8638 36.6742
153.528 63.2777 36.9626
153.576 63.5145 36.5162
147.185 61.5463 35.8508
145.399 61.449 36.5475
153.417 62.7446 36.4899
146.611 61.4127 36.7544
148.627 61.2566 36.5415
144.697 60.5684 36.5108
143.355 60.5142 36.6399
142.049 60.9955 37.6322
142.28 61.4636 37.5173
140.45 61.5499 37.6385
138.096 62.1305 38.6344
142.659 60.6655 37.059
143.245 61.5882 38.5831
139.618 62.0575 38.8745
133.8 58.3574 37.0059
137.926 60.2842 38.0141
140.948 61.9111 39.2038
131.092 60.2161 38.2895
129.368 59.1929 38.6762
133.939 60.961 39.286
130.859 58.5409 37.9805
129.873 58.753 38.8385
133.413 60.7293 39.4707
123.115 56.6867 37.2884
124.814 57.1075 37.8661
125.472 57.2313 38.2205
126.785 58.5635 39.1931
127.386 59.4237 39.8746
128.557 58.6173 39.4168
122.989 57.9031 38.9039
121.127 59.2488 40.6988
125.967 59.9169 40.533
125.564 58.6279 40.323
120.668 57.3241 39.3192
119.563 56.8141 39.2591
115.826 56.9474 39.9746
119.846 60.0549 42.5201
119.104 58.3579 41.2232
122.016 59.0624 41.7724
117.655 57.5476 40.1658
112.248 57.3109 41.6769
118.972 58.0707 41.6209
116.66 58.1286 41.6661
114.013 56.3487 41.027
113.389 56.6571 40.9583
111.257 54.7352 40.2805
107.723 55.4496 40.7268
113.202 56.6021 42.1022
108.572 55.8221 41.8197
110.49 55.1496 41.3101
114.419 58.7562 43.7873
110.222 55.5327 41.4048
105.95 53.7778 41.119
106.366 55.6264 42.2324
110.492 57.7512 43.873
108.061 56.8542 43.1466
101.128 53.6741 41.0956
105.069 55.579 43.2598
104.716 54.6 42.2543
105.088 54.9171 42.571
100.636 53.4769 41.5742
102.922 55.1441 43.4728
102.037 56.0688 44.6553
100.654 53.6432 42.6791
101.726 54.3229 42.8369
100.614 55.0202 44.3639
104.836 55.5241 44.2353
100.08 54.5623 43.9378
98.9203 53.3261 43.4599
100.047 56.2311 45.8709
94.7527 51.2125 42.1577
96.6413 54.005 43.8149
95.3152 52.784 43.8145
98.7848 54.1361 44.5125
94.9147 52.9657 43.8916
92.3273 51.0879 43.194
94.0574 53.3393 44.5946
90.9397 51.9795 43.2684
92.832 52.1834 43.6936
90.65 52.7283 45.3197
89.1083 51.1952 43.8255
91.8396 53.9586 46.337
91.9537 51.486 44.5476
86.8092 50.6129 43.7854
92.7102 52.6352 45.0591
88.3946 53.1552 46.3214
86.8926 50.9125 44.4721
88.6061 52.723 46.4198
86.3524 49.2454 43.2902
86.8314 50.4196 44.8474
89.0761 53.1035 47.389
83.9615 51.8065 45.8882
86.2227 51.3116 45.758
85.1987 51.1007 45.6657
85.3584 51.3719 46.7474
80.9448 48.7437 44.5575
80.2737 48.3596 43.8685
80.9424 49.4521 45.3662
83.3172 50.0351 46.3237
83.2006 49.8874 45.5843
82.3543 50.8411 47.1546
81.2184 51.1554 47.8547
81.3369 50.1077 46.2122
81.0292 51.075 47.8569
81.3977 50.2894 47.3685
79.5086 49.0835 46.0964
78.6171 48.4158 45.8739
79.1648 49.4779 46.9791
80.3434 47.5254 45.6017
77.1574 48.2619 46.8798
78.4049 49.5662 48.2288
74.7 48.4817 46.9614
77.9636 49.1075 47.164
76.1355 48.4703 46.2192
76.7506 49.616 48.8573
78.2891 49.8682 47.9353
76.7853 50.0865 48.9549
72.1768 47.4867 47.95
75.099 48.0019 47.6904
77.7652 48.9361 48.9898
76.4632 50.1682 49.6336
73.6594 48.7365 49.1138
73.4786 49.1414 49.43
69.5582 45.32 45.9483
71.8886 47.3336 47.7551
73.5991 48.5251 49.5527
72.4542 46.631 47.7638
71.7004 46.6752 47.8806
70.5683 48.1723 49.6506
71.7009 45.9719 47.3724
70.2787 47.6613 49.9323
69.7425 44.8249 46.3414
67.8758 45.2767 48.4171
69.6309 47.1809 49.1275
71.6141 47.7571 49.8169
68.1882 45.649 48.4037
66.1581 45.8089 48.5838
66.9703 45.6691 48.6391
66.0552 46.5497 49.4836
65.5884 44.9131 47.6846
66.311 46.3978 50.1621
65.7645 44.8539 48.798
68.4794 47.3538 50.9131
66.1724 45.6409 49.8525
67.2281 46.0617 50.4729
66.6742 47.4773 51.0545
64.1517 43.8024 48.4955
63.9844 45.5158 50.3871
63.8053 45.315 50.2357
62.7864 44.7145 49.584
64.6716 45.3211 50.393
63.0249 45.357 50.6859
64.3884 45.7505 51.5111
62.8408 44.8967 50.0454
61.0683 43.4643 49.3978
60.7803 44.4731 50.3377
61.7438 45.5718 52.1607
59.9238 44.0804 51.2441
62.8992 45.2147 52.3287
61.6817 45.3389 50.8755
59.0984 43.6897 50.5952
59.6142 43.3596 50.1332
59.948 44.2841 52.3381
60.6644 43.2901 49.6754
57.6255 42.9572 50.9893
57.25 42.9304 50.1786
58.7398 43.8565 52.2427
59.2133 43.4557 50.2576
56.1399 41.4182 50.4458
57.8871 43.833 52.4353
58.4463 43.5145 51.7554
57.2683 42.8925 51.3905
59.7864 44.0695 51.4408
56.6428 42.2165 51.6504
57.3906 41.9448 49.8995
56.0186 43.538 52.8747
53.5285 41.555 51.7716
55.243 42.5335 52.2551
57.3884 43.6333 52.9363
54.983 41.5501 51.0737
52.4201 41.6064 51.1417
55.5617 42.349 52.8312
52.8226 41.183 51.4894
53.3592 40.0121 49.662
52.9653 41.2671 51.3259
52.8835 41.5706 52.4004
52.9374 41.6265 52.4122
53.1847 42.1038 53.6069
53.4786 41.8159 52.2449
49.7946 39.0924 50.6673
52.1285 40.4611 51.4809
53.4561 42.8788 54.2114
51.4538 40.1342 52.5524
52.6916 41.5713 52.5037
51.1075 40.7045 52.8736
51.3511 40.581 52.2631
50.2423 39.5333 51.6609
50.5969 40.5643 53.1254
49.9387 41.5112 54.0934
49.6922 38.9982 51.1479
49.5732 39.9969 52.7449
47.9274 38.0911 51.3943
49.7042 38.2233 50.1995
47.4756 39.6768 52.6153
49.5759 41.1228 55.0754
48.7387 39.8214 53.2266
48.429 40.014 53.4101
49.4083 39.9273 52.7551
47.1644 37.9563 51.5067
48.1765 38.6498 51.7098
47.9709 39.8521 54.4811
48.0348 39.0029 53.3307
47.9613 39.4023 53.4716
46.9388 40.0502 55.3154
47.5879 39.3931 54.691
47.9556 39.04 54.433
46.7694 38.0471 53.1783
46.2248 37.6702 52.2262
46.6255 39.5453 54.8327
49.0495 41.6268 56.8201
45.5009 36.4406 50.969
46.8233 39.6973 56.0031
46.7936 39.7379 54.2242
44.497 38.2908 53.3361
44.737 36.7676 52.8218
45.3568 39.1552 54.6536
44.0271 37.4975 53.8813
44.5458 38.2173 54.7071
44.3027 37.4467 53.4949
42.8772 36.0733 52.6896
45.9425 38.1046 54.0979
42.6267 36.2505 52.883
45.1259 38.8345 54.8239
44.6091 37.9264 55.0317
43.7531 38.0033 56.0239
42.0251 36.8783 53.3475
42.1502 36.3727 53.6321
40.9014 37.0104 55.3002
42.7121 37.6237 56.4115
43.8135 38.133 55.4003
41.7323 36.2631 54.7954
41.1486 35.9846 52.1646
40.9563 35.6943 54.0117
41.2089 35.8363 54.4617
42.0937 35.5332 52.5455
39.753 35.7835 53.8205
40.3253 35.8558 54.7317
41.9663 35.3782 52.851
40.5443 37.066 56.6158
42.1779 35.9705 54.9808
42.6597 36.5396 54.3955
41.7085 37.126 57.4695
41.4301 36.1012 53.9512
40.1942 35.7963 54.7764
39.4964 36.4549 56.1431
40.236 35.9854 56.0902
40.1728 35.5339 54.3725
39.3289 35.0518 54.5964
40.0526 35.127 54.9066
39.2049 35.6731 55.2528
39.5327 35.3158 55.7488
39.3744 35.8905 56.5666
35.9248 33.1066 52.9323
39.2397 35.3599 56.0396
38.7964 35.1843 54.2541
37.0638 34.0337 54.8047
39.0327 36.5392 57.5663
37.2676 32.9229 52.5753
38.174 34.7644 55.3806
37.8472 35.9855 57.4712
38.0973 34.1584 55.1225
36.9706 34.9406 56.9053
37.6268 35.3778 57.2498
36.269 33.1092 54.0579
36.7686 32.4297 53.8769
36.2733 33.4761 54.1997
35.1513 33.4018 55.8277
37.2905 34.6508 56.5313
37.4077 35.4682 56.676
36.3252 33.7883 56.3033
36.4539 32.4835 53.2351
36.9948 33.7803 56.5545
36.167 32.5743 53.4589
35.1738 33.8897 56.3385
35.7636 33.5456 56.3081
35.8605 34.4439 57.1134
35.9981 33.4979 55.3099
35.9318 33.3512 57.2514
36.1427 34.4074 57.3835
34.6145 33.1204 56.0681
33.9393 33.543 56.8895
34.6692 32.8251 57.1206
33.5839 32.7745 54.1889
34.3813 33.0106 56.4523
33.887 34.1528 59.4235
35.2721 34.0286 57.7614
35.0489 34.1738 58.6648
34.3813 33.1235 56.8118
32.6381 32.7676 57.8848
34.1792 32.5872 57.0647
34.5018 33.4696 56.9683
33.1419 32.6591 57.2534
33.4074 32.07 55.9562
32.1999 31.7798 56.0962
32.959 31.9443 55.7266
32.9344 32.1585 56.0943
32.2878 32.0722 56.3147
31.9608 32.5198 57.9857
32.5306 31.5956 57.0038
33.2852 32.021 56.0314
32.4164 31.7222 57.3093
33.5297 33.3095 58.0239
32.4368 32.6043 59.0127
31.4634 31.29 55.6874
32.0851 32.3421 58.5285
31.4379 31.6008 57.3223
31.7757 30.8134 56.4978
32.4051 32.2327 57.7924
31.5321 31.9492 57.1782
30.9317 31.3358 57.431
30.5412 30.1254 56.2863
31.4366 30.9368 57.1437
31.6888 31.5941 57.8995
30.2626 31.2316 56.3
29.8394 30.7934 58.0331
30.6 30.0349 55.1742
30.8774 31.0819 56.9338
30.386 30.6202 56.0639
30.1904 30.9147 57.3999
29.256 30.2659 56.7487
29.9646 30.3379 56.2508
29.6643 30.2336 57.9879
29.5825 30.0745 55.6613
30.9088 31.1284 58.1153
30.0177 30.7279 58.0438
29.5279 28.901 55.8685
29.7613 30.2291 56.9497
28.467 28.0498 53.5923
29.6133 30.4737 58.0057
29.2536 29.8284 56.414
28.6475 29.4996 56.3019
27.9291 29.9273 56.9298
29.5285 31.1023 58.3314
28.6823 28.422 58.1557
28.9701 30.3063 58.7439
29.1701 29.4672 54.6274
28.1205 29.0313 57.6066
29.2633 30.6652 58.804
28.6924 28.3255 55.4579
28.0186 29.1193 56.1811
28.0641 28.7764 55.9827
26.9211 27.9084 55.0428
27.8674 29.4751 57.6932
27.5885 28.8569 57.7177
27.5978 29.4665 57.3086
28.4708 29.267 57.7784
28.8315 29.7747 57.5633
27.5765 29.5835 59.5592
26.3198 27.9239 56.0186
27.3167 28.8868 57.3051
27.0619 27.8337 56.7469
27.0615 28.1235 56.4749
27.1474 28.8888 56.5537
26.3905 28.3533 57.6696
26.1281 27.9893 57.5318
26.736 27.7947 55.6945
26.554 29.0559 58.6178
26.6209 28.7223 58.4566
26.7775 27.5368 56.011
26.3141 28.1366 56.9725
26.2756 28.57 58.8858
26.285 27.6282 56.3141
26.4431 28.2949 57.5037
26.3565 28.4559 58.1353
26.3693 28.4312 57.5675
24.1707 26.3638 55.8568
26.137 28.1317 58.189
25.0984 27.4644 54.9591
25.7682 28.4016 59.9805
26.2232 28.0005 59.1012
24.9092 28.0396 59.2338
25.735 27.8813 58.6273
25.8547 28.0466 58.1679
25.1783 27.475 59.0624
25.8325 27.9808 56.9454
24.9759 26.4146 56.299
25.7822 28.145 57.6887
24.3784 26.0292 56.8067
24.9648 26.4045 55.1904
24.0634 26.5296 56.8824
25.2764 26.7042 56.8751
24.329 26.4056 56.4631
24.7569 27.5726 58.6233
24.4647 26.2145 55.2587
24.4746 27.9843 59.8717
24.3963 26.9144 57.0849
24.4666 26.9677 60.132
24.3025 27.3144 58.554
24.3657 26.3807 57.2061
23.7287 26.1651 56.2634
23.8971 25.8793 57.6037
24.7212 26.4524 56.1775
23.6821 25.4713 56.3575
25.0352 27.1573 57.5633
23.7938 26.8598 59.3719
23.8114 26.0953 56.7205
22.8241 25.5646 56.4034
22.8939 25.7199 58.7814
23.6113 25.573 56.9755
23.3228 25.3747 55.6533
23.2178 25.2972 55.3509
22.6178 25.6001 58.2714
23.6919 26.0526 57.5551
23.2157 26.701 58.5515
23.0854 24.4608 56.1078
22.4785 24.7143 55.0291
22.6873 26.8806 60.7113
23.1892 26.2627 59.0716
23.1382 25.6864 56.7499
22.3211 26.2159 58.6639
21.7511 24.6566 55.9461
21.6905 24.5571 56.0549
22.118 25.2603 57.9751
22.7652 24.9918 56.1941
22.7047 24.7835 56.7447
22.3903 24.6133 55.5938
21.9484 24.9943 57.813
22.7687 25.6399 58.3012
22.4091 24.4076 57.2979
22.1864 25.9996 59.8499
22.9732 25.6617 57.2338
22.4213 25.2361 57.9828
21.4061 23.5052 53.8023
20.9895 24.0729 56.3809
21.477 25.0389 58.6129
22.7683 25.6193 58.7036
21.8284 24.8721 57.3763
21.7862 24.6903 56.9944
21.4897 23.9465 56.4795
21.3337 24.5492 58.2476
22.2799 24.7931 57.3863
21.3782 24.1585 56.5985
21.5711 25.0142 58.7027
20.6714 24.4693 58.6503
21.0038 24.5397 57.1336
21.167 23.5062 56.0235
20.9098 24.5416 58.7009
21.456 24.4604 58.899
20.8411 24.778 58.8105
21.6012 25.0508 59.0742
20.9591 23.64 53.9069
20.2441 24.0796 59.4678
21.0697 23.6166 56.9663
20.8613 23.6239 57.3051
20.739 23.1609 55.5479
20.4899 23.0545 57.0821
20.427 22.985 55.1638
20.6157 23.7832 57.2713
20.2775 22.8869 56.1751
20.4843 23.21 55.0304
19.7202 23.1672 57.6596
19.8471 23.478 56.6124
20.551 24.173 57.6245
19.0444 22.3801 57.2397
20.3988 23.2839 56.0366
19.9136 22.9449 54.2541
19.4239 22.6483 57.3756
19.5115 23.2566 57.7659
20.371 23.8225 58.3793
19.3518 22.7406 56.2142
20.1148 23.0362 57.8588
19.8452 23.2582 57.6622
19.4336 23.3596 55.8005
