# pn-170911/CsIIA-38-USNO-1280-1959.psd
# Power spectrum* (dif=0,1,2) (really just |FT|^2)
# NOTE: only the first half! (symmetric)
# weeks: 1280-1959
# 11 clock-days, 0 excluded
# PSD: 1441
130910 1.34411 0.0304873
2.51538e+06 49.5273 0.0344781
8.94548e+06 181.591 0.0517301
1.27572e+06 70.5609 0.0564974
2.25153e+06 173.862 0.0702097
733071 54.6562 0.0507732
409877 66.5352 0.0799751
304831 47.8358 0.0450297
476291 90.9377 0.0590081
191040 54.7143 0.0824603
155377 40.2348 0.0913653
71749 40.9805 0.0888029
157708 60.3403 0.0778889
108085 57.5369 0.102207
134311 79.6311 0.120536
85663.6 59.6994 0.0978464
50851.3 46.424 0.116989
44947.6 31.7608 0.0461184
53484.2 50.5248 0.103252
60506.7 50.3605 0.0999381
31871.5 45.1648 0.100802
53908.8 89.9232 0.271039
22643.2 50.9081 0.219824
23260.5 34.6261 0.175962
26247 60.0603 0.236254
22787.3 81.6209 0.315165
20558.8 38.7352 0.180369
12141.3 25.8502 0.1076
32407 81.8227 0.339383
15959.2 43.307 0.181874
31771.5 84.3493 0.438811
16144.2 74.3183 0.454943
10455.5 35.6264 0.168335
15348.3 46.4712 0.327444
19943.2 56.3064 0.371774
11912.1 23.8519 0.170105
11739.6 59.8109 0.456055
15366.5 67.484 0.49134
13696.2 48.1307 0.40992
8664.59 37.4036 0.329764
10728.5 50.4317 0.528369
7001.38 45.8147 0.438042
6038.91 35.937 0.254145
9501.05 42.9825 0.310853
11020.7 64.0033 0.635736
6311.79 34.4481 0.392403
6051.66 46.6909 0.425305
6138.58 56.4159 0.676764
7554.87 63.0023 0.857237
6599.94 59.4872 0.670914
6516.94 55.6077 0.686543
4282.62 43.0165 0.623388
7236.01 42.8582 0.507569
9837.25 90.1216 1.13336
3589.27 50.7718 0.859754
5329.44 48.0172 0.787877
6756.12 71.5999 0.933516
5543.26 48.6515 0.802815
4202.55 65.5367 1.08215
3437.94 53.8059 1.10121
7402.35 75.4795 1.39707
5834.42 85.1579 1.53149
2718.94 41.9704 0.705638
3553.06 48.9224 1.02497
3651.01 76.1805 1.6831
4075.07 84.8641 1.81777
3984.31 44.2442 0.883094
2330.06 34.4206 0.803136
3973.86 74.2379 1.56434
4511.06 60.1926 1.43069
3949.66 51.7229 1.18612
2368.19 46.2029 1.20672
2352.86 40.8073 1.00454
4440.86 53.3374 1.44525
4604.39 83.7312 2.1451
3386.11 46.8803 1.4027
3604.45 75.4921 1.92551
2547.32 47.1037 1.20646
2164.24 49.4051 1.44923
3201.81 42.6857 1.22586
3452.29 75.5972 2.40402
2466.8 54.5895 1.76221
2476.18 50.7809 1.58555
3783.38 97.0642 3.00912
1856.07 63.0684 2.11653
2105.51 61.3106 2.10871
2250.08 60.7915 2.1862
1437.76 24.2039 0.949244
2462.31 72.9255 2.69613
987.03 19.0153 0.806634
2628.37 88.4606 3.91676
1640.28 29.9082 1.27617
1900.85 36.7129 1.48918
2257.61 64.7031 2.33614
2043 40.5259 1.7675
1509.99 46.0985 2.17477
2756.41 90.0212 3.67437
1590.77 33.8154 1.45308
1634.2 39.4645 1.88514
1833.74 38.5589 1.73817
2062 69.1644 3.05145
1723.4 45.9208 2.1715
1122.22 24.8258 1.19742
1909.69 59.6738 3.1611
2380.07 66.337 3.31298
1502.85 36.9619 2.03719
1241.83 57.7226 3.02033
1584.35 39.9288 2.42932
1310.09 63.025 3.71676
1688.82 71.9085 4.35376
1493.12 73.0948 4.32535
1222.97 47.3977 2.88292
1081.9 70.9679 3.92524
757.207 22.4112 1.35649
1526.16 58.5461 3.75351
1682.57 52.0984 3.20531
1207.83 48.4869 3.27777
2322.14 99.5706 6.09035
625.203 60.6345 4.12699
1190.39 54.7364 3.33226
1448.16 56.2086 3.4118
1478.6 56.9442 4.17419
441.923 31.1412 2.3604
896.222 40.4935 2.87481
1017.94 53.7346 3.93234
579.055 27.4976 2.16229
872.288 44.5704 3.39991
1028.56 76.0948 5.59894
812.648 48.5699 3.51178
1339.48 58.738 4.58896
1155.08 86.0907 6.9231
783.498 35.4642 2.81808
1114.32 37.809 3.32355
1083.57 75.2477 5.66243
1348.85 63.528 5.76167
706.979 40.3795 3.67379
749.192 36.1044 3.07382
831.765 35.7464 2.962
543.594 27.706 2.79369
678.138 49.0167 4.35125
988.992 38.2048 3.69509
1022.28 64.7936 6.16402
685.484 47.7851 4.43235
735.858 68.9485 7.0008
942.742 71.6106 6.35241
806.669 51.9521 5.34999
757.728 32.0808 2.93469
573.012 46.6121 4.76616
730.487 40.5832 3.90139
836.608 80.9423 8.22724
486.8 38.1326 4.11731
584.398 68.2331 7.47419
833.887 44.8462 4.70686
511.703 67.9597 7.53417
1031.56 93.4195 10.7322
680.584 51.1612 5.50303
639.598 45.8711 5.47607
457.808 45.427 5.73014
929.417 40.1129 4.15701
867.833 63.613 7.93818
816.699 64.566 7.97342
732.945 77.2511 9.52221
828.669 57.9307 6.6954
589.261 59.3467 7.74483
561.247 41.8548 5.27981
895.228 54.2504 6.36457
569.893 43.2665 5.89562
456.079 41.1676 5.04726
437.27 45.7561 6.32247
383.109 30.9216 3.97319
869.123 58.8118 7.84611
774.539 55.5585 8.02986
656.756 47.9923 6.44162
573.851 38.9484 6.47668
309.417 27.2581 3.78362
626.547 56.95 9.08755
506.378 47.8568 6.24189
488.132 51.2787 6.85419
572.967 63.3397 8.99233
529.601 65.1284 9.15665
578.467 55.8704 7.83756
644.002 76.9515 12.0014
520.426 56.1413 9.04883
713.808 54.3253 7.81567
412.646 44.6693 7.14875
371.9 51.917 8.32047
409.605 29.3614 4.94231
1019.64 88.6572 15.4925
584.876 60.9719 10.4746
440.645 50.4697 9.6054
807.445 58.9334 9.45343
287.69 32.6762 6.49136
561.014 45.1452 8.04854
409.965 48.5525 10.2047
626.227 74.21 11.4068
406.559 67.4463 12.6738
630.983 70.7198 11.7863
356.716 41.2867 7.21991
337.898 40.5529 7.35321
351.079 42.6689 8.24286
547.76 63.3104 11.3056
388.085 72.3091 15.2181
398.314 56.3683 9.94757
323.229 44.8411 8.46434
435.487 53.0414 10.6668
345.028 56.9419 10.966
397.671 47.2176 9.67436
442.05 49.973 10.4472
524.312 83.4714 16.1459
470.367 39.6914 7.51741
295.524 36.8449 7.24183
415.61 51.3217 10.702
293.236 44.924 9.20807
183.541 38.6766 8.62006
440.47 56.4101 11.9946
366.596 50.0195 11.0416
459.131 40.7485 9.05718
270.603 32.2265 7.01257
724.894 99.9386 22.3678
204.791 40.7048 9.58117
362.412 47.5156 10.6206
381.337 70.5539 16.3732
251.161 53.4396 12.664
370.168 39.7516 8.44029
399.452 61.4752 14.1754
328.972 64.7984 14.6253
348.422 34.4577 8.13488
343.305 50.761 11.3248
253.054 42.1593 10.6835
161.183 34.0135 9.23865
302.072 43.9468 10.0236
322.127 45.8252 11.8585
271.811 43.2288 10.4791
127.182 59.0844 15.4154
255.574 41.8425 11.0426
436.76 63.0406 15.4995
274.931 53.4784 14.9048
372.008 33.8225 7.8501
393.326 72.5977 19.1342
271.106 40.7881 10.7098
148.772 21.4761 6.531
234.573 36.4201 8.90061
173.355 50.3256 15.0831
256.375 58.3018 15.8833
344.318 53.1532 15.2524
375.925 56.0198 15.5175
342.023 61.842 18.3359
348.186 48.8346 13.218
316.541 52.647 14.7207
313.398 37.754 9.3088
165.433 35.5554 9.82847
358.96 68.3703 21.7982
240.92 54.0727 16.2746
238.095 30.6141 7.57177
360.743 83.2439 25.1041
226.419 38.4645 13.595
305.758 58.3733 18.8605
243.354 45.0913 13.8554
241.094 55.1162 15.2937
125.212 42.7552 12.743
249.305 36.3721 11.9477
186.128 53.1586 15.2185
143.201 50.0061 16.3254
267.887 67.7637 23.0492
126.824 33.0625 11.3925
225.955 56.2382 17.0492
256.478 40.2116 12.0742
419.088 79.3067 26.4569
350.572 100.724 33.3769
376.926 79.009 26.755
248.06 74.1681 23.3928
221.629 44.8609 16.3942
268.573 53.057 18.3435
223.904 72.0091 24.343
216.672 40.8668 14.6758
201.162 61.4342 20.2086
203.229 54.3257 22.4056
147.608 28.8312 10.1696
238.055 58.3386 19.9938
363.709 82.891 28.7971
166.677 40.6742 15.4242
175.176 40.3437 17.705
261.453 79.5579 25.6532
159.946 36.6961 14.383
188.755 46.402 18.7494
274.757 44.3544 15.5415
166.104 42.0656 20.129
254.3 56.2788 19.3133
189.948 29.0101 10.0428
139.409 34.7492 15.1248
139.316 47.4734 20.6069
291.249 58.1909 20.89
217.534 40.1996 15.8695
180.48 45.6169 18.8931
201.342 35.5023 12.306
247.102 61.987 25.0051
158.835 34.9189 15.1608
194.29 40.7886 16.6582
190.132 53.1016 20.9719
175.167 36.6835 16.1349
133.734 25.1802 10.3765
195.646 42.4456 17.0727
310.399 71.2696 27.4123
173.537 45.3153 18.5286
216.629 51.6208 22.7875
233.425 66.7293 26.5944
151.199 38.0554 16.9918
160.354 49.5836 20.6237
194.15 45.3982 19.2895
87.9744 20.6916 11.3385
123.28 29.8696 13.1152
125.977 32.1306 14.9844
182.72 42.3943 20.0969
101.948 26.8286 11.0141
200.174 57.3603 27.6773
219.613 55.7925 25.5071
145.541 30.2778 13.1153
102.033 24.2654 11.2241
139.404 28.0542 14.055
147.27 29.7264 10.6065
175.52 45.0659 23.0692
153.961 32.869 19.4356
135.145 40.4232 17.8646
125.515 43.3132 20.6654
115.412 46.9178 19.5998
197.472 48.5768 22.1017
192.908 50.513 22.9959
132.922 40.6404 19.936
99.3159 40.5068 20.2737
167.13 50.659 23.0799
153.6 39.8628 20.4057
79.5949 38.6078 20.0726
129.897 47.7596 24.3083
129.604 37.2751 21.8442
206.231 53.3431 24.0356
173.177 49.4338 29.0401
108.219 44.9175 25.3109
208.183 58.8708 25.1039
87.3454 12.3342 6.73647
102.847 41.5228 21.1213
145.593 32.8704 19.8126
119.989 32.2804 19.4623
138.318 31.3 16.2448
165.057 40.382 19.3594
112.591 40.0871 18.9743
154.615 58.0031 34.3249
136.974 31.3594 16.3378
139.686 36.3066 17.4792
135.435 34.9809 17.9891
163.703 45.3039 25.4612
138.386 44.2268 24.8163
132.813 37.9592 20.2643
77.8177 26.6781 19.8018
164.18 40.3372 20.4769
65.5621 35.0469 16.7252
98.4604 63.9175 39.5326
95.2544 39.4615 22.162
143.495 37.7522 21.6244
89.1108 32.1098 17.8262
142.793 57.6232 31.1809
119.856 55.1451 31.9473
128.084 28.484 17.5752
132.739 43.0618 20.5061
144.751 45.025 26.3356
121.913 49.0598 31.2635
81.0244 25.1711 15.4543
124.271 32.5029 22.613
72.8899 44.1884 29.8659
123.186 43.9059 22.9692
105.328 41.4786 24.2753
84.1135 41.8649 27.1321
137.296 23.8731 14.6678
65.203 31.5179 20.4474
112.601 25.5148 13.4864
89.8138 62.7416 39.5038
126.649 37.091 23.6503
165.097 41.5278 28.4476
131.078 44.3859 23.1778
89.5107 30.0776 19.2253
155.016 82.2649 52.6904
85.3498 52.1551 36.2585
77.0301 50.2067 38.7831
127.307 36.7277 19.9275
140.037 44.3016 27.3367
104.963 48.9317 33.7052
141.33 52.8967 29.3343
83.5286 37.1642 27.4487
126.421 42.127 27.8642
127.451 39.7402 28.1084
175.326 65.4284 43.3905
126.624 52.5407 38.7058
87.678 47.3296 33.5245
117.748 58.0828 41.9072
104.332 38.353 21.2681
86.2793 32.615 25.5852
88.565 33.3192 20.2622
87.6363 29.4548 24.5987
162.048 57.5337 36.5972
86.0292 34.0182 26.8621
114.574 40.9386 23.8107
92.8942 44.9247 30.3435
99.1307 37.3804 32.4951
128.9 58.0103 41.9409
106.594 46.9218 34.4721
104.442 29.869 20.5287
128.206 54.7819 40.0399
117.001 48.6442 35.7232
80.3375 33.4257 22.2634
114.713 49.5728 38.5197
124.577 61.2701 45.1632
70.605 28.2256 19.1004
145.272 67.4782 48.4267
81.8025 20.7769 17.5757
134.84 49.3747 39.923
92.3966 35.2789 23.7573
72.2918 35.9768 29.1248
113.222 51.6315 40.1831
76.2038 29.7816 24.9845
62.2183 26.7976 19.0312
44.2808 24.4977 18.1097
112.186 59.5062 46.2921
76.7794 40.5978 34.3837
54.8692 30.2381 25.0351
95.9901 32.2887 25.4726
93.4949 43.5731 32.1616
99.9973 41.5189 34.1373
91.4103 28.6565 23.5247
113.099 59.9296 50.1432
80.2068 33.4505 27.2831
145.251 74.9502 67.3436
109.57 45.0376 26.8253
99.6388 36.4995 31.8536
64.748 26.215 21.1703
51.0413 13.3563 11.932
66.0125 27.6729 23.7634
87.575 49.5058 40.5158
91.9324 49.8924 40.3748
108.316 27.5407 22.5339
106.555 48.2327 43.8216
53.7512 28.8757 27.3941
89.1689 35.9591 28.2337
72.4451 45.4623 41.7719
88.6721 34.7987 27.962
70.8353 29.7585 24.7939
70.1766 34.3875 31.4513
45.9071 31.5428 28.9819
90.0992 31.3858 23.4272
153.014 72.9653 65.5093
65.5558 27.8697 23.1923
105.778 41.2997 39.9209
66.6362 30.6589 22.4068
77.6159 44.0407 40.1788
45.8515 24.0192 23.1377
39.3911 27.1942 25.4558
59.4794 37.9161 29.6446
42.3047 35.3802 34.3608
61.1564 36.6198 29.4289
74.7529 30.9038 27.2975
66.3566 18.5709 16.7446
52.8068 21.1267 15.3317
64.7761 32.7903 33.0387
79.2217 50.0074 47.4778
60.4248 37.5952 39.5616
73.8722 29.2443 27.5393
51.9459 29.2515 28.9034
39.6093 22.3173 25.4304
98.6395 40.1608 35.8967
63.2833 36.4345 34.9623
68.3771 52.5028 49.2467
54.6125 33.8029 37.9099
50.1448 17.6675 11.324
53.5877 35.3309 30.333
86.2062 51.4025 50.1277
94.5751 42.4636 39.5523
58.2485 37.9451 33.3127
43.9754 36.571 44.0386
84.2575 48.2246 50.348
66.1517 31.8768 25.0913
41.3611 27.6721 25.7409
47.1841 19.2785 22.6043
50.3393 16.883 15.9756
41.5786 43.2553 39.8912
66.0175 38.5019 42.8045
72.2458 30.885 34.247
39.2823 26.1379 24.4236
62.4613 29.6493 33.0125
83.7167 52.3454 54.4829
87.1041 48.9181 46.0566
74.6973 33.0037 34.9246
69.935 52.9134 45.3221
49.2371 47.9325 51.7753
44.5126 31.5116 38.0531
72.5219 24.1088 26.2749
71.8889 32.9548 38.259
68.9278 35.6675 35.6486
48.695 23.3973 21.3665
51.1949 27.2317 27.1984
58.9405 38.5468 42.688
72.8094 44.9822 48.0531
47.6445 31.193 36.226
52.7275 20.9685 17.9529
61.6509 28.7547 36.5754
56.8804 24.8514 25.6934
51.2346 24.4882 30.1979
48.2647 37.5436 39.5353
25.2732 22.138 26.1202
50.5707 27.492 27.1995
46.5518 40.4813 47.2598
57.3046 31.6914 38.3719
38.484 59.7623 68.512
66.7529 41.2491 35.2014
45.0005 41.5982 52.3571
48.7578 43.2067 49.4893
57.0189 31.2628 29.2619
54.1865 43.3271 47.445
24.1786 30.5652 35.6735
31.6929 22.4654 35.4614
44.4814 20.0596 27.4485
79.614 40.404 47.6457
53.1884 38.4093 40.5531
45.705 16.2559 15.2902
44.5744 21.3598 22.8261
42.7876 32.2359 35.7154
44.15 28.429 31.1476
58.8074 32.5831 36.9681
55.5402 36.5168 47.8512
56.4834 18.2859 20.132
35.512 32.0717 46.3979
64.0748 26.9691 28.5878
57.3837 22.1908 24.0659
78.6268 38.9068 46.0444
73.9666 30.2055 35.6422
64.4733 28.362 32.1415
45.4672 23.6425 26.0288
32.8847 14.2757 23.0576
53.2651 22.9896 25.1211
53.2639 34.8415 44.5567
62.8131 28.2206 33.1689
56.5572 30.3981 35.8877
48.2266 28.9957 35.2544
56.7794 35.4722 42.1849
33.2515 34.5684 38.2921
47.9055 32.8007 48.6732
56.0193 33.7036 41.8856
52.6842 38.6246 56.0703
62.8344 29.935 32.6322
61.4389 31.5353 40.22
55.5261 32.9715 38.5745
34.2919 23.9405 36.6949
60.0857 24.2197 25.0237
56.0137 40.6976 49.2601
38.2634 30.1949 40.9359
38.864 38.3054 49.2181
48.4272 32.9953 44.7065
55.1141 26.0833 25.0291
45.5199 33.6954 51.596
52.7401 33.288 44.1182
33.5548 43.7721 51.9436
44.3298 18.4837 20.1802
40.1355 33.5977 51.3202
54.4881 22.3841 27.6548
40.134 24.6705 34.5843
53.455 36.322 51.5661
37.2762 24.313 31.0115
37.2037 22.9288 25.4255
34.8312 32.9887 52.4066
53.2377 35.459 50.5763
26.9244 23.1868 24.5702
52.9211 31.0258 41.2209
35.7681 20.405 25.3038
41.4226 24.5514 28.3282
40.4139 30.8975 54.7792
47.5209 31.0506 29.4342
37.1476 35.5708 56.9313
44.3576 20.0489 37.158
35.8652 22.0081 30.3239
24.3634 22.2145 38.5698
54.8467 53.4544 64.6863
46.4398 21.3245 31.5997
67.311 47.0039 51.9445
53.334 25.2283 35.5585
42.136 30.59 39.3926
42.4081 32.8629 39.017
47.3429 26.5841 49.7448
51.5301 36.0685 61.2709
41.9418 35.6824 36.6484
55.0788 48.4723 68.3645
75.1851 36.8259 48.8312
31.7519 28.0626 43.0537
43.0727 36.7925 45.9225
46.3656 42.9677 57.7352
38.0729 22.0552 44.2544
37.6041 24.2534 30.5774
51.7021 26.8261 48.6578
38.5805 39.681 50.5631
46.5849 42.0139 66.3192
41.0575 38.7687 61.0393
37.0065 28.3709 35.2013
30.9327 34.1605 55.0743
36.5113 26.4962 31.6527
33.4858 16.1996 20.4379
44.2725 20.2835 47.1607
27.9248 30.2781 30.5287
48.3744 24.8683 40.0456
40.1462 26.5667 45.5961
49.5434 38.3807 50.6168
48.3794 30.6805 47.7932
40.1681 30.5503 38.6081
33.0306 34.7698 56.8931
46.9346 41.4817 59.0202
51.7002 29.5006 35.6263
44.5618 41.4624 64.0443
21.4811 11.0697 19.7496
43.9045 12.2612 18.1579
26.4313 25.1962 44.8852
39.7044 15.9442 23.7235
40.088 20.5612 34.5677
45.5585 20.4954 28.8406
55.5037 38.9077 54.3213
24.0345 22.4819 36.782
44.92 28.3373 38.7001
22.0221 21.8535 41.2458
37.9111 22.1375 38.7187
26.2118 13.5799 19.2332
32.0835 29.9913 46.6783
33.47 16.2025 19.2424
37.4325 20.5049 38.8265
25.0052 18.6452 40.4904
48.3442 32.9585 43.6301
30.0946 18.2617 29.7665
29.8911 41.6419 47.9604
30.5014 30.5704 58.1057
33.7819 22.9989 30.0098
23.5017 17.3128 39.7963
23.4674 42.4943 74.8626
65.4157 35.8556 51.9517
36.8678 18.5088 37.6347
41.2147 22.9814 37.8901
31.0183 19.2756 30.7907
37.9 19.605 33.4651
40.2023 21.5249 31.8733
30.8803 21.9758 35.825
37.4879 13.6619 24.6407
38.7826 17.0492 23.5792
27.2106 18.6377 38.5336
39.8781 25.902 48.027
47.8275 44.5836 63.6306
43.0725 19.4766 40.6282
36.8286 26.8875 38.5504
22.9453 20.1796 46.6187
36.7579 25.0327 42.3113
40.6985 26.2164 33.577
43.9711 29.8229 67.139
32.3469 23.9166 33.9214
25.2511 21.2541 30.9518
29.1094 10.7873 19.7148
38.5258 25.8444 47.5615
36.1331 31.8468 52.3664
31.7531 19.9385 37.7386
21.6005 28.3701 45.4018
30.8538 21.1965 38.8801
29.9447 19.035 31.9072
28.6093 19.3448 44.0062
39.6959 17.9952 35.6503
42.4831 30.6388 43.2831
49.0403 37.2953 63.4672
32.9046 15.0547 33.8352
25.896 15.7012 25.0395
20.8507 9.71063 22.3678
32.7205 18.5726 32.9573
25.7282 15.147 23.9821
38.31 20.3166 33.7663
29.792 26.5001 56.4952
39.5479 27.9812 42.1786
39.5003 18.9717 30.3856
26.0332 23.3615 44.7042
21.0067 19.0938 31.7613
33.2705 21.5991 45.3876
32.4316 28.4626 43.5939
24.2693 13.9668 31.2911
24.2439 14.2323 26.2053
28.1594 23.5746 37.3092
42.7821 25.8123 47.603
13.9427 17.9547 45.6813
30.1469 36.6401 46.9261
33.1473 14.2824 29.7299
31.0937 18.3247 35.8483
24.9022 36.0289 54.7309
28.4074 17.6451 43.779
31.4443 27.5627 41.0172
16.4184 20.9193 46.9732
26.2247 24.374 45.5358
37.6177 13.3732 20.9773
26.4701 23.0727 43.9323
26.9645 19.0955 39.7521
37.1833 24.9144 41.0417
18.1858 12.5496 28.8783
20.031 22.9557 44.9018
35.9486 23.1586 45.2761
22.6037 17.5171 36.2708
31.3074 12.8257 22.4982
25.1913 24.6362 40.8139
27.5745 18.7974 38.8218
31.2615 29.5717 65.3045
27.8019 25.3526 44.4718
37.7756 18.6914 35.691
13.3858 15.5272 32.137
22.8332 18.8241 41.9986
36.6273 24.6555 37.8029
22.5367 24.6543 47.9323
16.2311 15.0497 32.9716
27.9288 22.4929 42.3423
18.2613 16.9844 39.0506
33.0284 23.8964 46.9138
30.4838 21.0048 42.3957
29.0149 12.6979 29.4208
36.9646 24.6918 51.0117
23.3267 13.5332 30.1598
25.8877 8.92773 24.4674
39.7176 22.9195 37.6009
29.4108 21.6141 29.9174
19.5605 13.4794 27.3748
23.8136 11.2683 25.137
25.8524 19.0543 30.9846
18.8512 18.284 56.4389
34.0294 36.084 63.0965
35.616 23.2657 48.2652
21.3348 20.0174 28.9689
31.8809 19.5096 40.884
16.7822 12.3491 25.5578
30.6905 27.3381 50.3045
25.742 14.285 25.1033
18.8876 14.762 47.1922
27.8487 19.6376 29.9044
20.257 10.492 18.7062
21.3426 25.6208 61.8234
27.9666 20.6487 43.3002
35.7675 23.7937 34.2398
24.8242 15.093 38.0522
16.2681 21.8989 56.1466
34.4153 22.1936 36.3361
29.5238 24.2448 59.6274
24.6902 16.7184 35.1809
26.492 16.5103 30.8395
26.1992 17.4959 34.3187
21.1848 21.1474 61.8232
38.1072 26.4821 58.2195
25.6829 26.9789 49.4535
25.5115 21.9851 51.223
25.6451 27.6497 47.7512
25.9104 17.619 48.283
23.4905 26.0025 59.5083
33.4033 20.9823 32.5463
32.1025 17.0607 48.4462
37.4017 27.6697 39.8156
18.9032 20.0854 64.4878
39.2177 26.4934 35.8143
14.0231 15.5213 48.5907
40.4158 36.0017 63.9411
21.0575 12.9614 35.4724
23.8015 29.1225 70.3182
40.1741 21.9772 35.6303
30.0781 24.4839 58.0176
28.1919 22.0231 46.7258
29.4066 15.4013 31.0207
19.1771 14.5765 37.5606
31.6219 23.8284 67.4878
29.8234 17.0595 34.4414
32.5541 18.8528 34.975
20.84 20.6727 43.0723
24.85 24.4861 59.7047
29.7356 17.2517 30.3227
19.4079 15.2322 41.8117
24.666 15.4786 34.3193
21.721 12.6594 25.9505
18.6942 27.9447 66.1192
21.0246 16.4555 50.0901
42.6753 29.9785 46.3463
27.4774 27.1334 69.4875
26.3331 30.8077 77.4839
28.2433 26.1263 49.8257
18.8275 18.2516 32.5561
29.3719 35.174 86.8858
36.7365 19.9255 43.6716
19.4022 14.7989 40.6557
21.5185 16.8319 35.9262
16.2159 18.1429 51.4446
24.2845 16.8282 41.5094
30.6095 26.5345 62.7819
38.0152 27.4815 53.5241
20.0877 16.7639 36.5492
20.209 11.8142 34.7004
27.0112 22.8248 52.1691
17.6184 15.3351 25.4601
29.0333 27.917 52.7926
20.9136 16.7095 33.1492
24.547 27.5112 80.5188
28.9642 24.0766 53.6196
26.1171 16.4282 26.0608
26.0033 13.3487 31.876
16.7687 10.3393 41.887
27.3674 15.9566 28.7963
20.0832 20.4761 44.6999
19.8285 20.9976 46.4735
20.1976 22.4922 52.5528
27.8552 22.6792 59.3518
23.9643 21.2528 42.7254
21.6637 18.587 51.993
35.1938 24.3114 50.281
23.1368 17.599 40.6275
27.0939 9.78934 27.8999
22.4572 23.627 61.9717
50.8546 34.7671 59.38
21.157 17.0028 55.7213
23.3133 17.4089 35.2371
21.2196 16.0087 45.7306
19.3656 9.90961 23.2801
28.6052 17.9011 39.2762
14.3267 11.7356 34.4216
22.3253 22.6118 45.0104
25.3785 28.5725 90.9175
27.1721 21.0967 46.6362
29.7459 17.01 32.055
22.7358 20.158 47.8912
23.0183 16.858 42.3188
21.414 10.9421 31.8732
16.1246 14.4192 39.2472
32.6486 27.6703 56.7109
18.303 20.6183 46.2584
24.7186 14.2117 39.6131
30.8803 19.3928 52.69
25.3159 26.2635 55.9635
