# pn-170911/CsIIA-30-CsII-1280-1959.psd
# Power spectrum* (dif=0,1,2) (really just |FT|^2)
# NOTE: only the first half! (symmetric)
# weeks: 1280-1959
# 34 clock-days, 47 excluded
# PSD: 1441
81189.1 2.93227 0.0678463
3.56689e+06 58.7793 0.260418
1.89138e+07 403.231 0.312304
3.64127e+06 183.137 0.314261
2.17085e+06 153.836 0.304811
2.17905e+06 229.628 0.32211
1.92382e+06 328.962 0.346834
1.29506e+06 279.568 0.325458
1.22909e+06 365.503 0.351917
958290 395.459 0.363974
988544 449.798 0.365527
1.37576e+06 728.672 0.717738
988281 593.754 0.596521
549785 433.809 0.584164
662376 645.748 0.741091
512739 517.776 0.541094
370438 457.976 0.61202
254364 266.249 0.649908
280675 376.876 0.63091
268368 481.988 1.09971
184609 307.505 0.790187
207786 411.595 1.13406
165232 353.091 1.16377
168908 416.746 1.20914
124791 285.435 0.898187
112022 291.221 0.732001
121938 339.287 1.40215
108383 286.216 1.03319
89398 314.03 1.38418
74097.2 252.612 0.926588
88652.7 320.617 1.5358
66679.3 261.977 1.72599
67772.4 284.871 1.41216
57005.7 237.348 1.37629
40530.4 206.61 1.29129
45496.8 220.929 1.39958
50245.2 238.43 1.40008
48846.5 253.551 1.72719
31869.7 173.105 1.4537
43567.4 227.982 1.78176
37390.6 199.557 1.67687
30566.3 245.971 1.84715
30624.7 181.743 1.49532
22530.5 160.446 1.82125
34786.7 254.315 2.37246
23520.3 174.367 1.79046
21579.9 182.629 1.85406
38394.2 292.87 3.09319
20522.5 188.245 2.22478
15870.1 137.848 1.66446
23501.3 252.736 3.02201
27020.9 259.872 2.97084
16493.2 186.502 2.11779
20249.1 216.745 3.01172
18094.2 197.819 2.49936
14237.7 176.552 2.13772
16097.8 183.428 3.09784
16082.8 190.237 2.71727
15300.6 183.803 3.0533
11169 152.645 2.67313
13315.6 176.577 3.22384
10543.3 198.114 3.5343
10206 132.689 2.43377
9467.94 162.164 2.6837
10530.9 170.708 3.49107
15684.1 221.884 4.6324
7824.52 120.945 2.29467
9913.69 128.762 2.89185
10500.4 197.565 4.4279
7320.19 153.401 3.22641
6688.7 109.644 2.5476
5741.85 140.145 3.24342
8541.54 147.829 4.17163
8560.6 160.464 3.50225
10604.8 185.327 4.52198
8329.06 146.315 4.26248
7675.16 179.438 4.49484
5959.99 112.992 3.48753
4626.16 131.478 3.71618
5171.88 137.035 4.15245
6023.8 113.593 3.27101
4948.78 136.021 4.66543
6323.26 160.951 5.18161
6428.29 190.191 5.99159
5272.13 121.761 3.97501
5862.79 139.292 4.60402
3959.25 96.673 3.13628
5552.4 174.718 6.69784
5447.82 127.176 4.90578
3063.87 111.587 4.579
5614.97 162.686 6.74815
4869.16 149.728 5.80346
5285.82 145.656 5.86098
3775.35 124.768 5.56764
4120.98 113.673 5.12469
4004.23 156.074 6.47841
3644.92 122.913 5.16791
4178.53 140.553 6.11533
3497.03 129.497 5.62793
3798.02 149.85 7.17955
4253 131.223 5.74668
3086.18 109.213 5.3701
3043.26 115.666 5.78354
3002.12 97.4396 5.30348
3226 118.946 6.50649
2659.67 137.884 7.10535
3221.49 134.708 6.89857
3147.87 133.765 7.58835
2662.24 128.62 7.21322
4694.06 179.169 9.41918
2802.06 125.633 7.21955
1996.3 108.186 6.22818
2652.26 92.3202 5.89581
2792.93 127.338 8.08191
3691.17 164.752 10.4219
2952.25 105.227 6.77662
2320.02 74.742 4.67696
3140.97 130.948 7.58073
3081.83 150.821 10.1249
2544.41 122.019 8.1875
2291.19 114.237 7.80135
2787.55 143.293 9.64999
2197.53 114.209 8.34979
2472.15 134.727 9.97379
3192.52 134.978 9.46266
2135.93 122.003 9.3915
1941.1 82.0513 5.73389
2279.92 106.821 7.84621
2078.53 133.254 9.58006
2423.89 137.772 9.73278
1670.87 102.297 7.90229
1818.11 111.634 9.81058
2739.12 128.917 9.98477
2802.49 141.737 11.862
1993.89 122.727 9.71017
2066.98 119.75 10.8532
2342.51 126.643 11.1808
2284.17 124.153 11.1605
1607.15 100.861 9.19661
1863.35 98.7255 9.34364
2058.43 121.662 11.5116
1933.81 123.285 12.1188
1819.28 115.42 11.5179
1569 114.384 11.1613
2191.75 138.097 13.4647
1483.63 86.9732 8.80979
1923.87 104.412 11.0279
1379.59 92.4794 9.75203
1592.8 116.262 11.8865
1999.43 127.496 11.8985
1315.49 100.777 11.1148
2539.41 107.373 13.0166
1884.76 96.937 10.7954
1433.28 109.491 11.1544
1791.46 89.5165 9.58414
1197.24 116.956 12.7917
1467.51 86.1205 9.79429
1059.14 86.1534 10.1715
1271.93 97.7202 12.3368
1238.54 91.4244 11.2948
1390.6 132.712 15.2545
1433.58 74.3027 9.08121
757.148 68.0389 8.23576
1204.17 104.783 12.0444
1499.43 112.519 14.2083
1103.3 88.6747 11.3466
976.947 66.9364 8.89186
1441.47 98.4946 12.5973
1167.95 114.894 14.744
1202.68 126.305 16.5932
1055.03 80.9814 11.2591
1058.73 119.52 16.7901
1377.81 88.666 12.2054
1439.02 109.992 14.8593
1085.37 101.226 14.5489
778.595 64.2052 9.31572
878.785 96.7482 12.9686
1221.95 115.222 16.1449
1089.07 124.346 18.897
994.356 99.0565 14.0169
918.33 98.852 14.5652
1235.08 100.735 16.2843
1102.69 106.117 16.0187
836.185 96.1081 15.1333
856.572 84.208 13.7545
1017.52 110.665 18.3535
808.836 84.7096 13.1353
906.968 90.0777 15.7112
1105.33 106.018 18.3185
938.26 116.529 18.8247
944.14 108.371 17.7066
783.714 89.3224 14.9414
943.118 105.132 18.0274
926.837 61.5393 10.8406
820.659 105.714 18.0529
720.42 88.0833 15.488
617.376 68.0066 12.6628
640.684 121.733 21.454
576.137 61.8076 12.8253
1041.58 124.179 21.1106
825.681 91.322 16.4556
669.904 110.814 21.428
657.786 65.5258 11.514
842.727 89.5557 17.6433
620.762 83.9875 16.9001
654.318 91.2943 17.5151
773.531 111.317 23.2899
687.511 86.4834 15.0968
918.641 107.21 21.6572
692.972 97.8256 18.9357
648.596 95.3657 19.1411
714.489 71.1893 15.1235
778.322 86.149 18.307
550.793 70.4302 15.1712
654.148 88.5 19.6593
783.129 95.8006 20.557
576.256 94.6265 19.3107
773.631 81.4209 20.5716
694.373 94.1279 21.2292
698.897 85.5724 18.7838
747.134 103.927 22.6908
654.699 68.0079 15.3488
546.235 93.551 22.8205
751.405 122.052 27.3141
639.903 80.9443 17.4199
459.173 68.4723 15.447
710.607 107.713 25.317
507.356 56.0196 13.733
626.225 103.312 24.5292
427.23 67.7864 16.3251
424.246 58.5809 15.5121
500.397 81.7656 19.3186
591.788 78.846 19.8175
486.629 83.878 20.876
682.329 94.294 22.8109
412.44 92.0248 25.1524
526.362 85.1092 20.3006
589.155 97.9209 25.8448
691.637 102.575 26.9983
766.707 115.262 30.3655
510.466 87.739 23.053
552.214 91.4566 24.1834
506.074 70.9168 19.9429
519.455 103.106 25.8366
467.947 69.7604 20.3962
462.593 72.6461 20.0842
456.44 65.4874 17.8691
645.247 85.1773 24.0911
437.841 71.7286 20.9259
498.355 75.8065 19.2094
508.81 63.9596 19.5824
515.351 68.4744 22.5465
506.748 74.6976 23.0973
374.532 72.0252 21.7221
556.551 78.9741 22.257
460.146 76.3171 23.0168
499.081 72.8791 23.2135
570.669 69.0265 20.5469
610.271 82.5881 26.0396
560.825 94.5421 28.0605
406.399 79.5306 26.7148
540.951 71.406 20.732
341.719 81.5322 26.0316
494.721 81.9549 25.3225
385.468 66.3924 21.5506
323.158 60.6511 19.4266
637.247 73.5418 23.3283
365.604 67.3564 23.5908
585.313 89.5434 29.6608
353.97 49.2372 17.2184
453.681 77.5882 24.8693
487.55 69.196 24.3163
391.171 84.4314 28.6783
423.763 74.5138 26.975
531.9 95.715 33.6854
442.106 92.2203 34.832
451.463 96.5347 32.3154
415.879 89.0407 31.0298
349.097 74.0726 27.0546
378.334 83.9245 29.2337
368.921 76.001 26.0696
276.446 62.918 22.2934
278.843 71.5611 24.7215
299.031 65.2925 23.775
370.608 91.7211 32.8295
223.911 62.8188 26.5205
324.662 60.1135 22.422
428.771 73.6654 27.6041
390.738 84.8614 30.3545
445.665 89.6979 36.1972
331.364 73.7615 27.4747
439.769 78.8073 31.5921
350.105 87.7911 35.2728
302.648 64.0732 25.5993
312.313 61.9826 25.9562
258.383 68.4793 27.6689
366.105 75.2283 32.3243
245.97 56.8881 21.3852
391.835 99.378 39.2234
338.806 53.8169 22.7896
222.074 61.9373 23.7505
292.958 75.4894 30.9354
286.631 78.6085 33.2676
335.766 62.8539 27.5016
336.118 88.8303 37.3671
278.179 72.0429 30.4815
268.848 76.1413 31.9831
284.462 84.2932 36.7455
358.11 70.67 28.5902
280.111 75.5901 32.6233
356.217 74.638 34.7064
327.588 54.8953 27.9429
319.09 66.6495 30.2258
232.387 71.6104 32.8437
364.175 83.3914 38.7904
251.604 68.098 28.7726
192.818 48.8468 22.1576
276.396 73.11 31.9186
326.963 65.5694 28.4628
289.462 72.0886 34.7267
285.242 52.2936 23.869
261.219 59.3939 29.3978
255.44 77.7272 36.0619
303.376 67.8996 32.7602
340.655 89.9434 42.3336
244.816 72.4577 34.2104
240.127 56.8232 29.1755
258.535 70.2581 36.2632
308.16 64.4653 28.876
222.024 94.7044 47.5007
272.304 58.692 27.2736
252.62 67.7772 32.3114
277.596 81.1867 39.1535
246.32 50.0092 26.8289
248.793 67.6317 33.9261
341.378 67.6968 33.8312
204.194 79.3485 39.0799
279.674 73.3471 37.9298
276.97 89.51 46.059
175.114 52.3099 28.051
334.293 92.6275 48.7859
320.535 68.4533 32.4221
253.246 58.5821 31.3786
355.197 65.679 38.6361
276.357 84.9716 42.5361
219.539 60.7456 32.8244
253.14 63.5464 36.7826
257.965 77.2062 43.1646
300.405 84.8041 41.0327
287.789 69.6837 38.5698
240.455 48.1882 27.5056
245.954 62.8881 34.0873
238.92 48.5335 28.0909
299.045 55.1344 32.2371
260.841 82.0697 45.184
174.379 50.8298 29.4171
261.62 49.9397 27.6457
250.18 44.8059 23.7519
225.831 69.3845 43.57
184.894 52.231 29.9343
253.029 58.896 34.4927
280.601 87.3078 49.3228
198.442 65.3636 39.9624
245.105 53.6684 33.6103
230.537 62.1217 34.7111
202.557 59.1225 37.174
293.705 66.8529 37.8581
219.436 64.2198 39.149
226.649 44.8921 25.5453
241.84 62.2244 38.4439
308.341 79.2581 46.1493
178.462 56.2975 39.672
237.524 50.68 33.5026
218.593 53.6356 32.0909
170.548 59.6937 38.4522
233.643 73.0165 41.3049
204.41 47.2955 28.6259
236.961 65.7473 41.1932
275.062 76.7404 56.7243
260.517 77.2651 47.6392
230.664 74.1671 47.6141
256.697 61.0198 36.7535
195.795 65.8236 40.5349
201.159 63.6255 45.6309
247.635 48.8389 34.4949
263.895 73.1502 49.1769
265.973 57.8915 39.7894
248.276 59.9548 41.9004
188.397 55.6431 35.0164
217.54 64.5702 48.418
181.338 58.0628 36.976
169.637 47.9473 34.0905
181.861 87.0347 63.2668
197.066 60.3942 39.2016
145.681 47.9882 33.2303
251.585 77.644 59.6194
275.622 74.815 47.935
172.336 61.2279 39.8637
191.604 40.5698 31.6694
247.257 54.3118 39.6645
138.239 66.7563 46.0681
168.672 43.6929 32.4818
192.393 57.5042 37.7738
239.776 81.1677 61.5575
199.893 49.9015 38.5359
180.756 45.9671 34.3333
197.804 52.7752 31.8912
241.197 52.1712 37.2507
212.397 56.0984 41.7709
125.633 48.4525 36.961
200.387 52.2994 40.9334
162.072 58.0279 47.8212
196.516 68.0308 48.0611
198.908 53.9545 37.1813
235.461 58.7857 41.1077
155.801 44.8947 30.793
192.081 54.673 40.9337
302.498 64.5198 51.0168
200.777 63.1255 48.3854
198.197 57.066 46.1632
167.776 64.02 50.9145
158.337 54.866 40.0952
200.521 62.6463 52.7592
189.793 90.3325 75.2589
180.606 38.2635 28.9187
214.499 56.4123 43.1897
202.801 53.8674 46.4269
210.622 66.8935 47.7684
217.667 67.0884 53.6587
221.347 50.2227 40.8155
161.016 58.8702 48.117
183.226 47.9303 39.6094
194.022 61.596 48.8886
197.085 63.5631 55.3571
193.171 55.3407 49.2002
171.01 44.9146 37.8448
164.256 60.3342 49.3519
162.619 58.3 52.8381
199.121 46.6876 37.4433
147.612 67.2239 57.4865
195.84 63.6204 51.4323
181.133 44.987 40.2458
150.86 53.2576 47.4259
169.147 64.4724 47.498
120.196 56.2349 51.7465
187.196 52.6096 45.8147
169.478 45.1868 46.246
229.503 69.1857 55.3467
182.532 75.8916 70.7691
219.998 62.8246 56.8616
268.959 64.5767 55.6512
135.176 58.2205 44.5822
221.018 69.3793 61.5639
176.538 47.4745 48.301
133.894 45.8113 42.7338
221.787 52.0775 44.6556
163.884 58.3985 54.1088
217.192 53.5184 44.1053
127.664 47.9973 51.1557
187.547 60.8888 56.2921
209.567 68.4304 64.3426
165.453 45.6574 40.4432
166.441 39.5818 38.1234
170.555 43.2734 40.4096
146.338 50.5005 46.7353
154.389 49.8138 44.9881
109.297 61.8743 64.4595
151.376 55.6881 51.6921
194.9 52.4202 46.2185
133.143 52.5117 48.5041
136.356 43.8967 44.5045
151.449 57.0915 56.6777
161.896 74.9759 65.8036
134.613 41.5263 48.1805
195.108 59.6444 58.4
152.944 62.8101 60.031
128.99 45.6532 44.1366
142.647 59.2004 56.9011
172.157 48.5011 45.2754
140.003 55.7339 58.6374
140.159 45.2357 42.147
144.255 48.187 50.5139
156.547 48.8627 49.9628
201.592 63.735 66.7676
149.329 71.0621 72.8036
155.448 49.0443 44.9676
100.932 48.5159 40.9356
152.595 60.6704 63.1815
116.943 52.7368 57.2633
140.631 48.7436 49.5799
130.402 45.5613 49.634
123.233 28.1549 34.6584
225.961 38.8051 38.6854
155.675 51.8331 53.0336
186.799 51.7412 58.5381
153.934 53.0847 55.0728
118.253 56.1967 50.9617
121.34 54.5439 59.1436
107.407 34.9232 38.7194
146.19 55.8475 67.7284
173.993 64.5347 66.2943
184.393 47.4792 49.6597
127.924 43.2075 46.1712
194.897 43.4651 43.2717
212.54 50.3058 62.6219
138.547 64.3329 65.8943
137.5 47.4652 54.5315
138.112 49.6866 61.8604
103.704 67.7226 61.2013
106.958 37.0092 40.7268
125.772 42.4398 49.6697
139.204 48.5619 55.8793
123.154 58.8768 68.8239
170.017 41.2075 49.6119
177.506 65.3514 66.1257
170.721 64.0388 72.7376
153.863 47.5381 55.8675
96.5842 49.7063 61.4395
132.708 55.1622 58.6688
130.624 42.4851 46.7084
108.802 55.5906 64.5931
117.775 49.5115 58.0549
148.648 56.8409 69.6734
163.725 46.5062 46.1678
158.39 42.7321 55.3672
159.441 56.4159 64.6281
136.673 64.1375 66.448
116.937 47.2664 59.8791
105.688 50.5768 64.9981
103.463 33.1808 41.8809
119.534 36.3187 42.1806
146.103 50.9352 52.5955
126.89 41.9703 56.8798
134.372 51.9089 65.87
169.653 45.7456 52.6605
155.186 47.0707 60.4861
137 45.4799 60.0629
143.248 49.9455 56.3194
86.1675 39.6847 50.4018
137.347 42.2258 51.4748
100.106 47.6903 54.1334
107.788 45.5732 53.6752
116.296 57.1882 76.635
119.702 47.9248 61.666
167.357 48.3695 56.0011
156.567 42.0025 57.8508
173.615 63.6947 74.9191
100.277 42.6376 53.7725
148.333 65.3718 74.5903
100.646 39.1582 57.7101
90.2879 48.6428 64.9101
109.931 64.746 81.5592
169.901 59.9446 65.3616
103.481 47.8353 64.5162
109.296 47.7138 66.9181
107.55 39.9136 53.4548
128.623 54.93 65.9922
150.22 51.8586 76.693
131.476 44.6222 58.5992
143.151 55.7199 70.0928
147.622 36.4468 44.7512
106.111 67.2429 89.9165
138.716 49.814 66.7228
96.2896 48.5248 61.0499
126.1 65.1795 85.0884
122.589 46.8964 64.1823
116.049 44.2799 56.8303
181.441 47.0704 65.6751
123.271 47.6256 62.881
155.009 58.7209 73.3452
106.364 38.6883 52.3722
104.974 48.5341 64.3539
85.9127 68.8893 88.8014
83.3909 42.5509 70.5396
102.271 42.129 63.3902
93.167 54.1218 70.2589
140.071 49.0966 76.6254
138.477 48.0569 57.0287
115.827 42.8783 63.3358
112.278 47.423 59.6737
118.907 42.557 55.3161
86.6496 52.3167 70.2103
72.0913 46.1591 68.86
77.7041 44.4931 62.2349
75.9427 48.6661 70.9692
100.507 53.4862 80.3461
90.5051 42.518 55.5929
105.054 38.0583 46.8844
138.534 44.7812 68.0969
117.849 48.7694 68.0683
99.8176 46.4733 69.1579
91.1 42.6608 57.1355
64.5128 39.813 56.3376
77.5671 62.2437 85.3857
91.9649 35.7591 49.9838
80.058 45.7358 75.5847
68.55 41.4691 61.9447
100.985 40.3562 67.8502
121.377 44.1919 58.2559
116.219 45.1166 74.1633
117.545 52.029 68.2094
99.3224 49.4737 75.7388
92.9138 47.2326 74.7411
78.0412 64.3667 80.4282
75.2925 49.7359 71.8494
92.3492 66.3901 106.565
114.534 55.5327 80.2154
82.5293 52.7438 78.0739
113.819 41.2858 59.8595
120.622 34.7687 55.4799
127.824 56.3597 82.5365
112.122 54.6121 77.5833
97.954 46.0423 74.1136
100.822 52.0948 77.3165
98.1288 64.9957 91.3952
75.5352 46.202 82.3021
97.5138 46.1997 72.837
60.3054 39.3543 67.5777
108.439 33.947 58.4538
99.9181 42.1132 62.5361
118.017 45.2679 69.4794
108.5 46.4622 72.1111
115.102 52.1131 85.6297
106.877 42.2409 65.5757
104.891 36.9624 56.4166
84.0134 51.0262 76.7862
89.1413 45.1835 70.1149
89.6119 49.6357 86.973
71.2001 48.9385 77.8798
125.77 53.8743 76.7752
110.762 49.711 76.0523
120.683 55.5615 101.961
134.948 57.9105 84.1435
133.482 32.8792 55.2716
113.304 47.1081 69.5664
72.3454 29.3902 52.0488
95.4411 43.8259 64.966
90.3337 52.9128 92.7403
82.7801 43.0801 69.9947
102.324 46.5238 84.5264
117.527 51.9072 84.6455
111.089 40.8128 63.1028
130.565 43.2832 73.5782
109.874 43.9967 73.64
110.628 43.2695 69.5916
76.5469 34.7245 59.2033
108.07 33.866 62.403
75.1421 46.1021 69.6302
76.2242 57.1223 100.418
84.2769 43.2584 75.7169
87.3901 45.4477 69.6437
119.003 37.9099 57.2113
98.5666 32.6501 54.2524
89.8289 48.0788 80.6486
96.8602 29.3249 53.3523
72.3975 40.4671 72.7288
85.0872 36.7352 50.1498
65.1959 34.9562 71.1291
100.747 45.0061 74.6253
72.3578 39.5807 78.4379
75.254 67.9814 112.43
109.293 50.362 88.8418
88.0741 38.5211 72.3376
88.9371 30.5208 61.3752
97.614 47.0071 73.2139
72.4282 30.213 58.9719
111.541 58.6923 115.302
99.9218 34.3355 62.8681
87.1715 46.2834 67.8272
72.8029 51.0134 90.037
68.9897 41.2119 82.7887
93.5007 43.0458 76.6195
66.8564 40.4851 76.0188
108.466 33.8291 48.7036
81.361 49.44 90.3534
93.9862 40.0656 73.3594
108.596 38.4732 61.7642
65.6153 39.8622 80.0845
81.2908 36.5364 74.189
77.1309 42.3905 70.9432
88.6844 53.1125 88.0279
64.6354 35.0474 61.9408
88.8762 40.4178 82.6648
101.146 41.2836 72.5126
80.5936 44.96 88.6513
109.664 49.4702 83.4936
72.2781 39.1215 71.2913
113.794 57.4026 112.487
82.7198 48.7642 88.8713
71.3626 45.8633 93.6171
74.4908 49.0035 86.2364
76.4807 44.1034 67.2284
65.6045 44.9858 76.2034
75.3169 30.7706 63.006
79.1933 46.4925 89.519
99.0815 41.8016 74.3045
91.2377 48.621 102.664
81.2996 47.3981 93.0397
88.0409 34.7495 67.3775
86.0791 42.9031 81.9389
84.8066 31.3144 56.6976
53.036 36.938 64.062
49.7631 29.4732 56.3586
79.3685 46.5101 90.9538
87.9667 50.0331 93.3116
94.6512 52.0294 85.0803
83.8829 43.6777 79.1103
87.5599 31.0905 60.6142
83.0079 37.2715 74.9202
84.8001 35.441 78.0098
78.8319 46.2081 84.3158
64.5298 31.1662 73.6336
70.6597 51.5736 97.5318
68.7663 46.9271 96.3105
50.4575 49.5311 94.1895
85.7667 51.6369 93.0146
92.7464 28.5021 62.5665
81.8427 48.0271 92.8829
113.123 31.439 72.1089
72.6887 45.5736 85.7353
58.204 28.6468 62.9318
69.0389 42.5267 77.0751
65.6197 33.744 77.4123
66.3347 47.3224 88.1066
64.6945 43.5283 89.6915
74.2327 40.3017 86.4625
77.1017 51.0328 95.0151
108.441 45.6587 103.783
111.539 57.7857 121.73
95.6495 45.1444 79.752
96.033 28.426 74.9128
74.0274 46.9853 76.6873
75.8583 43.9443 91.3402
70.0913 30.6166 73.3945
75.242 50.0179 101.496
67.0595 38.4212 79.5249
88.5102 33.5912 58.3266
86.8193 35.5488 87.9688
73.3395 34.3192 69.5524
95.2709 38.8655 76.8746
93.1317 40.4853 89.5223
100.316 47.4383 86.9795
65.6051 39.437 88.4101
66.6666 30.0789 74.4883
75.0038 46.1971 87.4935
76.1705 50.9938 99.2874
70.4261 42.4371 91.2147
60.4503 30.1933 77.7781
115.68 41.7341 85.9774
97.6175 41.5587 93.6672
72.3412 45.3757 87.0477
97.6655 35.5895 75.5805
67.3637 41.7692 99.1961
87.8637 38.1571 91.9843
61.2034 49.0112 84.9507
45.1042 39.3074 98.3953
71.4781 37.0767 86.2261
98.3668 34.8063 67.0732
107.751 35.0308 77.0699
72.4598 32.6181 74.4012
99.9767 45.8191 93.092
81.8223 41.9092 88.2568
52.4448 36.3422 92.3875
81.9031 42.5658 81.462
90.015 43.5045 91.148
53.6575 40.6724 72.6255
80.6651 36.7489 73.8433
54.3076 37.9835 97.9035
73.0375 41.8106 89.6773
85.8606 35.6742 77.9293
67.6865 33.9101 89.4542
87.1709 51.1147 114.316
83.3002 44.0936 86.5185
69.5619 53.1041 121.953
71.8376 39.218 90.5467
64.5258 44.7949 92.5249
57.4583 38.7597 95.3099
54.8331 41.3062 92.2757
98.5615 44.0684 96.0665
67.5861 40.8145 87.4303
65.3129 42.0253 92.1002
85.09 35.9846 90.0001
71.1834 41.9749 101.779
92.1562 44.1017 101.399
79.9953 31.076 63.8173
55.3936 41.6748 101.841
78.1805 28.4781 69.0332
52.7463 33.046 81.5437
70.4722 43.6977 92.1877
39.7137 29.5927 67.7239
83.19 24.9569 62.9106
46.8363 42.487 99.0861
68.2573 36.8491 74.3407
113.22 40.3849 92.6958
80.8422 29.3006 75.2534
72.8351 33.2286 91.3856
71.3105 49.4363 101.313
68.3037 33.8891 71.9006
49.3218 29.6334 81.4451
56.3073 51.812 106.561
69.8589 45.4359 106.024
70.2025 35.2228 75.0108
79.5825 39.4875 106.192
72.6884 41.147 85.9594
72.6498 34.5186 81.1952
92.5778 35.5607 103.532
70.3032 48.6218 125.385
77.5792 48.666 103.555
50.6355 41.0917 81.603
53.7767 35.2793 102.714
67.9134 46.9766 102.082
57.182 29.7858 72.7005
61.007 32.7949 66.8364
87.4258 44.0005 115.044
104.754 39.6684 102.744
77.0054 34.7124 83.4552
54.6861 33.158 77.93
64.3227 42.4459 112.55
59.0729 47.0757 96.6876
49.2197 43.8544 102.808
61.5203 41.1996 86.66
51.4945 49.5696 127.713
84.8757 37.7374 88.8557
69.8918 38.1818 86.1273
61.3326 34.7888 88.298
73.7729 25.329 66.4093
60.8396 39.3789 85.0058
48.3055 41.797 111.195
54.833 47.5313 121.015
40.635 36.6297 95.003
67.9736 39.7694 91.3767
51.9986 37.6538 107.563
95.4226 44.1847 89.9992
70.1826 42.9617 94.9795
78.7612 41.1149 123.473
