# pn-170911/CsIIA-27-AMC2-1280-1959.psd
# Power spectrum* (dif=0,1,2) (really just |FT|^2)
# NOTE: only the first half! (symmetric)
# weeks: 1280-1959
# 47 clock-days, 32 excluded
# PSD: 1441
273710 4.83492 0.0269015
3.3294e+06 31.2618 0.0182534
3.6211e+07 803.298 0.0344035
1.65801e+06 59.0247 0.0244296
3.02321e+06 195.502 0.0339422
601694 60.0317 0.0202397
491464 75.7064 0.02861
328840 50.5849 0.0276793
245043 65.8089 0.0373446
261998 84.0421 0.0474297
160261 53.4056 0.0432399
105096 45.441 0.0415322
107495 47.8179 0.0504281
90591.9 58.8666 0.0582074
101413 59.3813 0.0906205
81145.1 61.2962 0.0875663
82245.5 68.9573 0.0976073
62286.4 66.1744 0.0955049
64472.4 64.466 0.117628
34768.9 44.4671 0.0954203
40791.8 54.3444 0.117603
35453.2 46.36 0.122662
36271.6 69.1784 0.188577
30904.1 65.6044 0.188587
29815.8 60.2153 0.197196
28423.9 54.3063 0.164064
27341.8 59.014 0.197743
21457.3 64.8564 0.250132
20444.3 52.3359 0.207061
16537.8 56.5272 0.264358
18365.5 52.8432 0.260118
18158.9 61.7006 0.303897
18223.3 66.7116 0.338493
15946.4 56.2351 0.316486
15289.9 55.6994 0.331998
16937.1 73.0985 0.429442
10634.6 58.5128 0.401483
11335.4 46.5177 0.306144
12969.5 64.0948 0.437067
12238.7 60.8329 0.463534
9377.22 49.7749 0.401573
10909.4 60.8781 0.497787
7601.19 47.3532 0.421099
10302.1 64.9595 0.56778
8251.04 43.9212 0.440835
8272.35 52.9017 0.542538
9774.33 70.0349 0.710643
9362.56 59.9513 0.6086
7627.71 54.4812 0.61602
6304.44 55.032 0.625264
7706.28 73.202 0.892757
5143.69 55.1091 0.699787
5433.17 50.4319 0.651493
7877.81 79.6203 1.05358
6272.52 59.3297 0.869854
5773.91 64.4854 0.90502
5438.9 58.4395 0.857453
5609.73 57.6361 0.946349
4009.51 53.3646 0.90218
4671.9 49.1037 0.847717
4082.57 51.5014 0.92262
4786.24 57.6439 1.02843
4104.74 61.5644 1.10772
4732.45 64.0482 1.23422
4468.24 64.3743 1.29771
4342.1 67.1036 1.39339
3873.65 56.3019 1.13283
4228.57 63.0392 1.37746
2496.65 40.1834 0.921436
2966.58 45.2993 1.07235
3245.37 51.5749 1.25488
3959.36 66.078 1.55918
3382.47 64.8892 1.59237
3573.22 71.1668 1.81123
3116.12 60.1236 1.59037
2329.52 47.6981 1.26647
2357.4 61.0838 1.70485
2956.61 50.905 1.38522
2308.24 56.1088 1.67629
2558.54 58.1497 1.71635
3180.06 64.3418 1.94344
3062.78 67.1962 2.14419
2500 56.0412 1.88877
3127.6 75.864 2.49979
2240.55 57.6872 1.87052
2586.21 65.3905 2.2614
2413.07 54.126 1.94604
2790.56 57.1733 2.057
1835.07 43.8284 1.72949
2526.39 66.6377 2.53937
1801.51 44.8829 1.7539
2200.24 60.535 2.37609
1784.36 54.4862 2.15
1399.26 43.0055 1.86304
1920.24 51.2395 2.09076
1962.7 59.0822 2.52706
1903.1 61.5262 2.69691
1558.98 49.2083 2.20609
1828.08 53.1129 2.43975
1465.27 47.4252 2.17394
1381.71 49.1932 2.34408
1879.07 52.9506 2.54988
1723.72 61.6442 3.09252
1520.85 60.3531 3.09397
1479.75 65.643 3.42871
1775.23 63.0938 3.32366
1623.79 60.1899 3.07035
1428.89 54.3046 2.96309
1401.86 46.8996 2.53396
1261.14 49.6555 2.7412
1501.06 66.7989 3.84488
1645.55 63.59 3.69747
1309.56 49.5214 2.98471
1277.82 55.8345 3.42773
1135.58 37.8668 2.4349
1338.42 56.9267 3.55231
1007.35 46.0802 2.86834
1172.18 62.2017 4.13141
925.048 52.8819 3.52269
960.984 45.4814 3.17954
1311.83 57.8694 4.09495
941.497 42.5334 3.01929
1127.57 55.6437 3.94312
860.839 50.641 3.70979
828.012 44.2317 3.18661
1199.83 68.8309 5.14614
784.225 39.8374 2.9737
1123.67 49.8448 3.71782
887.353 51.3173 4.02725
1163 61.8923 4.86498
1002.87 46.9823 3.70203
846.919 44.9205 3.75049
751.542 43.2467 3.50092
977.291 66.5514 5.43468
738.934 46.1129 3.98152
727.186 45.616 3.91509
854.162 52.2616 4.85955
823.427 45.978 3.92159
776.717 44.105 3.97224
878.569 49.662 4.47732
744.377 57.3134 5.37882
650.131 42.9214 4.04763
682.405 45.2808 4.28064
713.037 48.1015 4.73999
756.189 54.3476 5.36068
983.575 60.4301 5.88096
738.612 44.09 4.25224
770.07 44.7191 4.3544
684.437 53.3423 5.70403
656.522 44.6736 4.66662
790.452 43.4752 4.69046
587.074 43.9408 4.94519
578.261 42.4986 4.72791
625.798 44.8093 4.70446
658.906 47.8235 5.36665
568.354 45.1233 5.32953
725.363 53.8397 6.32096
557.437 40.6263 4.92198
509.388 42.9872 5.10046
513.377 56.1083 6.82842
590.849 40.2968 4.8926
612.971 56.233 7.17614
590.679 40.6242 4.97088
624.686 63.0987 7.8731
647.337 47.0398 5.62552
820.301 60.0169 7.64165
488.391 39.3012 5.07331
542.351 45.9901 6.42969
391.124 34.0182 4.32846
530.151 51.2419 6.97317
524.93 46.5061 6.38733
659.914 59.0169 8.15482
486.333 43.8834 6.15482
440.5 42.0928 5.96811
479.859 35.806 5.05899
499.782 47.8445 7.19857
490.761 46.2623 6.68703
444.585 44.1945 6.39076
518.745 54.4319 8.4612
420.451 34.5698 4.92659
504.834 55.5178 8.68158
413.131 51.14 7.76857
489.629 41.4282 6.40461
441.023 49.9605 8.00668
421.496 50.2705 7.96916
422.046 53.0607 8.91089
466.385 47.011 7.25774
415.48 38.884 6.58341
369.075 43.8349 7.0413
394.232 33.0948 5.57639
390.683 45.4933 7.61693
364.118 43.0672 7.29795
341.579 35.9582 6.16395
439.81 46.5216 7.91546
333.785 36.0882 6.30856
319.532 39.4744 7.19777
426.644 44.5856 7.6114
403.663 49.6864 8.75362
423.502 56.6276 10.4072
407.048 41.544 8.10862
423.745 46.2535 8.53478
374.934 38.1525 7.15719
278.893 37.8448 7.26632
355.48 37.4521 7.10274
382.373 46.0636 9.35042
265.856 31.4559 5.98415
317.073 38.698 7.99698
276.833 35.6061 7.08333
319.3 42.2903 8.51704
312.74 39.6274 8.19548
287.565 33.4865 6.79575
357.124 45.2899 9.72794
330.508 52.0141 10.3931
285.15 42.7469 9.10447
323.767 41.7885 8.89529
312.805 48.9101 10.4671
330.392 46.9025 10.7539
336.658 40.9075 9.08732
307.634 42.697 9.59806
264.33 40.6435 9.06098
267.071 42.3254 9.5578
324.775 46.4999 10.0119
253.031 41.7579 9.8855
230.627 36.137 8.87114
332.874 48.7863 10.8844
290.854 37.8843 8.86967
288.628 40.9643 9.72135
199.921 33.6159 8.73735
273.257 36.3639 8.58129
322.192 35.8703 8.6942
258.101 29.9331 7.3431
230.372 39.785 9.9814
223.528 37.7851 9.29176
247.207 37.3628 9.65682
196.984 39.1801 10.3918
295.842 48.3443 12.4584
217.294 31.338 8.08063
253.936 41.5574 10.4495
245.04 45.2699 12.3725
192.713 36.4275 10.173
209.048 40.8823 10.6569
235.763 38.6223 11.1731
322.85 51.6649 13.1646
213.062 35.9776 10.2526
237.248 39.0866 10.4655
206.945 31.0349 8.89515
199.944 39.8699 11.1948
217.727 32.904 9.68856
219.045 31.5106 9.11262
226.143 44.5075 12.7366
221.419 36.0555 10.5295
191.675 37.6331 11.3579
239.964 48.6765 13.4474
229.908 39.4389 11.8811
150.343 30.9905 9.39424
187.217 34.0504 10.6129
174.372 36.7438 11.5367
209.311 34.2933 9.98057
201.902 35.047 10.73
216.121 43.1013 12.6505
217.812 45.6674 14.0754
185.216 29.5256 9.10007
171.347 32.633 10.9311
183.794 40.9346 13.9698
181.828 33.9081 10.9966
205.981 38.3621 12.3867
141.767 28.693 9.87295
219.893 43.9745 13.864
195.588 36.9937 12.5315
191.706 36.0178 12.0056
207.999 32.7731 11.1083
193.811 37.1781 12.7239
190.713 45.0799 16.6904
158.292 29.4045 9.90279
148.609 35.1397 11.947
200.727 29.3035 9.77531
179.205 37.255 12.2695
165.821 39.5108 14.0962
171.232 34.4348 11.8847
178.693 33.8833 12.7248
182.881 35.8079 13.1427
145.188 28.7913 10.0292
146.786 33.5153 12.5763
148.619 29.0677 12.4084
166.082 33.826 11.3303
132.633 36.3329 13.5975
137.038 30.1987 11.3132
149.632 30.1248 11.0839
161.219 34.8582 13.1259
116.615 28.0408 11.1325
153.629 37.1894 14.3006
160.641 39.2787 14.8187
128.78 35.7495 14.8831
158.396 32.1262 12.6451
120.956 33.2878 13.5694
161.973 37.5416 14.4872
147.814 37.7333 15.5767
118.032 29.8872 13.2499
132.703 27.0035 11.1452
111.041 27.9406 11.1383
130.763 32.1288 13.4174
123.183 28.9191 10.9407
119.764 29.4703 11.652
102.156 29.7712 13.4451
117.902 35.382 15.4008
111.661 27.6712 11.6957
129.915 31.1315 12.6424
130.987 32.3855 15.0012
135.838 31.5406 12.3238
100.753 28.6157 12.9111
113.98 30.6315 12.5433
124.557 32.58 15.3763
97.2768 24.962 10.7538
113.311 35.2241 16.2571
134.868 44.4903 19.6787
152.603 36.1502 16.2413
102.089 32.6633 14.4737
100.49 25.1391 12.3735
133.817 35.2845 16.3844
131.896 38.6749 17.5254
107.809 28.8219 12.8383
95.4084 29.9893 14.4993
124.591 31.4324 14.5291
82.4448 24.9081 12.0974
103.816 20.0985 9.3181
103.93 28.2962 13.1727
94.0326 22.2573 10.9298
105.17 23.8304 10.7628
120.601 34.1259 17.5624
115.628 32.6021 16.641
100.838 28.7001 13.7186
99.8827 27.1494 15.0212
113.171 30.9145 15.0762
122.943 31.7281 15.4088
84.6828 22.1617 11.2021
103.671 28.1818 14.8878
110.207 31.8713 15.919
98.4402 30.5084 16.1937
113.929 30.6768 15.7246
99.7447 28.5259 15.6486
98.7932 26.0071 13.245
112.885 28.5603 14.898
93.7994 28.0044 15.4563
94.398 27.0908 14.462
90.9611 26.7591 13.5219
104.618 30.7166 17.1654
100.506 28.8868 14.7269
104.829 30.1048 16.8221
88.8566 28.6765 15.3039
95.2473 28.5901 15.4716
85.9058 30.691 17.4771
79.6501 18.6039 11.8217
96.7876 28.73 15.3552
100.985 27.6506 15.2555
83.9651 29.951 16.549
88.156 28.2581 17.0226
97.9937 25.3497 13.5964
99.9484 33.0568 19.9101
103.836 28.8302 15.9741
80.5583 26.1293 16.4507
110.083 29.1698 16.3431
77.0177 26.6011 15.8069
83.3087 26.3927 16.0161
86.1845 30.5556 18.4937
113.572 32.0051 19.0125
94.3141 31.9706 18.5934
70.7978 20.2691 12.8717
74.6552 21.2493 12.6031
100.833 26.6564 16.4599
92.7289 31.3613 19.4086
65.5473 18.2572 10.4642
78.2835 29.7776 19.4305
76.8477 28.197 17.4012
77.5484 29.5496 18.4897
61.6676 21.1587 13.6809
93.8844 33.9219 20.3296
63.0786 20.6647 13.3758
69.5667 22.1793 14.5751
71.3237 20.8736 13.0789
88.4557 26.2043 16.1271
56.0662 18.517 13.1145
82.0888 24.3096 14.8336
61.96 22.9861 15.1103
81.5933 22.1082 13.9859
85.3406 25.6016 16.3371
69.2349 26.9729 17.0112
49.3749 19.9645 13.6457
65.6552 23.0648 16.4888
74.8396 20.3783 13.6508
58.654 19.3351 14.4532
76.0468 25.2792 15.6795
69.0907 24.5896 17.1895
82.0537 28.795 20.6292
77.7985 28.7839 21.3681
67.3732 24.2896 14.5065
67.232 25.3662 17.3565
66.9359 29.3339 21.0971
69.1981 27.3148 18.7685
69.4355 24.9232 18.4954
72.6059 23.9934 17.5096
64.1841 25.0744 18.1645
61.36 20.303 14.4362
75.9991 22.3267 16.2627
70.774 26.9801 19.2734
55.0534 17.8015 13.4925
57.1972 19.7016 14.2255
64.6334 24.0256 16.998
57.8279 25.9989 19.0122
60.8151 24.0341 18.5498
56.5419 18.9805 14.8657
66.6633 25.8916 17.3682
57.2007 27.1239 20.3259
43.6663 20.3823 16.7771
53.4266 23.311 18.699
51.2379 27.1266 19.0633
60.7059 25.2995 19.2697
53.9209 21.4443 17.2113
57.055 24.7845 18.6558
55.4799 21.7813 17.2064
69.7213 24.9942 18.5306
54.2536 22.8441 18.8731
54.4922 21.1012 17.9653
66.3567 27.2213 19.1528
51.3675 21.4225 17.3841
51.0386 21.5615 16.403
53.3034 23.958 20.9842
64.4441 23.4419 18.2893
58.3685 18.8599 14.5427
37.9818 18.0921 14.6697
62.0312 21.5579 17.2552
45.2584 24.5325 18.681
46.9335 18.8997 16.4131
43.8097 15.9386 12.9195
55.6224 20.0968 16.2825
58.6793 26.7733 21.0982
49.9719 20.0539 18.8992
71.1177 27.5462 19.7676
48.2195 19.9434 17.6348
51.3389 21.6669 18.435
47.0169 16.9834 15.0822
48.9823 25.2378 22.3827
53.4779 19.8862 17.8782
56.8984 21.8231 19.731
55.1202 20.5088 16.2426
57.7194 25.8479 23.4884
56.002 20.0202 17.3648
53.8805 22.0687 18.8869
47.4409 20.0526 16.6088
59.3965 23.0324 18.6601
46.4553 20.6512 19.1077
47.2822 18.9015 17.2079
45.3941 22.1701 19.7503
42.5564 21.0345 19.0634
44.7601 20.828 18.1144
47.617 19.0006 18.1194
47.7544 21.3841 19.7352
44.2848 19.4059 18.1647
37.9973 18.1043 15.9629
46.3768 19.9063 17.667
47.3669 17.5469 16.2154
45.9668 19.0072 18.9607
43.8527 22.5808 21.4932
55.9424 24.0081 22.8298
45.4584 18.2037 15.2189
44.4442 17.9413 17.5255
52.8576 26.7573 22.6326
48.6038 20.7081 21.6378
41.0807 18.467 17.2818
42.5509 15.428 14.7374
51.0705 26.4841 26.2479
40.0455 16.4982 14.0366
34.5619 18.2266 19.0765
41.5276 16.3254 17.4433
43.3207 21.129 19.1314
41.5296 19.9258 20.0803
42.9681 25.0547 22.3833
49.8693 18.5579 17.4535
46.4431 18.6969 18.8157
57.1024 25.0385 24.8181
43.0899 18.5615 17.2615
42.9913 20.9759 22.8199
38.7983 16.1831 15.8456
44.9424 22.1073 21.078
35.6644 17.9752 19.7449
43.5454 20.8662 20.855
40.6539 19.1535 19.5577
40.5776 17.1391 19.1072
42.7838 18.5623 19.8661
38.715 15.6064 15.1464
40.6856 21.457 24.3891
42.6231 18.5764 19.5116
47.0544 22.3585 22.8604
39.9979 21.9419 20.6981
43.6082 17.3235 17.619
34.017 18.1759 17.4794
30.8387 12.0905 14.6429
39.9504 21.5656 23.7326
42.7443 19.4411 19.274
34.9337 22.5057 22.0323
32.6872 15.7862 18.8842
43.1111 18.3606 21.0393
39.9472 22.3702 24.6652
38.2665 17.5031 17.5196
38.8139 20.5811 20.5653
38.7592 16.5088 19.2869
38.1546 16.5411 18.0553
39.0716 18.249 17.9678
30.3662 16.4548 20.1391
36.9486 19.0929 20.9494
31.5393 12.9768 16.0594
37.7905 19.7609 22.1497
34.281 14.0788 16.0569
37.4071 21.7048 20.9351
32.6935 16.2924 18.4696
34.3732 21.62 24.6966
40.4733 15.4191 17.5425
32.4565 13.8221 17.621
35.174 18.1685 21.9539
37.8932 22.716 27.9892
37.6198 17.9457 17.3834
37.5809 16.9686 20.5078
34.0779 15.2125 19.2554
37.1771 18.3219 18.0118
39.7883 20.8408 25.7387
32.3846 17.1472 20.1999
36.1209 15.986 15.6751
30.3974 16.5547 19.8407
32.7302 20.1462 24.411
33.4634 13.9703 17.5381
34.7312 19.0567 24.2763
33.5756 20.6563 23.7112
34.3906 14.4597 16.5925
32.3288 17.2418 20.3671
33.1667 16.089 20.4487
27.2918 13.6625 17.3808
24.7817 10.1176 14.3366
31.0691 15.8983 16.5941
35.9322 18.407 22.4707
33.4679 21.1478 26.3635
31.6663 16.9222 18.3849
33.2849 18.3583 23.9043
35.8514 17.0411 19.0912
27.89 18.6203 26.844
40.2995 20.1921 22.5327
29.4899 14.3319 18.1199
27.7014 19.5696 25.6482
30.5345 16.2121 19.7816
31.4051 15.5205 22.3503
38.8623 19.1553 20.3382
26.4916 12.2467 17.4092
28.1828 16.2899 20.277
28.752 18.8728 25.2075
28.879 13.0925 15.4704
35.0871 20.1968 27.0553
29.0635 16.6711 21.295
33.4521 17.91 22.1062
27.6204 15.7353 20.5717
29.1027 15.5861 20.7905
26.5518 15.1509 20.3656
25.8948 15.2192 19.2197
31.3774 19.6821 26.0381
25.0441 13.3918 18.3885
31.4827 17.5498 21.1232
28.9125 16.0687 20.2206
27.9942 15.0588 23.4066
34.1817 19.9197 26.3617
32.4238 17.1459 21.9793
27.0159 10.2338 15.0458
31.1619 15.8999 20.8577
27.238 15.6568 20.8646
26.0063 17.631 24.1124
30.2304 20.1014 28.9013
23.9729 12.6125 16.9345
30.0344 19.3261 24.9362
26.7694 11.628 18.022
25.5381 15.521 20.7127
27.5485 13.6152 21.3613
30.0349 15.038 18.479
27.3804 14.9082 20.0482
29.5987 17.1945 25.461
26.3143 15.6617 20.7143
26.0916 15.7488 23.4175
25.5746 16.3657 22.8148
26.6431 10.7009 12.6269
26.3772 17.4822 24.9239
26.501 17.5337 26.7113
27.231 14.0625 18.4436
26.5661 16.6279 23.0731
26.2725 14.8568 19.3944
24.8665 15.806 20.7214
23.5622 14.2374 23.977
25.4427 12.6604 19.5585
30.2498 15.7875 23.7192
27.8645 13.6297 17.7016
25.0386 16.4235 25.6215
24.4136 9.98821 13.5528
26.7713 13.7627 17.8411
22.3158 14.0777 22.2962
26.641 15.9242 26.3779
28.4391 17.0779 25.3184
31.0504 12.3321 18.3136
26.5913 15.2581 18.8436
25.4378 13.995 20.9723
23.6426 14.5625 19.9631
23.8416 11.2818 17.6805
24.0808 11.4311 17.4263
29.1407 15.7138 24.9351
26.9161 18.5811 26.3741
31.5499 16.9447 24.6883
25.525 19.2269 29.6291
21.3671 12.2419 18.6105
24.0173 12.6204 19.4211
18.6796 10.999 20.1391
24.9746 16.2972 23.0319
23.1743 14.7602 24.68
23.6988 11.7257 18.1001
24.6271 13.9174 21.5078
26.7667 17.5506 27.1827
24.8698 12.0775 18.1992
21.4336 14.4384 20.2491
21.8807 12.5675 18.5709
24.4418 13.267 20.7033
24.0367 15.2908 25.5457
21.8015 15.1148 22.2053
22.9958 9.29075 13.8086
20.5918 12.1668 21.5534
24.7344 12.0255 18.4905
18.1548 9.7258 16.1421
17.9378 13.0996 20.5752
21.1303 13.9521 22.2996
24.7949 11.1318 20.0213
29.1347 16.5585 23.172
24.4721 15.9418 28.3434
24.1098 16.4928 27.7461
24.6199 15.6993 23.6764
19.9641 14.3546 24.8512
22.2986 11.8279 17.494
21.9261 13.2016 24.9858
19.5384 11.2282 18.4131
18.4955 11.4004 16.0742
17.4286 11.351 17.3621
23.8529 10.4257 17.8103
20.5548 11.9985 18.8041
16.9199 13.8582 23.695
24.6576 15.0483 25.4855
22.1612 15.8676 25.7715
20.5744 14.1936 24.0518
19.1923 12.1941 21.3257
20.04 12.759 22.7057
18.1154 12.6295 21.9776
23.6809 13.4961 23.332
22.7691 13.2335 22.8437
22.6433 10.4938 16.3178
19.2795 10.6771 19.201
21.9353 12.8516 23.8732
18.9501 11.916 19.6782
20.8876 12.1738 20.9861
20.3118 11.7951 22.2796
23.3078 15.3702 26.5239
21.8508 14.0122 22.7714
18.8213 13.3332 22.0196
20.6424 14.8751 27.5125
19.151 10.7272 15.5983
19.857 11.3715 20.699
20.9908 12.735 22.2634
19.3921 12.0193 20.8671
17.5604 12.0687 18.3915
20.154 12.5572 21.9417
15.3056 9.62162 17.1819
18.5497 9.75791 20.1238
19.2932 11.0605 19.1799
23.5378 12.3242 20.543
17.0924 10.3439 19.152
17.3198 11.8477 21.1687
17.3841 13.2528 24.3678
16.3633 11.01 21.2308
19.9804 10.6882 16.852
17.3549 10.9963 19.8645
18.4254 10.5801 23.455
19.32 10.9384 21.3538
18.47 15.3291 30.9164
21.271 15.8152 29.3252
19.6759 11.9091 19.673
18.7255 11.5029 18.4088
16.9987 8.58372 14.5946
17.4959 10.3528 19.6492
16.9586 11.6949 18.3611
16.7437 10.302 20.7767
17.6279 10.2851 18.1409
16.956 11.4764 23.0642
18.8967 13.8101 25.6863
17.2919 13.5491 21.9895
16.4827 8.27659 16.0649
18.7584 12.4774 22.2911
16.4142 10.1856 22.0624
19.9091 12.6231 22.2437
15.2036 9.23902 16.5523
16.3321 11.797 27.649
17.7546 11.1386 19.4706
21.0539 9.53322 16.2387
17.6049 10.0268 22.8552
17.5958 11.4422 21.5798
18.6771 11.1669 20.9229
18.8517 11.4426 23.7154
16.6866 9.78411 16.0707
15.9018 9.82496 20.9975
17.6461 11.9193 20.3302
15.8935 10.13 22.0139
16.5953 9.11373 19.6765
17.4592 12.4887 22.34
17.3793 9.06321 18.0264
20.1182 18.2884 34.5784
20.424 13.8858 26.7114
16.1378 7.2199 20.8457
17.0052 10.8371 19.9872
17.4379 11.0744 17.3357
16.0257 11.8472 27.4217
17.9744 8.95841 18.0461
18.774 8.89999 17.7453
19.8815 13.2828 27.1595
17.2606 13.0176 23.5481
18.9435 10.7162 22.6768
17.9782 11.6982 22.9927
18.9547 11.4402 21.2095
16.9775 11.3367 19.5907
15.6646 9.3774 19.734
13.7834 8.52332 18.9832
16.9917 10.1605 21.1792
15.1476 8.63599 18.646
18.0269 11.1604 20.2879
16.8136 10.9881 20.5563
17.6996 13.4677 32.3573
16.4417 9.1686 18.7934
13.9578 13.6389 26.4539
18.7298 9.71185 19.6371
15.7504 9.72046 20.4389
14.4739 9.07418 21.9115
17.8752 10.1767 20.6382
18.344 11.117 19.335
18.7643 9.41168 18.5989
14.0645 10.2633 20.6614
16.0416 13.8364 28.1812
15.0233 9.32787 20.6397
13.19 9.47438 19.7827
15.4142 8.78001 18.3872
15.2366 9.57093 19.4756
14.0478 12.4341 25.6391
14.3676 9.25143 22.124
15.4485 11.5007 25.4723
17.5155 8.74967 16.1844
15.2847 10.7361 21.4608
13.968 8.07035 20.3282
13.2713 8.39352 18.7948
15.1507 11.1744 21.2336
12.4888 10.3677 27.4255
19.3888 13.1838 22.5369
14.8754 10.9066 22.3239
16.5665 9.24905 22.6147
15.8836 9.44724 18.8681
14.7068 6.2158 15.7135
14.7893 11.0701 23.9999
14.9647 9.17186 20.5624
15.1392 10.2496 22.4376
13.841 7.57661 15.4209
15.9706 9.9945 20.209
17.2868 9.6615 21.5938
15.0996 12.5447 23.8058
13.1332 7.87844 16.8008
14.4583 9.20767 21.4186
14.8598 9.5356 23.0525
15.5243 10.7118 21.8514
13.3266 7.86213 22.3624
15.0515 11.0967 22.7186
13.3397 8.80192 20.2443
14.3111 12.8119 28.3205
13.6538 9.04096 20.0849
14.6511 7.47385 16.1978
13.3317 10.1983 22.2663
14.9235 11.7081 25.8201
15.2991 10.2693 21.8004
13.6484 10.003 19.9367
15.6019 11.0065 27.2942
15.0249 12.1219 27.9839
14.9247 11.0714 23.2202
12.2357 7.76126 16.4294
13.428 9.78197 22.1617
12.9431 10.6945 28.8973
14.5937 7.89109 18.2542
13.6747 8.0154 16.2539
12.5263 8.08478 20.9829
13.5658 9.85544 21.6982
14.0491 8.96076 23.3093
14.4274 10.0846 23.9547
14.7499 8.90298 21.7094
15.8456 8.71901 19.097
12.5593 9.28012 22.8268
15.1207 9.03176 16.9253
12.9784 9.20858 24.465
13.3588 10.8162 23.4562
13.1789 8.37053 18.695
13.548 10.4414 23.5677
13.4737 9.19009 27.1665
13.134 9.84068 21.2588
11.2811 10.0872 23.2129
15.4674 6.91577 17.2764
14.1232 10.2944 25.2017
15.6723 10.9062 25.055
13.322 8.60234 18.5639
11.8156 7.22131 16.7167
13.4156 6.94865 17.6982
13.1164 7.96925 23.791
13.908 10.9631 21.33
14.1456 8.27203 19.2539
13.0917 9.89107 22.5742
14.4102 8.94037 20.7881
11.9515 8.69588 26.0789
14.8562 8.74673 18.3354
12.3035 6.64854 18.2763
13.5395 9.73577 19.5248
11.3536 8.37759 22.4285
13.4317 7.72105 16.8677
13.8325 7.61156 21.5103
12.8179 8.26909 23.3375
15.5358 9.66102 22.0031
14.3461 7.49905 19.3373
11.492 7.45621 17.9185
11.7536 9.01343 23.6334
13.012 9.10176 24.9235
13.2926 7.38737 16.3449
11.4952 6.06893 15.5628
12.8818 7.43309 17.1079
13.1829 9.83461 23.388
12.7698 8.12725 22.2094
