# pn-170911/CsIIA-27-KOKB-1280-1959.psd
# Power spectrum* (dif=0,1,2) (really just |FT|^2)
# NOTE: only the first half! (symmetric)
# weeks: 1280-1959
# 2 clock-days, 2 excluded
# PSD: 1441
84517.3 0.812386 0.0524363
3.38834e+06 47.8403 0.0279032
2.99769e+07 587.966 0.00704922
610295 58.3124 0.0206007
650652 20.1764 0.0316648
1.29449e+06 110.728 0.0212272
463919 52.4285 0.0439844
287208 37.9916 0.0591041
38255.2 31.2513 0.0242231
78152 18.8821 0.0462961
148505 24.779 0.0184446
49821.9 20.5362 0.0329641
68010.6 22.384 0.0672879
119801 70.2503 0.138774
73956.2 39.2845 0.088078
71925.8 29.2098 0.0675329
29758.7 29.6899 0.0486434
56599.1 79.5019 0.226856
28405.4 30.2875 0.0189441
148913 158.373 0.245762
9698.39 44.8778 0.107944
16059.6 28.0404 0.0481394
38180.4 34.2782 0.0744365
55317.4 87.3908 0.257105
47192 76.7058 0.161239
16948.1 57.2686 0.0941831
33303.1 47.3759 0.178086
25546.6 48.5315 0.0940295
30609.3 71.3248 0.238501
10787.4 30.9363 0.0484532
12886.4 57.0103 0.352822
16558.6 33.5163 0.187203
29865.1 84.3585 0.581166
3723.99 26.1126 0.198632
5273.32 38.3694 0.312056
13656.2 38.3628 0.257876
23695.3 97.723 0.405488
4474.66 23.8951 0.0750971
11034.2 37.0469 0.333474
3892.19 18.2686 0.239991
5155.82 31.8972 0.326926
15575.2 75.7583 0.826903
8571.97 105.813 1.06139
9778.61 47.5333 0.557295
6209.07 25.4563 0.361713
7968.51 56.5113 0.768103
5583.36 22.2249 0.376335
7085.78 72.8671 0.965387
3401.06 12.6619 0.150808
3987.41 32.3255 0.237548
3067.34 34.6491 0.415548
11178.8 80.1764 1.05271
8240.61 61.5915 1.05167
8553.05 79.2414 1.05012
3131.28 18.3542 0.316754
5943.06 39.2535 0.56964
2057.01 18.9542 0.423325
4221.09 58.6637 0.763044
1424.22 5.78918 0.053613
1411.73 10.7164 0.132283
3679.67 58.0868 1.07535
1048.94 4.57218 0.199839
932.954 19.374 0.233026
4953.56 67.2073 1.33276
6029.45 66.0096 1.12856
2231.9 85.8225 1.59982
1213.73 23.238 0.530533
3593.47 56.9496 1.45498
1151.36 11.5895 0.28613
1294.62 47.7587 1.37636
3061.21 40.1241 0.831403
476.282 21.2091 0.444321
5202.14 117.795 2.84704
2856.24 92.9737 2.18218
1942.61 50.2321 1.45415
2724.63 122.436 3.67613
1694.02 28.7066 1.06595
1037.96 30.1722 1.01717
661.173 32.1054 1.28328
2359.64 35.1828 1.34656
966.08 11.439 0.348548
1580.92 86.2695 2.51276
2681.91 64.0663 1.80332
1988.59 115.525 4.05124
2950.09 56.7715 1.47663
2434.72 42.4535 1.40686
1255.42 38.8617 1.56532
3369.72 72.8852 2.68044
2414.48 35.4627 1.37852
2791.91 80.7698 3.56706
1366.14 32.4896 1.71425
911.572 14.3459 0.939706
1205.65 26.321 1.31852
4307.6 111.785 4.2613
1063.98 95.3722 4.01377
1492.58 67.3377 3.38247
1457.56 26.9883 0.972691
2428.73 95.8798 4.41376
1360.1 47.6875 2.26766
219.077 12.4563 0.774819
1837.47 51.7398 2.61593
1226.06 26.9793 1.02876
2151.85 54.1066 2.30462
403.161 21.7693 1.06133
2782.94 110.831 6.18693
268.878 4.82487 0.378266
1595.44 99.4278 5.60705
1383.37 37.6972 2.60492
1752.51 34.7618 1.5718
2120.64 103.961 5.6073
1516.02 67.8618 4.29789
2235.61 55.0226 3.06886
1292.17 36.5909 2.03193
1351.58 62.5254 3.48781
1116.93 52.9 3.41248
706.473 20.0204 1.52283
645.5 24.9524 1.85286
355.147 47.752 3.35965
465.05 34.7284 2.02046
807.466 30.8614 2.24787
655.676 49.2181 3.85217
84.6175 35.0601 2.93168
448.025 22.4002 2.17317
494.411 24.6318 0.9903
1643.46 126.356 8.38259
1532.84 79.1255 5.36246
1427.25 80.1721 6.48556
353.249 40.4086 3.44774
847.556 46.9459 3.32741
447.993 21.4891 1.86063
925.04 39.3408 3.1397
220.542 63.3272 5.11524
988.631 62.0309 5.6217
300.213 31.4278 3.28572
48.4739 12.6774 1.74626
1881.49 92.992 8.16815
119.847 17.4399 1.36902
456.897 40.212 3.99959
848.895 28.8778 2.13494
1244.92 60.7409 5.923
346.408 25.61 2.6041
479.225 12.268 1.02752
388.908 12.708 1.02032
476.831 25.0115 2.93628
284.554 24.5593 2.95914
356.306 21.6426 1.92989
542.729 14.0631 1.43712
645.448 47.7584 6.0564
55.0663 9.59656 1.86596
1400.11 91.7988 10.3948
217.087 20.4049 1.7829
741.454 40.5755 3.42919
1171.81 71.583 6.09559
768.883 38.0091 4.59188
1363.15 141.751 15.3461
1125.86 67.0434 7.08801
398.802 51.6277 5.26114
1062.8 69.7766 7.63272
441.313 25.4575 3.23405
915.285 48.6443 6.0263
431.411 48.9032 6.47847
1122.56 85.794 12.9449
248.448 23.9935 1.90388
232.839 4.30162 1.04727
406.026 34.5433 4.28231
178.197 31.507 3.37479
54.9014 8.59972 1.83504
638.869 47.8677 5.0488
457.577 95.9936 11.6553
133.654 45.2975 6.75154
346.714 37.3793 5.0775
110.063 5.97559 1.68906
431.893 40.3145 4.27566
186.835 8.6863 1.68344
159.92 11.2848 1.53462
373.307 46.9403 6.37849
375.059 26.1104 5.59238
1959.67 226.078 28.6284
319.507 18.7238 2.65073
840.349 131.445 19.4823
100.65 3.79819 0.47403
274.78 106.577 16.4252
578.83 87.6225 14.4392
300.32 17.1158 2.54279
611.434 41.2198 6.17847
539.864 57.0221 8.11476
607.442 37.9056 5.87726
81.8498 19.1827 3.78106
735.174 51.1269 7.38835
767.956 74.2359 14.4042
48.26 11.1307 1.54408
267.031 21.4512 3.59249
282.354 46.0795 7.96744
297.084 23.3859 4.60028
165.786 26.5912 3.81866
213.278 38.0992 6.30175
69.7439 39.9159 8.34244
577.715 53.5471 9.65703
760.182 62.119 9.57454
735.729 106.942 22.0247
438.212 50.381 9.04063
259.746 20.0482 3.25093
326.001 33.2262 6.79671
316.32 38.9482 9.83783
114.509 14.3117 1.72794
42.102 19.5984 4.28089
891.04 119.529 22.6117
45.9926 20.9449 4.52077
681.218 120.529 26.0124
358.12 110.288 19.3236
64.6328 2.88778 0.79908
137.751 49.4469 11.9931
801.362 111.332 22.7214
121.612 61.8828 13.6827
281.063 15.3898 2.78647
333.171 30.6366 6.81952
104.446 16.8711 2.66466
151.34 6.34366 2.20228
218.464 56.0477 9.94494
149.206 35.5137 7.74454
77.1 13.591 3.59611
186.351 96.2851 21.7025
160.778 7.11613 1.62104
222.896 43.4026 10.127
71.8624 7.03235 2.07996
137.97 19.371 4.30712
123.679 7.22404 1.67374
266.263 35.6805 8.57604
82.6006 9.76207 1.92942
205.357 23.6806 6.22397
259.463 38.9924 8.7622
327.838 37.8152 10.0343
414.902 74.7559 18.2924
148.919 36.8675 8.9031
307.474 33.1653 9.37757
134.836 53.213 14.2086
185.923 46.4406 10.2291
442.932 98.2279 28.1456
126.949 9.74619 1.84301
46.0004 1.83152 0.52902
86.2336 13.582 3.497
243.119 62.4151 16.3698
211.036 24.0097 6.13275
18.665 25.3612 7.93936
232.255 28.3147 7.94082
347.612 65.613 16.4129
60.0009 53.4127 13.53
134.925 46.282 14.3041
267.37 25.7668 6.36071
242.713 69.1115 24.2844
105.62 7.96037 0.684526
58.5773 3.70587 0.620509
196.573 46.5427 16.2644
332.21 70.4222 18.4549
160.994 16.0743 6.63308
117.559 49.2583 13.4145
80.7003 4.94799 1.71931
28.8666 16.9961 4.9479
99.2209 15.1356 5.29985
202.901 18.454 6.61962
224.434 61.0428 17.9371
101.241 13.0195 3.82065
105.783 33.2888 10.8618
319.227 85.9839 29.3683
88.9165 34.228 13.8223
131.378 12.3388 2.13566
124.985 22.0198 6.27678
68.3481 15.051 6.06275
80.3435 25.6291 6.68204
135.99 41.8289 16.1964
56.8596 9.36748 2.90021
88.9976 4.8977 1.18791
73.2002 12.9645 5.22972
194.208 27.9193 11.1429
31.0439 7.12624 3.42159
63.6172 16.012 4.90826
214.124 31.5004 12.0455
44.8143 17.108 7.18655
222.898 44.5158 13.5181
44.8387 16.1217 6.28682
110.744 23.2056 7.63799
316.544 73.5099 29.8096
354.645 82.7701 26.7916
148.038 22.2823 9.85018
159.764 64.8519 20.646
89.1729 60.7862 24.3144
160.978 25.0943 9.10122
125.538 23.2783 10.2105
186.411 28.0153 10.6199
6.62899 8.01476 3.92672
133.718 17.9168 5.93306
88.9384 9.15476 3.75827
218.709 39.5735 14.5304
39.3605 2.49873 1.01899
51.6093 20.1208 8.76459
47.3917 15.2724 9.95628
195.155 53.7762 19.4511
181.698 48.3213 20.8757
31.3665 22.2016 9.94899
215.198 29.8976 7.20254
290.988 58.3982 22.6893
23.9713 15.4718 9.04203
329.201 64.313 21.114
238.202 61.7709 32.3313
35.5161 25.6742 9.26031
22.8303 36.8608 13.9879
84.6037 23.2806 12.9025
159.271 95.7716 37.0268
43.6696 17.413 9.91419
205.988 43.9574 20.5276
28.9183 13.6832 6.05567
42.4699 36.4999 19.2674
22.172 17.6733 12.8881
157.653 29.4457 12.141
130.203 21.1166 6.43322
79.2259 13.1613 7.26126
265.039 60.8398 30.164
129.839 28.7863 14.6915
220.305 79.0255 32.9328
135.588 23.6043 8.23751
35.162 4.47791 1.98295
77.6174 6.62915 2.49761
55.4529 10.3543 4.91048
113.101 42.2362 21.0185
63.6009 10.6229 4.20015
291.364 141.174 70.2081
166.132 69.8825 53.8544
54.3838 22.8386 9.85868
177.964 34.1674 17.1285
363.208 100.411 41.0725
148.294 59.4456 22.8356
53.3932 14.1267 12.4069
39.0185 29.1031 6.67303
33.7278 44.1832 14.966
19.8496 52.0034 26.5652
6.86503 13.9099 12.702
174.988 30.5833 12.7531
34.1344 16.714 10.1988
74.5528 58.0906 31.7532
235.415 70.089 32.7992
72.735 27.4211 12.1262
120.334 96.3494 52.016
33.0085 5.10772 4.2473
28.5439 41.9501 29.9819
168.746 27.3777 9.17065
177.19 37.4756 16.9651
53.3827 12.7311 11.8705
120.17 22.6915 8.85777
31.2718 5.89324 6.48135
141.142 40.7337 15.122
107.584 26.4669 14.2141
16.6187 7.43062 6.37471
115.408 19.8788 8.58057
76.9281 17.7295 13.4717
183.711 41.6149 17.4674
112.214 37.8494 27.8563
32.9408 16.8894 13.04
66.0955 29.8932 11.7014
47.2294 12.4932 4.15461
92.0382 37.938 23.5307
67.4954 20.995 10.7754
38.7737 8.41821 7.49422
59.6247 48.5082 33.798
113.202 25.8625 11.8212
114.722 29.464 14.4267
41.8097 18.614 9.14025
72.0216 29.4865 18.1604
73.6953 41.0623 27.435
31.3159 7.05605 11.8509
113.662 26.4524 10.443
34.8364 8.84469 9.43191
99.7721 21.3489 11.3636
30.706 28.2079 20.3524
179.49 48.8266 25.8279
90.4245 48.2829 27.6589
67.7027 29.7462 22.8692
31.9961 0.844517 1.73917
56.2971 29.7406 14.2746
39.2489 2.51743 2.08417
23.4544 4.10096 3.30366
53.5175 6.99587 5.72671
163.553 48.8218 25.8308
84.3477 63.9919 46.1071
54.7284 5.84149 1.9801
71.2069 23.7002 13.5249
100.588 40.5541 23.6104
62.3331 14.2846 9.14084
44.2756 27.1084 18.7138
62.2159 22.5182 17.7104
10.4344 8.99064 8.46893
52.1426 14.4324 12.177
42.3333 7.08708 6.94894
70.9703 24.7917 28.7283
105.146 64.1979 30.0277
22.81 31.2671 20.8718
23.4254 11.9956 7.86104
55.9355 14.5473 5.99981
41.885 22.4237 19.5498
60.9766 29.4237 17.9331
8.72322 17.6495 10.4238
48.4344 51.0986 47.4536
120.787 67.8802 41.483
69.387 19.5901 14.0975
27.9255 15.4051 12.1263
34.5291 13.9129 7.90684
19.6975 8.71902 6.59434
28.5587 3.90733 2.7388
23.4987 9.7033 7.7203
44.2258 17.0913 11.0506
3.15884 15.0766 17.0598
62.8277 7.46584 5.07286
70.6131 40.4666 34.6474
76.5435 23.2967 14.5799
76.7282 21.5588 15.2865
37.4515 9.50812 9.27786
43.5272 20.627 13.421
98.1779 34.0922 24.7157
127.233 41.9202 27.9335
35.1672 8.58802 11.2643
10.3683 13.7911 9.08275
45.1224 6.53403 5.52233
80.6897 28.4617 25.43
36.47 14.5074 8.73212
14.5436 15.0055 14.053
32.6093 7.2943 12.309
120.266 29.2899 13.8949
55.9005 18.0894 11.5286
34.0618 10.3778 6.86101
10.2971 6.34897 8.64533
74.556 25.6129 16.9258
26.3724 13.5854 12.4778
21.2618 8.0238 12.5466
149.351 70.2994 44.1681
4.38041 4.30749 4.49679
90.0261 47.2771 31.1901
62.4823 32.0964 29.9477
31.1559 11.2309 10.5167
50.3552 17.3852 15.2071
20.8104 10.0315 16.0527
74.1591 32.1912 21.4892
51.4319 8.08579 7.1727
23.3195 4.33508 2.31227
27.8345 18.08 17.5877
117.385 47.6249 39.8449
49.892 15.5994 8.161
63.3834 25.8025 29.4352
40.6684 40.5898 36.3819
28.9511 36.1925 30.2472
29.038 37.5366 37.3182
89.6508 29.0493 20.2221
57.1804 32.3812 42.9587
73.1581 35.8077 24.792
50.0675 22.8858 33.0579
18.7983 3.47851 7.15861
24.5736 40.6149 29.6241
23.2153 2.89261 6.13463
27.7494 4.57122 4.76337
88.4597 77.6463 66.3208
22.2447 9.38652 8.26913
68.6729 37.1561 28.8052
6.78087 7.25545 15.1077
94.3008 36.9947 44.4223
92.1954 47.7513 22.8679
66.9722 41.859 36.2417
6.36816 5.5497 4.38448
17.4455 45.9011 44.9416
71.0282 22.7502 21.5797
42.5128 11.4114 7.56506
20.9474 12.2554 13.2397
16.379 3.13371 5.45752
70.725 25.7849 24.1307
69.8275 31.0515 25.1376
28.9671 10.6851 11.5157
104.953 68.6939 73.7859
35.7859 17.0909 17.7612
23.3627 15.2177 36.7753
33.1202 41.7048 20.157
42.1188 23.3916 27.2922
45.0086 78.84 80.0255
28.4816 21.1954 15.2946
36.2296 30.8736 36.7436
36.2914 12.8184 13.788
36.704 42.1713 53.3595
23.5853 36.0861 32.21
28.1057 12.7101 11.3094
28.9401 29.1795 47.7876
134.799 94.4073 61.9901
42.7623 34.2261 42.7743
13.1974 28.4699 35.6673
45.8703 5.21091 3.39659
47.4515 10.2171 7.7207
61.4246 19.3952 18.9451
36.2343 34.9609 40.1674
10.423 14.5381 16.9637
56.8797 26.3419 21.689
45.8048 16.9825 25.4506
16.1131 14.5061 24.2901
36.4937 34.822 24.0715
1.7715 19.1211 24.8015
18.212 12.2895 29.3091
90.554 28.8892 15.1126
21.2666 22.1696 28.9112
28.458 5.66539 10.6999
70.0074 30.85 19.8953
106.501 50.249 39.7857
47.3697 27.0028 28.5975
14.2098 15.5248 27.3023
48.2088 24.6897 22.0805
11.1541 10.6542 13.7267
34.3577 17.1211 14.6733
35.4502 31.5432 40.9802
17.4504 1.41113 3.87393
48.3522 60.9576 69.1382
52.7971 15.6139 22.2299
17.2993 6.62474 8.7298
42.8742 9.06455 9.64129
74.7664 34.5773 36.5812
38.8652 27.5415 29.3682
16.1879 3.71902 11.7593
14.7968 8.32538 4.98122
43.0937 28.0883 38.6872
10.4942 20.0419 22.6124
21.6969 21.5946 13.9559
9.35819 9.05815 16.5848
31.6047 19.8077 13.1969
27.944 26.9072 33.6293
30.1094 19.0592 20.272
25.1874 4.90133 7.32106
26.0232 6.33918 6.74983
13.5447 7.11877 7.5189
11.3821 6.619 15.0317
52.5772 61.8852 79.6229
44.5295 18.1266 11.9618
43.7674 35.8778 40.979
35.1367 21.3299 27.2121
3.04851 20.3308 35.9638
76.5714 37.5821 34.1025
27.0399 20.4543 31.9869
8.9751 9.14106 25.4972
10.797 7.38129 21.5261
8.74171 32.3701 21.142
5.45681 6.12836 8.18674
12.2375 16.8084 24.761
17.8562 36.2389 38.7869
31.2664 20.602 25.8502
21.1225 11.1019 8.99951
6.3114 16.5306 17.1394
19.3118 5.43621 5.87101
7.93927 3.92001 6.20817
42.7453 24.6343 35.4963
4.748 9.14392 8.1024
24.0396 16.9979 35.6998
26.5491 50.24 42.4807
26.393 31.6161 51.0406
29.8089 40.2717 41.9996
26.0894 17.0243 33.9801
26.2955 9.04777 8.02489
14.5982 4.22599 2.31414
19.9944 14.2316 17.8745
32.1282 20.8956 17.969
27.3294 41.9167 58.4776
18.4835 1.24022 8.43916
19.4635 5.88804 4.49748
33.9036 31.3476 44.3897
13.1765 25.7856 49.3424
64.5977 37.2652 29.2796
46.5785 24.0116 30.3965
19.5535 15.5972 23.8852
39.8795 31.442 51.2878
26.6672 10.1559 11.1532
10.8271 14.8173 14.8023
29.8217 28.3038 36.6074
23.4812 13.0479 14.7059
22.3037 21.5972 28.1104
9.58861 17.156 27.5439
15.1369 24.696 58.2419
61.9702 39.5369 52.1346
32.2 6.45383 2.02339
49.4934 32.8725 45.7996
17.1592 22.9792 24.0107
3.08624 12.2742 19.6529
18.3623 10.5688 18.4941
15.078 1.12529 1.40239
7.57449 3.14016 13.6771
25.9752 38.7069 44.8564
8.10771 24.9397 32.2941
12.7928 3.35731 11.4212
30.6506 4.22379 2.40483
23.1596 23.693 41.6136
11.7424 7.05486 25.8188
33.9904 14.9331 18.524
50.3237 57.9117 71.5534
22.9237 16.8842 21.492
17.849 3.90545 13.7121
35.2244 15.0153 10.6436
23.4496 14.9556 18.4992
16.8177 2.18519 5.78949
61.1044 48.5191 73.325
17.4219 7.28169 13.0051
13.9294 6.75038 2.55024
12.8715 13.445 19.2533
13.689 14.2749 32.1875
60.2545 28.0966 25.4231
25.5468 20.0105 36.6284
15.7014 11.3595 26.7714
19.2414 39.5717 49.2095
31.4112 17.4697 38.3916
25.1972 17.7397 37.133
7.75444 25.5886 29.4122
14.6567 23.2339 23.666
19.5773 4.39691 6.81451
8.09525 24.4784 40.7794
20.9215 9.15189 16.1294
21.3238 7.70714 9.52761
2.19975 8.9121 19.2281
24.9812 18.3173 33.2849
31.3831 18.8556 20.8343
9.73801 27.8456 42.4406
23.9617 7.82692 9.82978
7.2576 3.56906 5.08315
35.6141 28.1912 45.166
4.68746 25.9052 57.1051
31.0495 7.92573 1.21912
15.1965 6.72145 10.7471
21.7726 17.461 24.9618
23.5254 7.37034 12.791
3.63536 6.15545 10.9419
23.8878 27.7245 43.8368
19.9842 6.99659 6.87775
25.5327 19.4603 45.6347
14.6578 19.2318 17.6797
10.6043 0.900128 4.49041
10.7566 8.38708 12.3369
5.88819 12.6971 25.9847
28.3706 13.2141 16.1341
13.6806 8.71317 17.7897
20.641 14.2091 30.8961
28.3952 21.5733 19.7979
12.6879 15.1002 33.0873
23.0566 7.45009 12.7581
18.8391 17.3128 14.3141
20.3297 17.7055 38.5245
5.07793 14.9529 21.2236
4.65186 2.56942 0.197078
2.60453 24.7822 34.2461
16.3069 20.1408 44.3743
12.7717 13.2814 33.2592
52.4396 35.1325 51.3367
21.666 6.84399 4.42334
14.7776 6.17722 5.71456
13.7634 8.75278 29.8665
22.6009 43.5427 61.5892
11.1903 11.5605 20.4342
24.749 10.2985 18.0733
17.0605 4.45852 6.94048
12.0001 7.9224 14.3368
11.869 1.31475 3.71507
10.4345 9.19666 14.2367
14.8924 4.4458 6.15996
13.8472 8.98892 30.6255
3.48474 2.60779 2.80161
0.768239 7.70911 5.27919
11.785 32.7077 34.1411
7.94314 26.0196 59.2075
15.5893 15.7105 33.5512
5.32211 29.6401 74.7303
34.6201 4.53912 9.68579
30.342 10.8932 11.6093
42.6904 31.4654 48.6413
14.6676 14.806 39.2743
19.5894 21.667 24.5528
16.231 12.4281 18.3537
16.433 5.3833 5.2695
11.1525 7.75544 18.6592
11.3718 8.72255 26.0533
21.474 12.5716 19.13
8.92712 10.6595 51.3326
43.0224 32.5861 23.9361
22.4126 7.51145 6.06535
21.2154 21.5436 39.7428
31.7855 26.0189 37.3389
8.78551 3.26425 6.22295
10.919 15.5913 49.4443
22.1744 22.4013 30.4018
17.6149 15.0992 35.4927
10.036 12.9526 39.3835
6.89268 13.6611 8.12862
5.94796 27.2953 48.5227
15.4429 21.2105 48.1201
27.6255 6.78873 5.96765
20.5903 21.3516 36.7469
12.0021 0.781245 5.74438
21.0809 18.28 38.9946
15.017 9.9012 15.8537
10.4135 6.59707 11.0084
4.97714 13.1211 37.732
32.6975 21.0784 28.452
9.50213 13.8874 30.4955
13.4594 18.2101 30.5588
11.8356 1.90087 7.32774
6.84703 3.28376 2.85527
15.2301 6.26157 11.0046
4.94914 10.9597 40.2663
21.2173 16.9041 22.8963
6.64221 9.10603 11.3919
9.40748 9.52433 28.3556
34.808 28.5472 44.8199
12.0899 23.2157 47.1763
13.8694 6.99785 16.2234
5.68725 14.9869 41.685
22.0098 16.1866 20.3368
14.8662 16.3381 29.9829
8.47052 18.7492 25.3531
4.46693 4.96836 17.0198
3.04206 11.6783 18.9794
12.7445 1.21639 5.8336
14.3073 10.6712 19.3211
5.24312 6.97698 22.1685
9.70768 6.85698 11.0605
11.5194 6.75486 19.879
16.4609 6.86917 20.4217
5.57019 4.50669 6.67906
4.14496 10.0743 25.1277
13.1915 1.82966 19.5745
11.4368 2.36941 13.9806
28.0651 47.58 66.9416
8.47196 5.54577 10.9017
11.9828 7.19323 26.6782
16.134 19.3029 24.9579
8.81664 44.2318 81.5182
23.1875 19.4979 39.7415
3.31944 32.6303 43.6862
8.86011 14.5407 45.2347
19.472 15.339 39.4853
16.0874 12.7774 22.5015
14.793 2.55554 3.8412
11.752 12.3344 17.4087
15.7195 12.1077 31.6815
11.6914 6.42867 13.6937
16.7768 7.82085 20.9766
7.25026 13.2883 38.0805
31.9074 12.6129 15.049
28.6633 17.0007 23.9112
11.6856 23.7537 48.3649
11.5387 2.30693 2.96839
18.1386 7.95375 12.867
13.2942 6.50505 14.4927
4.77071 0.507627 2.9989
6.4569 4.50265 9.13367
13.8423 15.298 45.7558
3.01077 5.91786 16.5205
23.4428 19.3147 29.685
8.65271 3.77766 19.0317
4.7812 18.4542 20.8688
16.1716 13.1187 36.1733
4.70927 3.14671 3.4574
8.93091 13.7391 29.9594
3.99508 6.14433 5.49431
5.2374 11.9124 33.7495
12.1477 5.43713 15.0106
21.3326 54.7804 135.417
12.3581 26.6575 26.1831
5.5253 7.03696 14.8216
6.48083 8.93386 27.2079
12.0754 4.72585 29.8742
24.8339 12.7728 49.8682
20.0763 12.7225 4.90825
5.74481 10.8525 20.9845
9.57547 13.6721 36.5255
18.8738 5.84799 21.5036
10.702 3.50752 3.09682
7.69687 4.20627 44.7781
41.6909 52.957 65.4895
10.6517 2.9642 3.34282
4.71162 11.9818 28.1615
24.2677 14.9387 22.0487
4.80107 14.5357 54.7473
23.1675 13.4795 5.92331
12.66 21.0481 59.633
5.90039 10.7967 19.9233
16.087 11.3115 38.79
6.94609 24.1691 33.1335
13.2132 2.91566 4.57271
8.36699 18.005 60.8501
11.0543 1.89865 0.947998
6.35969 3.14074 24.2861
18.8463 10.6201 15.2795
6.97657 6.91321 4.68452
9.73172 15.0524 41.1889
15.3477 19.9223 44.7115
7.38497 17.4437 19.8869
2.69325 8.04231 26.1266
16.0599 6.52686 8.93529
2.89469 17.9433 54.2915
18.2084 16.6304 37.7085
20.3207 6.37057 13.3279
13.4898 6.80285 8.91914
15.9218 21.5452 81.4523
10.3675 12.9571 11.6891
11.1593 10.4181 9.73144
12.2813 26.6458 61.4856
8.62778 4.17206 27.1317
16.2046 11.2566 34.7205
9.54351 19.9374 24.4874
7.06188 19.3793 60.1031
16.6516 8.62993 14.4023
5.50493 9.13184 27.1026
7.83682 5.84945 11.4891
10.2371 5.20917 14.6376
11.049 2.2687 12.9394
18.7789 13.6248 25.8431
2.68435 6.26956 7.71573
3.10564 7.88328 31.3673
16.3802 4.74233 11.7126
15.2868 10.2764 17.0083
5.35997 5.12474 5.38634
7.65894 8.24595 30.7434
8.27015 10.2594 15.1073
8.38199 17.9153 41.7453
4.26503 19.9437 85.8676
23.576 8.06208 7.26892
12.5149 6.624 25.4422
29.7642 26.4881 61.6161
16.2522 41.4124 91.038
21.8096 15.4223 40.7539
4.42948 6.88916 15.9761
6.75052 8.71371 20.1211
7.97768 7.80088 35.6141
16.1779 6.05903 20.314
9.68949 14.8838 24.3529
15.4868 3.80313 6.69418
13.549 4.68661 14.3966
