# pn-170911/CsIIA-av-USN7-1280-1959.psd
# Power spectrum* (dif=0,1,2) (really just |FT|^2)
# NOTE: only the first half! (symmetric)
# weeks: 1280-1959
# 6 clock-days, 123 excluded
# PSD: 1441
387953 3.21711 0.0154854
8.91891e+06 46.4662 0.0735714
5.41718e+07 1290.67 0.094882
3.81935e+06 163.211 0.129847
1.82544e+07 1653.17 0.207936
2.49334e+06 212.245 0.0688233
926336 90.5056 0.0524311
1.28705e+06 184.067 0.148404
411732 160.115 0.143585
452692 129.622 0.0884635
183679 80.6972 0.0663884
232363 96.7216 0.106968
248868 141.87 0.15312
183471 87.4879 0.151804
141660 96.2906 0.0794036
231330 149.239 0.263888
159537 153.388 0.168288
102198 81.298 0.14847
99443.9 86.6044 0.277649
140263 139.463 0.231555
87861.5 101.05 0.212099
22861.3 30.67 0.100239
28687.9 48.0267 0.159694
96511.7 228.638 0.743747
55538.3 121.31 0.43225
44736.8 130.968 0.490872
62956.5 186.989 0.3465
66392.7 151.39 0.341461
50370 119.61 0.499319
90200.8 201.033 1.02524
10111.2 77.4568 0.399215
31416.6 104.113 0.623198
40134.3 158.461 0.859507
38408.1 172.614 0.980876
23137.5 96.0297 0.735541
25237.6 128.305 0.716044
14006.7 93.8711 0.548089
19798.9 118.985 0.955262
31723.6 154.054 0.985982
26597.9 234.373 1.59315
23404.5 95.9911 0.837516
23188.2 132.767 1.04315
15459.5 103.168 0.781902
10014.4 64.4964 0.684946
13391.5 70.4363 0.622069
10110.1 70.1402 0.69408
18310.8 92.6522 0.946829
8918.62 78.8088 0.799028
12222.4 127.767 1.74396
11582.6 109.097 1.42769
14637.5 110.907 1.38189
15356.1 142.363 1.68579
9634.22 121.909 1.8741
11312.1 106.531 1.40969
17925.1 180.372 2.99928
6683.03 104.388 1.6628
9405.04 145.317 2.45302
5252.12 95.4676 1.56353
11540.5 145.524 1.99542
9557.58 113.797 2.25955
6341.36 107.733 1.93872
6864.33 116.538 1.96417
10384.7 147.816 2.25839
7958.87 112.653 2.5494
4208.22 50.0309 1.1908
4415.02 71.3274 1.48936
6340.62 125.807 2.59925
6975.52 96.2214 1.78349
8746.46 140.384 3.60084
5705.03 71.7895 1.91214
5649.97 58.399 1.51091
5069.16 82.5675 1.63986
3548.32 76.3517 1.74354
7717.35 215.278 4.81589
3591.35 138.819 3.43858
7225.8 84.2269 2.17341
4705.41 100.124 2.74693
5944.83 83.3916 2.49779
3291.35 71.0785 2.56648
6448.96 131.357 3.71738
7685.68 143.802 4.23325
2423.52 71.7269 2.01411
1855.76 50.3462 1.62076
3584.68 83.2697 2.37055
2443.24 43.1132 0.984833
3448.32 48.0717 1.91243
1228.26 19.1559 0.748008
1861 48.7841 1.43031
2420.37 43.5587 1.24997
3970.82 128.672 4.9685
3424.78 119.066 4.41273
3184.68 65.712 2.89372
2674.96 103.488 4.19663
4054.42 127.069 4.89183
2515.45 109.983 5.13081
3257.56 94.7427 3.79494
1913.63 52.1238 2.36899
2568.67 75.9861 3.0004
2202.43 89.4866 4.21334
2062.92 47.8833 2.69351
2220.1 72.631 2.99668
2831.05 60.2628 3.1726
787.333 8.67063 0.512873
1856.56 54.0823 2.24295
1905.46 64.5804 3.26447
1953.21 59.5274 2.98844
2226.17 57.4318 3.05362
1672.88 52.3036 2.28285
1050.17 14.454 0.702482
3332.33 96.5993 5.20668
2040.81 54.3287 2.9248
3203.02 80.505 5.09618
742.498 33.365 1.91753
1696.74 76.0865 4.57596
527.303 58.8248 3.3283
1070.3 49.6371 3.15803
462.962 33.0592 1.94706
1225.29 50.8214 3.49663
1295.61 33.6139 2.12981
1669.11 44.092 2.82964
1346.2 40.4669 2.82014
895.723 46.943 2.52737
1037.87 28.8771 2.08397
2060.13 73.1848 4.91947
910.013 30.4028 2.13816
1014.14 63.8757 4.34964
1235.3 79.8339 4.72414
2138.54 54.1479 4.17814
1755.85 76.3176 5.91887
1427.37 27.7334 2.57875
1090.92 51.5456 3.51589
1177.93 66.4482 5.25539
748.699 28.7332 2.26922
1658.32 71.8025 5.57995
1476.04 72.2047 6.45773
716.032 44.7205 3.4761
592.069 45.2174 3.49929
1623.69 46.8201 4.42376
931.074 38.268 3.02701
476.639 43.8598 3.99497
1069.72 32.4985 3.01085
1361.4 39.9818 3.58638
1019.07 40.7273 3.53454
1393.15 43.8782 4.19831
1588.82 55.4776 5.46296
1193.4 82.829 8.59845
678.977 28.9617 3.36978
370.849 41.449 4.29117
1087.37 33.73 3.39614
741.58 62.0724 5.87386
870.344 50.0912 4.94794
676.844 40.5659 4.33858
735.956 36.7457 3.69283
654.852 31.2544 3.25806
665.347 27.62 3.26503
568.464 34.5709 3.52974
944.173 43.217 4.69742
734.63 32.7543 3.44853
1197.58 30.9365 4.12276
832.516 70.411 8.40059
749.782 33.4378 4.05096
858.238 34.117 4.15665
800.112 63.842 7.70845
458.99 32.5089 3.18585
511.021 28.0784 3.45327
661.475 54.9506 7.18931
798.091 22.5234 2.83393
606.012 23.5617 3.31784
581.925 29.0551 4.31586
720.16 29.2176 3.53715
629.827 33.69 4.49828
386.597 25.0914 3.51546
674.605 21.6904 3.29631
702.639 18.6934 2.33289
612.65 11.1688 1.73738
437.242 17.5732 2.56197
435.696 15.0431 2.15598
1133.84 66.1252 10.2531
538.639 29.3449 3.90707
589.321 34.5166 4.67975
492.914 25.3204 4.39431
596.54 34.7572 4.96548
531.739 17.5227 2.94984
496.78 29.7427 4.64959
770.274 19.3846 3.13978
585.828 19.0805 2.74841
375.604 25.2163 4.73191
875.254 29.0105 3.67004
813.607 58.7472 9.18734
273.797 37.1022 5.83091
593.974 23.8537 3.862
250.38 14.6762 2.50247
553.528 24.3468 4.12615
424.177 27.9906 4.6388
289.785 16.8025 2.76815
544.854 14.4583 2.39025
263.257 28.9473 4.8869
500.52 15.7606 2.9165
714.586 21.1932 5.04216
553.037 21.6382 3.60935
587.297 21.3312 4.32354
254.517 18.7651 2.75522
575.575 16.7861 3.28717
468.092 45.6122 8.95725
447.26 23.8798 5.22302
840.453 26.5861 4.41604
240.277 12.5751 2.63084
368.715 14.1419 2.90821
896.081 23.2249 3.96212
387.788 14.3141 2.96254
567.181 21.5802 4.62864
555.706 13.8146 2.5288
412.827 20.1471 4.22618
672.336 38.8151 8.04449
368.458 23.0417 5.20735
369.865 12.1635 2.98471
608.018 24.1891 4.42142
399.601 15.2442 3.05409
591.606 20.1927 4.28941
470.433 21.9441 5.02594
350.542 29.6954 7.09289
580.141 28.1067 5.97178
438.87 18.8648 3.35859
621.948 41.5451 10.0943
492.012 8.63996 2.34941
173.891 7.92833 2.01877
497.316 34.9649 8.02599
438.965 27.4251 7.34536
266.823 15.5766 3.16215
566.491 34.2247 8.48178
278.755 17.9744 3.84809
534.671 21.3568 5.99821
332.424 6.29977 2.5039
454.94 33.1378 7.89117
324.967 13.6978 3.29669
430.921 20.6921 5.00109
389.444 25.1637 7.25566
502.321 12.385 2.96709
341.24 31.478 7.97012
576.387 12.6759 3.64244
335.302 12.7703 3.26899
322.022 20.8532 6.21851
602.083 28.8908 7.2333
353.208 28.1232 7.67371
463.023 19.1555 5.1343
580.093 13.0628 4.31127
324.36 19.0761 5.05014
267.355 22.1589 5.36152
282.654 8.1984 2.94214
533.901 7.89361 2.51264
475.226 29.984 8.3791
210.323 14.275 4.0353
280.037 18.0154 5.3413
521.726 35.0082 10.101
345.107 18.1301 6.00912
295.874 8.70263 2.21539
212.825 11.5079 3.70409
329.121 11.5329 3.68459
499.556 13.0828 4.46768
227.179 14.8566 4.19782
233.176 17.8944 6.01541
334.184 21.8058 5.94772
223.039 16.1343 5.00702
324.562 16.9284 4.96043
198.161 17.7889 5.24072
379.551 28.7334 9.54291
287.758 4.65815 2.1062
352.927 12.7891 3.50812
508.693 14.2339 4.73023
165.374 8.71034 3.44649
411.753 16.6865 5.73394
301.631 9.42015 4.0249
382.04 13.9354 5.12083
391.643 39.5813 12.4253
215.335 8.34086 3.10628
335.34 6.64511 2.14462
403.168 9.06364 3.69955
263.264 17.9409 6.86265
371.115 9.07645 3.67305
189.492 21.8734 6.08527
339.38 20.2445 7.53832
336.5 12.2974 4.17156
174.599 16.2593 5.85654
322.845 14.3719 5.27029
281.639 16.635 5.56293
289.866 5.52703 2.3794
287.353 16.8149 5.74287
138.518 8.75493 4.27869
438.228 28.9157 9.14631
469.736 18.7005 6.54959
216.557 10.5058 4.11849
386.396 16.6488 5.37228
245.689 12.4966 4.60185
266.471 10.5737 3.78158
406.648 5.0716 2.73271
315.368 9.93078 3.15334
279.089 8.20896 3.31825
331.274 14.3436 5.69268
283.073 14.698 5.6386
456.242 7.66315 2.81982
213.848 7.08945 3.15156
311.277 11.4033 5.65595
462.746 21.3022 7.85531
236.52 29.9966 13.2542
503.044 14.3883 5.48729
351.695 4.99431 1.77716
219.467 7.66474 3.26454
399.59 8.70326 3.96479
297.863 6.49112 2.71416
310.251 8.53778 3.38304
280.853 19.3618 9.16592
160.717 6.62676 2.83783
476.344 8.95001 3.83128
324.246 7.38568 3.45367
169.304 8.79919 4.97312
440.276 19.5273 7.08904
207.3 3.66289 1.5919
413.206 8.00104 4.23928
296.615 10.1329 4.82603
114.452 9.76873 3.98648
304.871 10.4776 4.15248
261.995 7.75693 4.62467
287.286 6.46753 2.7322
320.291 10.2732 4.77636
118.793 13.3541 6.37957
219.912 4.06244 2.11907
335.343 10.2866 5.0501
146.982 5.8961 2.46368
251.817 4.33075 1.93243
199.452 16.6174 8.33984
223.812 7.49546 3.4211
332.831 16.3006 7.74846
275.601 12.8502 6.5801
219.586 6.81529 3.95179
209.268 15.9758 7.49007
286.728 8.42247 4.46565
326.296 15.1897 7.41166
126.013 11.465 6.01854
225.165 7.46231 4.05242
183.033 6.02521 3.16018
231.634 7.84185 3.74159
275.793 8.33936 5.07834
107.305 9.89414 4.9083
194.903 10.0962 5.0206
272.548 8.94579 5.34818
258.253 7.83509 3.33777
229.72 8.56141 5.33317
103.432 9.41848 5.98371
203.582 7.61763 3.45066
225.421 10.4437 5.86836
261.403 7.91273 4.86675
228.158 7.25547 3.75598
158.692 8.92755 5.22527
238.713 6.75968 3.25798
370.068 8.19419 4.58704
153.194 7.3748 4.27812
224.233 10.449 6.21767
140.198 6.43145 4.1005
265.631 9.8525 5.70715
433.523 9.82234 5.91214
173.135 7.03067 4.49653
264.912 11.9973 7.37405
374.838 7.96159 4.10302
227.661 7.49881 4.61023
331.026 4.22485 2.72066
191.611 7.17929 4.45309
235.067 6.88185 5.0608
348.204 5.34337 2.55405
259.38 7.53981 5.76534
248.205 9.06494 4.6815
250.137 6.45265 3.32761
189.081 6.22691 4.02531
417.388 7.64137 4.30727
216.138 2.85567 1.88209
235.223 3.42794 2.75945
307.326 7.2739 3.61343
155.753 14.9726 9.22579
444.585 8.40765 4.14309
268.357 7.53854 6.19852
151.198 7.35912 5.44837
422.444 7.84106 4.81174
186.914 4.58327 2.29721
262.74 6.69177 4.16844
268.48 14.2895 10.4514
127.26 6.94468 4.4787
318.59 5.28412 3.37205
199.818 9.3084 6.09321
131.929 6.92453 4.71726
212.746 5.79979 4.15011
177.048 11.3711 8.10431
287.278 19.629 11.6062
265.051 10.037 7.75598
146.733 6.31387 5.53518
199.869 4.54037 2.56591
178.903 5.51199 4.56003
269.176 3.72737 2.46589
239.2 3.40181 2.22671
109.871 10.2412 7.18489
210.834 9.23529 5.26028
207.527 4.25302 3.41131
242.942 8.23918 4.66749
228.731 7.43281 4.57052
169.454 11.5004 9.42735
199.196 5.04315 3.32306
241.436 2.78976 3.08025
150.948 3.95894 2.42563
186.135 3.08977 2.19255
127.245 5.601 3.21214
192.048 10.1531 7.62957
211.096 2.42237 1.8877
141.859 6.62337 4.9853
138.161 7.6064 5.48367
166.285 6.05594 4.65304
190.932 7.1575 3.77977
179.559 8.76715 7.03716
74.673 1.91405 1.35271
183.333 1.76072 1.50858
201.832 5.71833 4.47785
225.689 4.03231 3.46251
171.667 4.51414 3.82883
110.909 4.86319 3.35016
250.358 9.97695 8.34082
229.34 4.95661 4.33308
184.534 12.2899 9.42829
185.327 4.88179 3.432
117.531 6.99939 6.85339
250.518 5.52097 4.76016
279.582 4.50902 5.31886
159.666 5.93537 2.73699
179.652 4.41967 4.4781
161.685 6.46507 4.42875
231.168 4.00983 3.79324
318.304 7.28125 5.91894
142.182 7.51132 5.07768
208.785 3.78484 3.91552
292.84 3.94113 3.40232
244.75 5.44576 3.93838
288.26 2.98484 2.82591
123.924 4.62564 4.91111
224.317 2.7664 2.00589
347.457 6.67412 4.56378
233.079 8.64713 7.22208
245.312 4.92245 3.67869
166.007 5.8208 3.88398
210.667 6.06323 5.43652
361.506 4.27042 3.61856
159.044 3.71175 4.42163
156.993 4.56307 3.6758
221.513 5.26627 4.4569
221.87 3.70461 3.28357
311.982 4.06623 3.57769
170.184 1.83696 1.84196
115.806 3.07272 2.52007
330.764 6.27645 5.79903
222.526 8.05325 7.64151
304.331 12.0923 10.7709
252.026 6.82081 4.56404
115.742 2.35562 2.27437
281.498 4.90805 3.92608
243.4 3.98516 5.00474
190.743 5.90499 5.3322
215.349 4.39539 3.58284
154.875 7.76203 7.40596
333.774 7.37745 7.26154
226.591 5.18643 4.5779
96.887 4.2578 3.62997
196.741 5.84415 5.42351
187.482 2.44363 2.58522
241.957 8.64871 7.83481
182.861 10.6357 10.7581
79.9852 4.12953 5.86155
201.836 6.5071 4.89973
213.694 3.19992 2.4087
169.857 6.45156 6.57911
180.89 3.97712 3.80945
73.7892 4.95717 4.32634
155.423 1.96667 1.40055
230.813 4.01627 3.70211
125.66 8.69743 10.0832
129.08 5.14949 5.07832
91.3787 3.73236 3.3042
169.92 5.19576 5.17623
177.758 2.39493 2.31956
105.11 3.7231 4.23181
104.667 7.5291 6.98967
128.031 2.14691 3.94964
193.875 4.75738 4.35348
161.442 2.75314 1.69215
75.1621 5.12135 6.88645
140.431 8.70143 7.48991
185.897 4.7896 5.91649
184.381 2.97706 3.16734
147.16 3.42057 4.16207
67.3106 7.15807 8.28971
168.346 4.09242 3.79213
193.31 2.20744 3.15294
162.103 2.1489 2.0236
157.946 7.21339 10.288
67.4111 7.78278 6.89874
221.348 7.101 8.33067
250.339 9.85703 9.37481
119.224 3.33797 3.25956
187.373 4.97727 5.19733
120.796 3.85157 5.16714
170.398 4.56982 3.96773
238.055 3.20782 3.43678
115.568 5.65025 6.18235
170.845 5.77842 5.07861
196.121 2.71032 3.30681
193.056 6.4794 8.90094
267.308 5.23638 3.66654
97.726 4.05909 4.43236
165.562 4.56854 5.25536
258.204 4.16017 7.3393
150.764 3.91094 2.76513
217.269 4.77826 5.24109
149.28 5.16796 7.56831
164.986 2.12241 3.06454
335.778 5.56729 4.94499
156.054 1.99775 2.49148
129.047 3.76792 4.17199
199.887 4.75092 5.11973
187.663 3.0504 4.54151
267.757 2.88965 1.8671
163.409 4.22693 3.75416
121.406 6.1953 6.65301
228.841 6.1111 9.07364
195.719 6.46637 5.87153
225.894 5.79575 7.46881
178.535 5.26079 6.21875
118.639 8.23672 8.90579
245.794 3.62353 3.96165
207.768 5.18243 7.16854
145.095 3.30202 2.66851
167.886 5.60471 6.78499
110.998 2.39505 2.97085
263.441 2.50498 2.44196
199.015 3.31888 4.36982
101.494 1.78973 2.51662
188.314 4.35497 6.23545
150.48 4.22985 4.98316
196.294 1.94416 2.33791
188.405 4.17352 6.35871
74.8255 6.36789 4.64809
160.613 2.43227 3.44854
181.69 6.4249 7.44643
145.499 2.70278 3.21374
134.502 3.01483 3.27483
66.4333 3.67488 5.90624
157.051 2.83169 2.71246
192.261 0.969439 1.83458
136.21 5.65841 6.23828
108.112 3.66516 4.79249
80.9304 2.78129 3.76659
121.179 2.93992 3.96917
182.609 2.67585 3.99216
82.6042 2.016 2.35989
83.0154 4.89998 5.38059
117.767 4.87316 6.45151
155.971 2.87641 2.18798
130.559 7.94389 10.3724
64.5078 5.42546 7.05693
102.741 2.46429 3.31176
118.819 3.02595 2.80202
154.065 2.7448 3.70819
107.762 2.53879 4.16021
51.0248 4.12907 6.45742
153.935 4.35755 5.53323
140.226 3.54924 4.31534
128.804 3.55838 4.65431
91.6373 9.33908 11.0675
59.3287 1.80297 3.61224
140.432 10.8416 12.1006
179.789 3.24055 6.57883
87.3716 1.77417 2.1191
115.46 1.68273 2.13472
93.9941 0.815192 1.64671
145.943 1.54217 2.98379
214.182 5.24859 6.15636
85.53 8.04353 12.1144
113.197 4.4658 4.15002
138.426 3.59842 3.96796
161.889 2.94072 4.28658
174.931 4.9679 6.8413
85.3852 2.89517 4.47537
150.322 2.63206 2.72355
203.806 2.5727 2.49574
123.422 3.14044 5.53876
178.472 3.03107 3.59033
91.7226 3.48276 5.01311
149.427 3.48078 3.19919
254.177 2.63292 4.13356
121.296 1.61772 2.63699
138.288 3.01552 2.43561
164.771 4.18155 5.0939
141.111 3.15772 5.50921
256.449 4.94753 8.72113
134.794 3.70855 5.81574
107.716 3.02171 3.07787
184.251 3.45558 4.99616
145.797 5.20407 7.2412
192.336 4.42402 5.5989
143.148 2.54023 3.55011
77.8712 2.87367 4.74609
216.828 2.63953 4.45891
149.344 3.95415 5.25663
136.822 4.27492 7.7607
165.903 3.73825 4.50095
88.3367 1.49342 2.80192
211.729 3.59727 5.59316
175.919 1.98154 3.2971
88.4136 4.25407 5.7269
165.835 5.27219 8.29877
123.176 2.49652 3.23639
164.134 4.30111 7.36407
180.899 4.76746 6.5687
50.5068 4.27261 7.94157
157.412 3.8748 5.41328
149.952 2.49101 3.96334
116.001 1.70087 3.8633
130.324 3.59012 3.71044
48.2616 2.46698 5.60775
130.762 3.48337 4.29971
159.328 1.68184 3.83667
91.7551 2.1971 4.77086
83.5123 2.25835 3.52531
61.2737 4.25536 8.19146
130.784 4.60757 3.85233
148.732 2.76503 3.99539
67.1474 3.9177 7.0924
82.2991 1.53614 1.90687
87.9201 2.65665 3.32655
117.142 2.97042 4.57902
109.298 2.53618 5.44532
36.7169 0.909979 1.78049
67.3009 1.5199 1.72062
109.975 4.63833 8.95507
110.384 6.51779 9.77413
91.0899 2.15974 5.75298
42.8375 3.20867 4.94816
110.989 3.50983 4.89238
112.06 1.94134 3.69655
91.3375 3.23999 4.95021
80.77 3.64907 5.06271
45.4905 1.23342 2.19507
131.132 1.85239 3.00789
144.877 1.97202 3.5064
63.8855 2.19065 4.26689
88.831 2.47718 2.92467
71.1874 1.75558 1.35512
137.733 1.32134 2.32512
158.628 1.5021 3.38297
49.4184 3.41483 6.32597
92.1984 1.48167 2.45696
126.353 4.11289 5.9129
134.528 3.55365 5.88859
159.466 2.67791 5.01261
60.6584 2.68264 5.75379
108.641 3.22143 4.12393
171.269 1.18867 2.23239
118.528 1.29504 3.97519
141.849 2.32053 1.89633
87.1748 2.25009 4.33176
123.26 6.03607 10.6882
201.601 4.0194 6.06033
96.9889 2.22576 5.5617
131.393 3.46886 6.27635
128.61 1.90621 5.31057
103.269 3.92394 5.50965
222.885 2.39953 3.08012
100.445 0.706445 2.06504
86.6216 1.80491 3.48939
178.517 4.1062 5.86631
136.15 2.62048 6.61615
173.388 2.26212 3.79256
122.873 2.8067 3.97906
64.041 1.79036 2.98047
191.802 4.12614 5.74521
151.25 1.70698 4.70064
133.023 2.36804 3.63007
124.184 1.12395 1.87918
63.7612 2.7085 4.84634
183.098 2.72451 5.73512
147.508 3.67587 5.32941
81.8128 3.16236 5.07311
139.639 2.17686 5.12746
81.9575 2.05881 3.04954
146.739 4.74239 10.104
128.646 2.04487 4.08164
44.132 2.30023 2.36432
126.591 2.29489 3.04953
123.904 1.8656 5.20106
98.5148 2.17526 5.38332
112.118 2.08017 4.71104
37.2179 2.86402 5.97661
118.832 3.9962 5.96623
145.526 5.28641 7.9608
76.4037 1.30237 3.46636
70.0899 1.32282 2.57595
51.9186 1.8518 4.56654
109.969 2.44769 4.64905
122.635 1.59057 3.58381
45.3059 4.79852 5.98207
55.3633 3.08315 6.26986
67.2219 3.16179 5.4659
94.0984 0.765213 1.03599
104.45 1.80182 3.4232
38.1636 2.37926 4.62598
51.2418 1.97916 4.10997
84.9226 1.46192 3.39218
90.0643 2.44331 5.85096
69.8401 1.60858 3.65363
37.3137 1.89877 2.16782
77.5076 1.98986 3.95917
94.5252 1.27948 2.08173
75.1489 1.31293 2.43095
58.7325 1.40605 3.06219
38.4999 2.81468 4.21671
106.701 2.24764 2.42118
103.954 2.62676 4.29303
60.5745 5.08364 11.7704
66.8755 2.27802 3.87178
47.418 1.63189 4.17594
111.615 2.40512 4.76953
121.246 2.65528 3.27651
42.4479 1.64639 3.81916
72.8683 2.10905 5.75129
88.4496 2.81806 4.02752
105.727 2.4005 6.55711
131.119 1.8217 2.28934
43.5728 1.63937 4.17271
72.6456 4.80938 9.7513
116.187 1.75542 3.27328
96.9968 3.06638 7.15004
129.372 4.55657 7.68706
63.7409 2.45755 5.46765
90.8818 1.13918 2.19743
169.301 1.13253 1.86037
86.5166 2.86559 4.2728
109.867 1.84745 3.41609
101.833 1.36505 2.79299
94.091 2.40024 7.15808
192.209 3.14555 3.75379
76.0901 4.26566 8.95111
77.3216 2.30481 6.00996
146.875 1.82865 3.11753
101.791 1.28413 4.51308
157.659 4.21678 7.7726
95.7483 4.31526 7.77159
62.3171 2.26451 5.65096
174.901 1.79726 6.01725
123.541 4.42558 5.83193
102.76 1.33066 4.32123
103.737 1.88516 3.71232
62.2642 1.38904 4.70863
167.645 2.14906 4.41616
120.932 1.11096 2.79728
56.6855 1.93588 2.7843
118.06 2.32132 5.7453
82.2927 2.62633 5.2232
122.985 1.8455 3.6155
129.053 2.57367 5.54203
37.1569 1.25431 3.42075
112.572 3.13818 7.11088
98.377 1.90388 2.95748
97.1081 1.45867 3.08388
95.6685 2.37105 5.83971
29.6613 2.58925 5.4274
106.527 2.34145 3.33652
114.969 1.2379 3.32866
60.2964 1.38956 2.9741
67.7633 1.56941 4.21577
41.6254 1.90801 2.6833
82.762 2.06582 5.43131
108.902 1.04019 2.62798
38.6107 1.38942 1.63305
45.5671 3.1958 8.95555
59.7036 3.17393 5.83469
75.991 2.54058 5.37595
86.3838 1.03967 3.56183
27.8183 1.00328 2.7551
42.0616 2.4553 4.52527
61.7486 1.69522 3.89471
62.9355 2.16119 4.68119
64.1668 1.78583 4.24821
23.762 1.73405 2.89525
43.5359 2.0163 6.37226
74.64 0.938892 4.62181
65.0838 1.51256 3.52594
46.8887 1.55205 6.1241
24.4752 5.18029 8.58527
75.3138 1.69879 3.95831
85.0569 2.60363 5.50448
48.5986 2.292 4.0088
41.7945 0.731746 1.47181
33.0489 1.55972 5.42979
95.5218 2.1863 3.41246
94.6088 1.37584 2.16885
34.4266 2.20966 4.3788
63.4408 3.461 6.61776
68.0006 4.12187 11.3763
94.8089 0.708869 1.33534
98.7633 1.19465 2.36958
26.4636 0.784559 2.39294
72.5322 1.15889 3.12837
95.5173 1.56675 1.98096
78.0664 2.07282 4.69494
102.378 1.58237 6.12802
47.4106 1.07575 3.03879
80.7277 1.67483 2.9113
126.426 2.85614 7.57467
66.347 1.64418 4.50943
79.033 1.78081 5.20882
79.3305 1.94125 5.14439
77.4238 1.32116 4.3752
141.122 2.09993 2.01078
65.9816 2.64758 6.08971
63.3579 1.45528 4.3509
114.018 1.70362 4.238
87.4247 2.05001 7.03762
150.185 2.31309 4.05521
77.6578 2.56895 5.22309
56.838 0.824929 1.63402
138.098 1.54537 5.53603
92.2456 1.57942 3.32477
104.67 1.72359 3.37808
89.6479 1.70876 5.64473
52.8538 1.06838 3.01335
143.671 2.4398 6.02649
92.3965 3.62927 7.84105
54.4671 1.29462 4.11768
95.1947 1.47532 5.15291
65.1502 3.20735 7.35749
