# pn-170911/CsIIA-24-AMC2-1280-1959.psd
# Power spectrum* (dif=0,1,2) (really just |FT|^2)
# NOTE: only the first half! (symmetric)
# weeks: 1280-1959
# 70 clock-days, 20 excluded
# PSD: 1441
134625 2.78852 0.0241255
2.4651e+06 31.9386 0.0105103
1.80299e+07 400.672 0.0185321
1.72504e+06 60.7819 0.0114743
1.15385e+06 74.5189 0.0165978
603017 51.8297 0.0182282
384642 53.9575 0.019889
290839 50.8759 0.020189
267837 62.6829 0.0303225
212053 56.5147 0.0320223
135240 44.6103 0.0329456
122758 57.4167 0.0430917
81182.7 46.4061 0.0445114
83948 50.616 0.0538937
80800.8 61.1854 0.0673507
75394.7 62.2147 0.0758575
52740.7 51.296 0.0670896
41500.7 43.5998 0.0697878
40571.3 46.4173 0.083269
50797.2 63.5318 0.112298
34265.2 48.402 0.101326
35669.1 56.2758 0.13891
36875.5 61.9682 0.149264
32379.6 68.2402 0.184042
21879.5 47.9142 0.153226
25119.6 56.818 0.184121
21377.5 48.451 0.169966
22307.1 57.2843 0.214616
17807.6 54.7429 0.221671
21675.7 62.3978 0.252072
16119.9 52.612 0.25033
15305.9 52.3229 0.247672
14468.1 57.2539 0.280707
16946.4 57.4108 0.304511
12010.6 49.5484 0.29423
12864 53.1143 0.337655
10586.8 44.6102 0.285797
9993.21 47.2288 0.310147
9222.18 47.1562 0.325273
10987.3 58.7624 0.442333
7503.64 50.398 0.39439
7836.47 49.5318 0.408369
7240.93 50.1421 0.432466
7742.89 50.3756 0.443031
6716.65 46.2535 0.454862
7596.69 47.8078 0.475545
7031.99 56.8193 0.577158
6934.2 57.8095 0.640951
5314.12 46.1651 0.519885
5795.81 43.9203 0.515823
5608.32 50.705 0.618798
5739.39 50.27 0.64644
5689.3 57.8005 0.739385
5648.4 59.6087 0.798842
5039.84 46.6708 0.664455
4929.07 51.8161 0.765732
4952.11 55.3998 0.854991
3824.44 45.2837 0.712887
3602.3 48.6478 0.787508
5170.42 58.839 0.964919
5262.69 64.7361 1.14803
4590.52 56.7764 1.00137
3525.95 44.7475 0.828465
3502.97 49.3793 0.930209
3778.04 46.3048 0.926082
4017.16 56.8283 1.16921
2941.55 51.402 1.05502
2639.98 44.2332 0.889016
3521.74 55.3816 1.18912
2613.58 41.3452 0.950381
3360.67 59.8102 1.4099
2831.95 53.3628 1.26678
3012.3 53.8584 1.32936
2147.77 43.8025 1.09427
2836.79 55.1635 1.45356
2322.45 47.6506 1.29079
2830.99 60.0259 1.66019
2498.96 42.7477 1.21576
2330.05 56.7663 1.6819
2122.39 42.5578 1.25745
2808.87 58.062 1.80171
2115.03 59.3624 1.86822
2020.67 47.0638 1.53948
2148.98 53.3016 1.79601
1863.21 48.5809 1.63414
2040.22 54.5939 1.90347
2497.1 65.4865 2.21363
2002 50.7113 1.85188
1845.15 50.006 1.8462
2107.57 58.2445 2.11744
1656.37 48.1339 1.83661
1821.5 54.7599 2.20221
1896.41 63.8857 2.593
1621.45 48.3443 2.01328
1292.04 40.8003 1.70465
1783.81 58.1364 2.50232
1635.31 57.1584 2.54773
1321.06 44.9259 2.04506
1608.17 57.8492 2.54276
1402.85 45.2756 2.14752
1759.95 54.1453 2.56164
1235.9 38.8918 1.88573
1143.84 46.2148 2.3344
1339.24 58.3058 2.90137
1295.91 48.4835 2.52233
1289.64 49.6232 2.63474
1325.87 47.9923 2.54059
1436.75 57.9435 3.05228
1373.89 52.8137 2.91782
1446.98 49.6484 2.85244
1140.71 44.6652 2.65335
1198.39 49.1913 2.95952
1047.05 45.2028 2.62222
1163.02 53.3236 3.23753
1384.5 65.6254 3.9932
943.568 46.9026 3.00513
1220.82 59.7676 3.75593
993.241 42.3672 2.72814
1041.01 50.493 3.39601
839.237 44.3427 3.00799
1049.27 49.3206 3.34247
978.105 42.7041 2.93602
877.651 51.4673 3.73513
924.993 46.1061 3.31264
1033.19 50.7037 3.63179
692.104 37.8453 2.91422
871.307 53.1221 3.98515
664.821 36.7997 2.8069
807.127 43.4985 3.36703
1001.56 60.9927 4.68834
822.388 52.0756 4.24463
859.071 43.2814 3.49843
854.794 54.2781 4.37802
627.372 43.9335 3.70934
938.914 54.2141 4.56702
600.17 38.9324 3.36508
804.076 52.2035 4.51332
744.324 43.9738 3.90399
700.031 47.8995 4.417
608.127 41.8457 3.87274
710.898 50.0417 4.6119
655.923 41.9442 3.88814
664.852 47.2155 4.67921
740.598 48.872 4.81812
572.365 50.54 4.90087
713.531 49.5478 4.82256
693.539 53.7544 5.43322
699.897 51.4835 5.32427
729.198 54.6305 5.66704
724.484 48.8746 5.22862
556.579 46.0162 4.80736
563.97 44.4983 4.74376
572.68 47.2857 5.12019
592.595 45.5597 4.99359
434.674 40.9133 4.61083
501.623 46.6217 5.52117
490.894 39.7269 4.523
611.162 49.6684 5.64392
519.857 47.7687 5.59648
430.339 39.9671 4.67
480.909 42.5992 5.22964
467.055 42.9925 5.22597
411.179 40.1235 4.95385
473.676 46.1553 5.77083
430.099 45.0424 5.80957
412.164 36.388 4.61623
498.291 50.4323 6.62407
451.487 45.1935 5.93443
449.051 40.8312 5.40552
513.243 50.0254 6.84651
608.204 60.7791 8.12346
438.808 46.3803 6.53635
385.879 40.6199 5.70388
453.513 42.2962 6.07851
396.82 37.0453 5.21376
465.933 53.439 7.72081
453.073 51.4207 7.46713
453.515 57.0707 8.236
401.669 43.3648 6.49263
415.211 44.0897 6.73093
420.958 47.5643 7.22303
399.744 47.239 7.3283
444.144 50.632 8.1586
468.864 45.5242 6.98919
416.066 47.386 7.53936
329.056 38.5099 6.44649
410.48 45.257 7.01703
387.467 45.4094 7.49593
423.617 52.3129 8.66792
351.577 46.362 7.93469
292.85 35.4904 5.8872
337.148 43.7402 7.46554
287.404 37.84 6.62991
381.267 43.702 7.41365
384.261 51.0496 9.10126
347.373 39.9694 7.3415
390.453 47.6769 8.38457
301.486 41.8293 7.84235
338.67 37.9989 6.98228
315.021 38.5023 7.22286
296.599 43.0035 7.57557
285.318 38.1361 7.32691
313.934 45.5172 8.8923
268.942 37.8106 7.15491
324.323 40.712 7.87496
337.613 50.4072 10.0239
321.241 46.2477 8.97164
277.316 35.0989 7.10385
277.672 37.7407 7.70372
243.173 34.0804 6.71923
252.561 30.4104 6.48372
250.247 33.424 7.2009
321.204 41.9986 8.59395
260.881 43.6599 9.5046
289.325 42.603 8.86476
214.931 31.9949 7.12334
275 36.2356 7.76783
257.069 36.5657 8.20804
328.991 50.7723 11.3816
284.47 42.9852 9.5134
253.535 42.2854 9.32817
226.838 35.0618 8.14368
261.442 41.6802 9.62908
252.864 36.5567 8.25838
247.525 44.3396 10.5513
224.44 33.2467 7.91198
262.184 42.4604 10.4016
235.849 43.7375 10.1317
221.283 37.0236 9.02607
256.725 42.9266 10.4303
225.301 35.5413 9.01358
253.414 44.1063 11.0772
189.758 39.4076 9.84801
221.329 39.6644 9.79584
239.592 42.5776 10.8353
237.85 42.1421 10.8382
218.061 40.1344 10.4822
190.036 34.3506 8.88883
189.585 36.8787 10.0843
210.557 37.0578 9.73691
239.539 44.0514 11.8585
246.241 45.381 12.0562
187.006 36.8591 10.2019
227.937 41.6757 11.2577
197.814 37.9219 10.4781
209.378 33.6536 9.01016
180.498 37.7933 10.7318
195.123 38.5596 10.7329
217.706 40.4164 11.744
201.182 42.4327 12.146
183.099 31.824 8.66494
208.034 43.6611 13.296
170.533 35.9285 10.9271
198.408 43.6425 12.6339
184.956 33.6562 9.80272
248.401 49.2969 15.0017
211.815 41.856 13.0272
192.816 40.6967 12.0068
166.577 35.2938 10.6644
147.968 36.0868 11.4333
155.819 29.3518 9.47258
167.805 37.6244 11.5196
178.923 38.6151 12.2452
182.339 40.002 12.9159
166.054 36.5269 12.1956
173.828 37.9046 12.4321
149.009 34.547 10.6216
132.082 28.9567 10.0331
146.706 24.8647 8.23864
175.78 37.5285 12.6915
192.658 40.5807 13.5389
164.02 33.0911 11.3523
157.281 36.5569 12.4866
139.556 30.6467 10.9971
143.181 34.4611 11.7253
155.881 35.0976 12.1544
119.32 33.4346 12.15
146.165 37.6553 13.1032
144.265 32.776 12.0511
171.517 44.1328 16.4014
171.873 40.2668 14.1994
185.286 46.7122 17.1687
122.287 37.3874 13.9568
134.541 37.3477 13.6664
121.87 29.5277 10.8688
157.618 41.274 14.9972
154.027 39.2279 14.7988
141.581 36.4428 14.2204
139.412 32.5125 12.5457
132.348 34.3227 13.1188
131.07 34.1483 13.6005
103.515 30.7063 12.8691
134.722 41.0271 15.9085
141.431 34.6004 12.7218
119.602 34.0653 13.2032
132.291 39.2501 16.1021
128.714 31.7099 12.2613
114.137 31.5356 12.9304
120.831 29.9268 12.6699
119.949 36.9935 15.0051
126.319 30.9084 12.7819
127.959 33.8955 14.3025
115.475 38.2611 16.1644
120.021 29.0542 11.9359
123.345 31.274 13.0694
119.285 38.4997 16.9126
139.139 40.4125 16.2937
114.276 32.8596 13.706
96.3117 27.4563 12.6379
129.094 36.0353 16.3749
134.307 38.3627 16.878
116.38 31.5894 14.1492
99.6606 30.7754 13.6406
112.335 30.6908 13.1382
110.312 30.4613 14.2058
112.1 33.0163 14.69
110.338 28.5052 12.6485
97.2465 25.669 11.7502
97.5858 27.4994 13.0833
116.159 31.8241 14.7183
93.6298 24.1753 11.6533
118.114 34.7672 16.65
110.924 30.8908 14.2355
100.608 27.3541 13.0015
81.2754 25.5691 12.8227
93.5566 33.9281 16.9549
101.765 31.7893 15.714
93.1242 28.4977 13.5095
109.193 29.7987 13.913
100.472 30.2191 15.442
100.129 30.2495 14.6464
92.6236 31.3725 15.9889
107.736 37.5752 18.1422
106.523 39.0521 19.7074
97.7878 29.8129 15.0857
95.3038 27.4785 15.192
84.2586 29.0234 14.7468
83.0667 29.8752 15.2159
99.6309 26.821 13.8908
105.727 35.0123 17.6984
82.5494 27.4665 14.9213
84.5982 32.4079 16.7613
83.6973 29.8041 16.4681
98.1672 32.1373 16.3561
107.294 31.2333 16.8601
95.0251 36.1124 19.0298
75.0498 23.0462 12.6345
75.7594 27.9888 15.295
94.2747 39.88 21.6613
73.1004 28.746 16.6563
74.1484 29.5052 16.0446
75.8189 25.2031 13.7987
103.385 38.7742 22.1378
71.9078 24.9995 14.4155
75.9794 29.2438 16.0305
74.8169 28.5667 16.5677
93.4226 36.807 20.8706
87.9034 31.1019 18.3563
78.5551 35.3851 20.6737
84.5125 30.6236 17.8832
72.2187 24.5168 14.6111
70.9204 30.0382 18.9027
77.375 26.7449 15.86
79.4945 27.9335 15.574
79.0074 29.2844 17.6507
74.7056 26.2877 15.5987
79.9034 27.3338 16.1093
69.2274 31.3756 18.6363
64.6709 23.9639 15.3918
73.6448 27.4513 16.5008
74.7984 29.6521 19.1827
76.6144 29.5215 17.676
85.5825 33.6291 21.7972
63.3439 25.1881 15.4612
77.0935 25.9342 14.8566
62.614 23.1157 14.6415
82.1532 28.5729 17.8635
79.0453 28.4205 17.6271
72.98 28.7872 18.8332
66.601 28.2853 19.4424
63.0965 23.2836 14.1802
56.1151 20.9011 14.1389
73.4601 27.167 18.0763
71.464 32.3783 21.3946
59.736 26.5997 18.1182
67.9642 23.5651 14.8831
73.85 26.7888 17.8704
60.8365 24.9683 16.0085
51.4353 22.8989 15.8751
59.0976 23.9981 17.6253
59.9857 23.682 15.8221
57.4437 25.1049 17.7035
74.2984 28.6037 18.1227
64.4892 25.4553 17.2673
61.5533 22.9688 16.2409
61.969 27.107 20.1516
60.7241 26.3665 18.0936
57.1528 24.0927 16.481
61.2263 27.7527 20.088
62.8534 27.4145 17.9951
55.9454 26.5631 20.025
59.3067 26.0767 18.8119
65.7763 29.4149 20.8147
66.3788 28.9572 20.5056
60.6139 27.0547 21.3776
70.3118 28.8311 19.8293
57.2038 30.2929 22.4481
53.4846 28.0839 21.7543
67.245 32.3383 23.9692
67.7642 28.0843 20.9515
62.7271 29.2848 22.2752
59.702 28.0371 20.1465
56.4095 21.1061 15.9106
53.7281 23.558 18.3992
63.7721 26.8788 19.2173
53.1439 28.2477 24.1858
63.4227 29.0519 19.7169
52.5647 22.1613 16.414
64.2149 31.9555 24.2066
56.6116 30.2052 23.7013
53.8457 28.1497 22.8024
54.9187 22.5789 17.8446
56.6141 29.518 22.9506
51.4317 21.635 17.5558
61.0449 25.9417 19.5888
60.6001 25.9778 19.7938
50.806 28.5803 24.3788
47.681 23.1114 18.6959
57.4084 26.3629 21.4673
55.1 25.5459 19.969
49.2614 21.3665 17.7732
55.5839 27.2706 23.3794
42.2776 23.4917 18.5712
60.2003 27.8943 23.7693
47.2173 21.4492 17.7308
37.4185 18.3563 15.889
44.1874 22.5288 17.8623
51.69 26.5212 21.8451
44.0026 26.463 23.2375
52.4672 25.0867 21.7394
52.326 23.5605 20.4114
57.251 29.9492 25.6294
57.3968 25.2507 21.8152
46.0212 20.9196 17.8553
47.6133 24.4788 19.5068
46.0172 22.4388 19.2162
48.5518 28.3484 25.8217
52.5809 24.6926 20.5935
42.4619 25.2065 24.5231
46.269 23.6184 21.9842
47.7404 20.5707 18.3455
44.7378 20.0613 17.1526
37.153 22.7362 21.5304
42.608 22.4517 20.6857
46.0217 22.7799 20.47
46.2457 22.3987 20.3968
51.182 23.7911 20.6559
50.8341 26.8885 23.2824
40.2353 22.5731 21.1162
43.8919 22.7375 21.1605
45.8906 24.3031 22.631
43.1302 30.0995 25.6099
47.4498 21.1569 19.6194
43.7075 23.7883 22.7263
41.7027 19.3778 18.2915
38.1521 20.538 19.4495
46.7661 21.9472 21.0526
39.9443 21.1378 20.5469
46.2795 23.4916 22.9758
38.0235 22.9077 21.4114
39.8115 20.8359 20.0989
46.8544 22.4077 21.5453
33.6091 20.1031 20.4926
50.8065 31.2173 29.9275
45.4922 24.6119 24.7042
36.0665 21.0781 20.239
38.4773 16.274 16.273
35.5669 19.114 18.3211
35.8922 21.2924 21.691
39.6292 18.7481 18.2031
33.2658 20.1826 21.1169
39.2044 22.3221 22.997
40.5988 19.1826 20.0302
35.3784 21.3944 20.6081
36.236 18.8482 18.4116
36.0246 18.7301 21.3646
40.0667 21.3331 19.742
41.0068 23.1789 24.2087
36.8855 19.4566 20.0194
37.0874 17.4491 19.456
37.9627 26.5154 27.1914
36.5267 18.2493 18.4868
32.1466 19.2853 18.531
38.4328 23.545 23.8595
32.5571 16.9848 19.5216
36.5235 20.4751 21.5272
33.3001 18.8868 19.2721
34.9228 22.4767 24.1762
29.0126 15.3077 17.2081
38.8243 20.1557 21.1434
31.9357 21.629 23.1895
37.6751 25.2477 26.5882
37.7504 20.2592 21.2165
38.6148 22.7956 26.2916
35.5289 20.8158 22.9858
35.4669 17.0825 18.1887
36.9922 20.9294 20.8946
35.8165 22.2765 27.0574
29.6882 17.7141 19.48
35.1227 17.4641 18.848
33.842 18.0201 20.5256
27.1644 15.9641 17.7836
34.4686 21.2902 21.7474
30.6365 20.7111 24.2257
28.693 18.4352 22.566
38.1985 20.2429 22.4108
30.1557 17.1731 20.8882
30.6718 22.1983 25.1801
30.0172 17.8094 19.5533
26.5464 17.8867 21.1182
31.8393 19.9981 22.5399
32.2392 20.6117 25.6705
29.3902 18.5255 21.2845
36.3617 19.0623 21.0605
33.4559 18.5489 22.0729
28.2083 15.1592 18.5183
28.9473 20.1656 22.6037
29.3283 17.8091 21.3003
27.3636 16.897 19.4672
30.8605 20.4814 23.5535
33.0205 18.0829 20.7254
27.8261 16.399 19.3515
28.0861 17.1001 23.0277
31.7224 23.0079 27.0209
25.9836 19.2468 23.1841
29.4654 20.6425 24.7719
28.6802 16.1894 19.2784
28.0428 18.5291 24.1137
29.4422 19.9822 24.3579
30.2932 16.4488 20.7237
26.8068 18.0028 22.2931
27.6238 17.6887 21.3612
27.8892 20.3812 22.0526
26.7662 16.4357 21.4725
31.2931 21.737 28.362
31.0615 17.5808 23.224
31.3082 20.0134 23.1179
26.8288 16.5784 23.0653
30.6954 21.4716 26.2816
26.6602 20.2168 25.6265
26.882 14.826 19.5715
28.3804 20.3924 26.2553
26.3682 16.7904 19.7857
26.2135 17.3622 22.7616
28.2977 19.0216 24.0395
25.3992 15.316 17.9911
28.25 14.2139 21.5782
27.6258 17.3082 24.2631
22.1174 14.7276 18.8744
25.9786 17.1508 19.6445
25.0003 18.1537 24.4101
22.0886 13.4825 18.3337
29.1534 19.4565 24.9297
30.6121 18.1637 22.6774
20.6494 15.404 20.556
23.2352 15.4258 24.2743
24.1037 18.5415 22.5375
25.726 16.8829 21.8156
21.4305 14.1654 19.4923
25.4123 14.2417 21.0801
30.4114 17.5242 21.9453
21.1168 15.9566 23.9723
26.7653 14.5198 17.9488
22.3654 13.5171 18.4919
21.5095 16.7317 23.7963
27.3613 15.2063 22.7343
28.7254 17.6387 23.395
28.2179 18.4148 24.7593
26.4096 19.8705 27.5961
27.3427 17.5869 22.8936
27.4382 14.0192 18.6136
25.0018 16.718 23.5391
21.1377 13.8967 21.1273
24.9003 16.3443 24.5288
25.2382 16.0969 22.9147
23.9962 15.1489 22.245
19.659 15.4805 23.05
28.6748 19.3772 24.7017
25.8849 17.3168 25.6793
22.9185 15.3631 21.9585
23.4452 15.7503 21.747
22.021 15.5366 20.2448
24.7598 15.9911 24.8068
20.3904 13.0661 19.7324
29.6489 20.2608 30.1562
23.5241 19.8349 29.7781
25.9309 18.2949 27.5973
23.2816 15.5625 21.8308
19.7152 16.3338 26.905
20.6398 17.9227 22.9347
23.9029 17.3273 25.3493
23.1584 13.9399 20.2731
20.5978 14.6742 22.2
19.4713 13.4421 19.7551
18.7325 17.8939 27.3263
22.6824 16.7286 24.5566
22.1282 12.6286 16.5295
18.4642 12.917 21.2684
21.6117 16.3592 25.7159
23.2952 15.612 22.4288
21.6593 15.1942 23.7573
21.7681 14.7125 23.2195
19.8926 15.117 26.0126
23.7085 13.158 19.584
21.8677 13.2126 19.8952
18.6724 14.3365 24.2063
23.5282 17.1243 24.0904
19.563 15.816 23.2127
18.4241 16.1829 27.1248
18.1212 14.9354 23.0918
21.2423 13.77 22.4663
23.1014 16.9928 28.3122
19.1173 14.136 20.6735
22.0764 16.4376 26.5105
20.4261 16.3739 25.6361
17.5459 12.243 22.5254
20.878 14.9202 21.3439
19.8455 16.7984 27.0395
19.6715 12.8605 19.022
22.0543 15.664 28.2308
21.5654 14.8155 21.0367
20.3523 14.6565 24.3964
17.9327 13.7865 22.2755
19.694 16.3263 28.2967
19.3081 11.6973 19.1389
20.3765 17.105 27.0782
18.0063 12.575 20.8116
20.5459 15.9717 27.4127
18.5465 13.6839 22.0203
19.6212 13.8061 22.668
19.1825 14.012 21.4739
14.1761 10.2696 19.5557
17.9618 14.8381 23.6328
16.7138 15.2359 26.8177
22.7843 13.2898 20.5171
22.7478 15.9704 25.0032
18.0152 12.3485 22.2122
17.8733 15.5009 26.651
16.1874 14.4201 20.958
17.4832 16.4786 28.7888
19.332 16.7568 31.1079
18.0072 15.281 23.1534
15.6093 12.4128 19.5415
14.2475 13.9473 25.1107
19.5337 14.5811 25.7135
18.3894 11.5776 20.5608
16.6092 12.7975 22.6587
19.6578 15.8054 26.1798
16.5134 12.0707 21.3053
17.5654 11.0344 22.5893
17.3694 11.4308 17.5438
16.7037 12.7167 19.7764
15.8307 13.7558 24.2252
18.5429 14.3263 23.8738
16.6073 12.0066 23.3688
17.0773 13.849 24.4934
14.2102 11.5813 21.6068
19.187 13.369 24.3124
16.0805 13.852 26.5298
21.4296 14.2655 24.5252
19.8008 11.3399 19.7107
17.5744 15.298 27.0361
15.2633 12.3704 23.6011
19.1796 14.7401 22.8709
16.48 11.5029 20.6267
15.805 14.2243 26.5348
19.6884 13.2699 21.2489
20.0615 12.0457 23.6213
15.639 11.1717 21.5567
16.4676 12.3717 23.2851
16.3242 12.3074 22.5631
17.7837 13.442 24.7817
16.2876 12.6562 23.0527
16.7418 11.2244 20.041
15.4762 13.2527 22.7246
14.8821 14.0089 25.2174
17.2021 12.6554 22.8389
18.2971 12.8699 23.3748
17.5219 14.7795 28.258
15.5815 11.7985 21.1223
14.0801 13.437 25.8759
16.2038 11.3336 21.2057
15.4314 11.9188 23.1664
18.508 13.6769 26.0575
18.2623 11.6123 19.8998
17.8694 12.5178 24.1412
14.9173 12.352 24.2107
18.2512 12.221 22.3233
18.7796 14.4128 26.427
13.6264 11.6479 23.8471
14.7984 11.2794 23.6309
16.1279 12.4265 23.3229
16.3642 12.4283 24.5115
14.3483 11.3234 21.3913
14.4403 11.8927 23.4654
13.6186 11.5011 21.4403
14.101 12.0961 26.6339
17.8659 12.953 21.7085
15.359 12.057 23.8219
13.2747 11.3926 23.7498
15.2653 11.8155 22.43
15.4876 10.9615 25.7824
18.603 13.3642 22.706
13.2654 13.1917 25.4385
17.5373 11.6738 21.3256
14.1686 9.4797 21.1458
15.7671 12.9124 23.3858
15.4909 12.0007 25.1832
14.9035 10.508 21.6696
12.6245 9.80614 20.8295
15.5823 10.8028 20.2357
15.2424 11.5859 21.5343
15.6688 12.2132 26.2617
13.6369 9.71625 20.8992
12.6661 10.6016 22.7383
15.7782 10.73 19.9759
11.8482 11.6434 23.2225
15.1867 9.78933 18.9764
15.6124 11.8514 23.4939
12.0264 8.59121 20.4128
15.079 13.2545 26.397
14.6978 12.0721 26.2213
16.7659 13.7926 22.4579
11.3425 7.52664 15.7609
14.3763 11.7503 25.2881
16.527 11.4031 22.4153
12.6996 11.0818 21.6409
11.4536 9.61501 21.7841
15.7124 11.4484 23.2191
13.8048 11.1175 22.3301
14.6739 10.4948 20.8377
13.7652 11.4657 25.7836
15.4799 10.9207 24.3533
14.1619 11.9169 21.2992
12.8577 9.65144 20.4907
11.4378 9.46397 19.826
13.3674 11.7478 23.5018
12.9508 9.99787 22.2382
12.7536 10.2371 21.8919
12.3108 9.58141 19.8703
12.371 8.79268 18.0399
13.0657 11.296 25.1869
12.6348 9.78172 22.1649
11.143 10.6819 20.9753
14.8236 12.7001 25.8546
13.9385 8.52748 19.4945
12.3032 9.67676 21.1241
13.8657 9.98125 22.3053
13.6053 9.56048 21.1944
12.7829 9.41833 22.3207
13.5132 10.5139 21.0319
14.7388 9.48066 19.6817
13.1139 10.7995 24.9355
14.3387 9.60048 20.9476
12.5032 9.05268 17.846
11.93 10.8269 22.2736
10.5527 9.93024 24.7865
13.5609 12.7837 26.3243
12.6358 10.049 22.1701
13.7234 11.0866 22.2677
11.3217 8.63041 21.2934
13.8927 9.64183 20.7833
11.9933 10.54 22.3022
11.3427 11.4711 26.8367
13.5899 10.5162 24.8569
13.5286 11.483 25.2289
12.3391 10.1627 22.4744
14.5657 10.1236 21.991
11.9185 8.68732 22.2767
11.6131 8.75238 22.1839
12.2038 11.1205 23.2173
11.8892 9.18085 20.2877
11.2393 10.9855 23.3391
11.8463 9.51653 22.3775
11.7232 8.86118 21.8127
10.6651 9.28529 20.5701
12.3287 10.9492 24.3432
11.9467 7.69036 17.2893
13.1446 9.24875 21.3883
10.6289 10.4769 22.8203
11.8167 7.59253 17.9479
12.2049 9.80711 24.0787
10.9136 7.16562 17.5858
12.0462 10.5837 22.6556
13.1807 11.9195 26.9669
12.7009 10.054 24.3026
12.9135 9.77699 22.0877
10.3316 6.90355 17.3016
11.3461 8.95259 24.808
12.0982 9.19189 20.9896
11.272 10.1035 21.1896
11.207 10.7726 24.4166
11.9591 10.664 22.7659
10.0775 8.39939 21.6462
10.8862 7.7045 20.2934
11.9896 10.4305 23.0912
10.9062 11.8203 27.3005
13.5864 10.6597 30.3831
14.7393 11.2438 21.0943
10.8897 7.44506 18.2014
9.89953 8.69851 21.2578
12.8165 11.5197 25.8482
12.4797 10.1157 22.0354
10.6531 8.4729 22.4234
13.4648 9.28188 21.4988
11.0858 7.45277 19.1213
10.6886 9.15136 22.1552
11.1824 9.17523 22.0463
10.207 6.92044 18.1464
9.7879 9.19034 19.6349
10.9849 9.3143 24.7838
11.197 8.74011 18.0148
12.1752 9.56119 24.4333
10.0378 8.29771 22.3475
11.7877 9.17122 19.757
10.3122 8.93472 19.9839
9.98257 8.76486 20.8797
8.24625 7.43849 20.3929
9.95969 9.04236 23.3967
13.2565 13.0838 30.6731
12.3754 9.02448 25.028
11.9258 10.0185 22.8399
10.199 8.72877 20.9546
9.30996 7.27816 20.3473
