# pn-170911/CsIIA-33-CsIIA-1280-1959.psd
# Power spectrum* (dif=0,1,2) (really just |FT|^2)
# NOTE: only the first half! (symmetric)
# weeks: 1280-1959
# 2725 clock-days, 649 excluded
# PSD: 1441
69531.1 2.52031 0.0679856
3.66133e+06 54.7627 0.036563
2.00244e+07 426.532 0.0443526
2.95071e+06 109.13 0.0386924
2.15944e+06 146.315 0.0462573
1.06101e+06 106.067 0.0477955
776764 107.781 0.0544332
543820 103.927 0.0590607
421255 103.991 0.0675617
336472 104.485 0.0762027
274451 105.799 0.0863392
217358 101.73 0.0939055
190645 105.981 0.106868
160268 103.013 0.117635
139477 105.355 0.134838
122040 105.144 0.151112
104732 103.591 0.161375
91555.6 103.003 0.177786
82551.2 101.233 0.193863
74372.8 104.211 0.212798
65915.3 103.885 0.232606
60901 103.306 0.254496
57008.7 105.666 0.279799
50015.1 100.339 0.287502
45860.3 102.024 0.314683
42214.4 100.723 0.334676
38467.2 100.62 0.358849
37843.3 105.006 0.401125
34050.8 101.02 0.410827
31688.7 103.568 0.446306
29628.4 103.2 0.478509
28261.1 105.001 0.512252
26376.8 102.633 0.536373
24597.3 103.964 0.571225
22931.9 100.779 0.580423
22747.6 106.332 0.651474
20701.4 102.729 0.668044
19821.3 105.616 0.732508
18357.8 102.242 0.741596
18310.4 105.767 0.794098
16690.1 103.787 0.823273
15868.9 103.817 0.871052
15377.8 104.15 0.911729
14905.3 105.014 0.955774
14375.3 104.453 0.988081
13589.4 105.223 1.04397
12541.8 101.495 1.05976
12473.3 102.991 1.11775
11622.3 102.898 1.1664
11429.5 105.273 1.24434
10488.4 100.062 1.2167
10471 103.723 1.32751
10022.4 103.212 1.35633
9303.14 102.781 1.40761
9035.91 103.123 1.47655
8750.38 100.094 1.47158
8488.04 100.439 1.52855
8173.46 101.449 1.59225
7812.59 100.168 1.64622
7531.08 101.547 1.71735
7363.1 101.988 1.77425
7037.35 101.451 1.84029
7232.74 104.081 1.9256
6566.71 100.634 1.93157
6658.09 101.834 2.01724
6340.08 102.551 2.09507
5957.52 98.4784 2.07427
6065.47 103.529 2.24075
5786.99 101.222 2.27015
5641.04 102.146 2.34008
5298.19 97.9736 2.31304
5247.18 101.836 2.46916
4995.17 98.5269 2.46589
4945.05 100.82 2.59473
4663.99 97.2878 2.56047
4859.21 102.982 2.80503
4613.87 102.349 2.84009
4476.18 102.677 2.91781
4409.31 101.978 2.9738
4192.88 98.7627 2.94369
4068.54 99.4386 3.05197
3975.9 98.8327 3.1329
3924.28 101.829 3.26927
3899.06 102.325 3.3767
3841.19 101.596 3.44164
3705.51 103.648 3.597
3598.8 101.055 3.57014
3520.71 99.9281 3.60601
3394.82 100.412 3.71935
3354.54 100.839 3.82346
3295 101.961 3.95741
3289.83 102.147 4.05309
3146.26 100.054 4.03293
2987.56 97.3843 4.03797
3067.26 101.852 4.28492
2916.71 99.7344 4.3038
2890.62 100.633 4.43228
2822.17 101.631 4.5722
2744.77 99.2161 4.54968
2616.64 97.8226 4.57953
2520.13 96.0466 4.60065
2539.96 97.6437 4.75611
2465.74 95.877 4.74826
2454.66 98.7969 4.99885
2453.93 97.7859 5.05184
2271.7 94.2931 4.95238
2255.21 98.257 5.27073
2277.1 100.688 5.46636
2219.95 98.0422 5.44274
2203.55 97.7448 5.53507
2139.11 97.8359 5.62421
2109.28 98.7474 5.79068
2019.29 97.0645 5.794
2067.82 99.4357 6.05932
1986.1 98.3436 6.06211
1971.02 99.1019 6.22422
1923.5 97.261 6.26407
1893.91 98.2459 6.41349
1896.6 98.5502 6.50813
1789.08 95.8684 6.46081
1758.17 95.0039 6.49861
1772.37 95.3708 6.65201
1691.35 97.353 6.9118
1754.52 99.1156 7.08626
1638.75 96.5642 7.05353
1604.33 95.0086 7.05878
1666.49 99.8626 7.55376
1604.81 98.1536 7.53287
1546.93 94.4484 7.32533
1515.73 95.9987 7.56192
1529.62 95.0835 7.64868
1525.36 99.5941 8.1573
1482.32 95.0415 7.84286
1403.75 95.5335 8.03736
1395.48 95.4748 8.14129
1412.31 96.9808 8.39196
1364.83 94.5183 8.28186
1343.63 94.9905 8.47111
1322.57 94.0815 8.48173
1302.02 93.2734 8.52105
1299.48 95.7784 8.85581
1317.84 100.091 9.43981
1296.25 97.8049 9.38123
1251.41 95.0797 9.23077
1238.3 97.1398 9.52603
1207.74 96.836 9.64294
1199.86 95.9757 9.67657
1169.17 96.8706 9.94104
1170.31 95.0191 9.82816
1172.51 96.2582 10.0994
1090.71 91.2749 9.70507
1088.9 92.7449 10.0541
1093.37 93.703 10.2229
1088.16 94.9569 10.5298
1068.97 93.3328 10.4137
1043.68 93.934 10.7125
1051.77 95.2765 10.9926
1009.74 92.3554 10.7845
1000.87 91.8006 10.8463
1018.47 94.882 11.3111
1010.9 95.4198 11.5332
989.817 95.9403 11.6569
970.825 96.8667 11.9607
937.271 92.3174 11.6854
969.25 95.6507 12.162
924.575 92.4108 11.9241
905.238 91.6144 11.9515
892.87 94.6049 12.4669
899.1 95.563 12.6677
898.392 96.0719 12.9999
862.923 93.9873 12.7162
813.322 89.1202 12.2859
843.175 93.5649 13.0314
825.115 93.2173 13.1479
825.456 92.8896 13.2397
789.148 90.1449 13.078
795.065 93.0716 13.6046
782.945 90.7817 13.4363
763.473 90.9297 13.6318
787.837 95.6226 14.3058
728.36 86.6701 13.27
755.453 92.4274 14.2146
727.665 89.9625 13.9882
736.427 90.7929 14.3253
713.254 89.2928 14.1796
700.734 89.5397 14.4653
704.74 91.0983 14.8224
714.235 93.4899 15.4574
699.679 90.3886 14.942
705.873 89.5939 15.0633
690.184 91.3363 15.4831
661.534 87.6061 15.1407
689.219 92.094 15.9327
660.004 88.3703 15.5083
663.931 93.0477 16.3757
642.298 89.8111 15.9859
616.223 86.5961 15.4929
612.782 90.0741 16.4159
622.848 88.8721 16.4747
609.222 88.4973 16.5259
630.203 90.8357 16.9137
606.491 89.888 16.9945
582.885 88.0088 16.8158
591.429 87.5273 16.9837
578.879 88.7864 17.4264
564.903 88.7176 17.3011
551.831 87.06 17.3503
563.183 88.6955 17.8586
555.605 88.3366 17.9755
556.671 89.4835 18.2645
560.554 90.9917 18.7574
545.873 87.5844 18.2997
528.985 87.5457 18.4257
541.152 88.9687 18.983
533.192 89.863 19.2308
514.302 88.7194 19.156
522.626 88.1164 19.3047
512.972 88.2638 19.4254
497.336 86.1972 19.2916
501.963 87.4649 19.7715
510.447 88.7262 19.8403
497.471 88.9914 20.2483
490.326 88.3709 20.2536
473.442 84.7902 19.8117
484.531 87.6837 20.6432
474.202 85.7862 20.242
453.205 84.2475 20.1752
460.421 87.829 21.0569
442.454 82.8519 20.3303
452.556 86.5199 21.1638
456.608 85.3733 21.1446
457.355 87.3704 21.8037
432.599 84.0644 21.0258
432.281 86.9014 21.9109
418.956 83.8543 21.5459
431.204 85.3243 22.0043
445.478 90.1974 23.4591
442.051 89.0532 23.2091
424.278 84.2472 22.2978
424.875 87.1167 23.1814
412.699 84.8988 22.8235
405.456 84.7836 22.5528
409.853 86.5785 23.7729
414.523 88.9193 24.6428
406.075 88.084 24.3525
396.316 85.4141 23.6764
380.401 84.4477 23.812
385.003 84.0265 23.8183
395.542 86.3661 24.7134
380.108 84.4698 24.2449
370.473 82.2775 24.0432
369.659 83.2394 24.3449
369.181 82.1339 24.068
357.912 83.4444 24.9409
362.47 85.8259 25.7146
357.561 83.9056 25.4892
350.186 82.7146 25.2326
350.961 83.5409 25.6425
345.006 80.8771 24.804
340.573 82.788 25.8717
334.005 81.0301 25.4269
327.97 78.8867 25.0195
336.229 82.2138 26.2127
342.409 84.7086 27.1203
349.4 84.8199 27.3197
329.118 81.838 26.7056
316.783 82.1681 26.8481
324.366 83.4531 27.5143
325.899 82.3194 27.1947
303.47 80.8267 26.9573
319.018 82.783 28.0476
312.677 81.2319 27.8055
311.559 83.1156 28.3206
312.89 81.7432 28.2976
300.92 80.9796 28.0597
305.436 81.4891 28.8243
301.081 80.1259 28.19
306.242 81.5928 28.8067
299.643 81.1363 28.8366
296.652 82.6379 30.0865
300.782 84.0957 30.2216
292.698 81.0698 29.5993
286.342 80.0499 29.3892
267.976 77.2544 28.7354
285.803 82.5018 30.2129
272.979 81.0081 30.5385
279.754 81.3058 30.4329
277.461 81.2015 30.8454
278.043 81.8047 31.304
269.246 79.1173 30.2172
270.923 80.2579 31.3973
265.464 80.8769 31.3785
259.491 78.0734 30.6097
265.563 80.6363 32.1894
263.964 78.5472 31.2703
260.043 79.5694 31.8639
261.84 80.5188 32.2279
259.869 80.4148 32.6511
249.932 76.8286 31.2084
252.177 77.9279 32.3875
260.721 80.0949 32.8833
255.896 80.4573 33.4657
242.074 76.4388 32.0392
242.493 79.7261 33.5945
241.812 77.6581 32.8724
227.15 75.45 32.2076
240.928 77.1939 33.3071
231.59 76.0715 32.8589
233.5 77.8429 33.8516
229.166 75.8689 33.159
233.961 75.9049 33.4477
227.843 76.7742 34.1028
225.738 75.8398 34.0374
226.392 75.8932 34.0533
224.313 75.7726 33.8559
223.013 75.7759 34.5759
221.625 77.5111 35.3297
218.126 75.6266 34.7295
222.147 77.3406 35.779
209.048 72.4477 33.6831
211.314 73.0922 34.3397
207.415 74.5217 35.4583
216.583 77.6385 36.5242
212.284 76.1307 36.295
218.584 79.8139 37.9538
208.636 75.8809 36.7215
209.232 75.0117 36.0203
199.14 73.7451 36.243
208.941 77.0741 38.0491
204.859 75.0954 36.9907
199.954 75.8152 37.6813
197.264 75.7758 37.9679
194.443 75.0455 37.5716
196.327 74.9652 37.4927
196.444 74.1784 37.5667
193.675 74.7905 38.5478
188.093 72.6945 37.4903
192.428 74.2044 38.1195
187.917 74.4915 39.0069
187.794 72.5248 37.8622
187.033 72.5202 38.0713
187.322 74.2818 39.829
186.083 75.252 39.8108
189.475 75.8917 40.5221
190.088 75.4661 40.4493
175.531 71.8858 38.6243
176.108 71.0811 38.8589
184.28 74.295 40.5119
179.285 71.188 39.2031
176.627 73.0953 40.6587
179.843 72.7683 39.9507
172.163 70.8415 39.7369
176.117 72.7857 41.1863
176.855 75.0437 42.1058
168.317 70.8348 40.3841
172.842 74.2098 42.4591
171.159 71.6602 41.0949
166.169 72.9949 41.7636
161.114 69.8675 40.8496
164.471 70.1763 40.601
169.314 73.3017 42.8431
161.383 71.4614 42.2595
161.528 71.5085 42.0032
161.086 72.5436 43.2377
163.046 69.8043 42.1339
162.443 71.3319 42.8357
158.234 71.1191 43.3643
154.852 69.4604 41.8236
153.68 70.675 43.4746
158.938 72.6612 44.2024
153.346 68.9472 42.354
152.55 70.4283 43.5887
156.237 73.6388 46.108
152.053 69.851 43.92
155.241 70.6701 45.1019
149.761 68.9295 43.5816
151.107 71.6265 45.1648
150.292 70.1282 44.3245
143.875 67.9391 44.0339
142.774 67.4933 43.866
146.961 69.2429 44.8034
140.825 66.6689 43.7539
140.817 66.9397 43.6515
140.988 68.4745 45.0968
135.46 65.9039 43.7888
140.208 68.4056 45.3528
140.841 69.9684 46.7222
136.985 67.0113 44.8593
137.172 65.6954 44.1717
132.914 68.6615 47.2424
139.734 68.2779 46.5035
136.004 67.1712 46.1812
137.763 69.7654 47.961
134.428 68.4515 47.6552
136.479 66.4346 45.6955
132.262 68.6742 47.8938
131.963 68.1749 47.8966
135.301 69.3725 48.567
129.513 66.4697 47.6405
130.271 68.1433 47.8443
129.672 67.6435 48.1616
128.31 67.3534 48.549
125.863 67.4414 49.1472
124.566 62.7741 45.3092
128.01 69.3537 51.1811
123.427 65.0445 47.2895
123.603 65.3741 47.3322
123.573 67.5442 50.5082
124.665 66.6199 49.1375
123.488 64.5039 48.0612
123.927 67.0744 49.7651
119.612 65.2754 48.9051
119.72 64.8461 49.1066
121.202 66.1336 50.5754
121.044 66.2931 50.1686
116.682 64.7195 49.441
114.21 64.2519 49.5506
114.325 63.9434 49.6144
114.713 63.6427 49.6245
117.487 65.3364 51.4976
117.597 64.3524 49.614
117.262 66.8166 52.9361
112.334 63.2012 49.849
109.563 62.9524 49.5925
110.533 64.3147 50.6722
113.322 65.5864 52.3911
111.632 64.6799 51.8365
111.828 64.6927 52.3467
108.789 64.0447 51.9684
110.696 65.1703 53.2912
107.112 62.793 51.243
108.555 64.1259 52.8791
106.756 64.6231 53.4541
107.532 65.079 53.8758
105.659 62.6465 51.8877
107.496 65.1978 54.7729
108.938 64.2399 53.394
104.687 63.653 53.3299
101.97 63.7812 54.1705
103.226 64.2522 54.9054
101.92 61.7119 52.454
100.879 62.8685 54.1729
102.374 62.7183 53.4312
98.5199 62.2972 54.4145
99.694 60.8551 52.3709
96.5673 61.9393 54.0346
99.2493 62.2418 53.6516
100.278 61.8275 54.8373
97.2377 61.8266 54.6809
94.9194 60.5345 54.4539
99.8285 63.7439 56.2415
92.9887 58.0003 51.7093
94.8131 61.8147 56.1404
96.7232 60.8187 54.0611
95.8302 60.617 54.8475
97.7652 62.9157 57.8585
95.4721 61.401 55.7732
97.9013 62.228 56.1068
94.3906 62.0757 57.6303
96.3541 61.8047 56.1219
92.541 62.4144 58.1192
90.9041 60.6458 56.4763
90.4998 59.8293 55.9281
91.9531 59.5489 55.3554
92.3586 61.7709 58.1197
86.9424 58.8596 55.9593
91.1993 59.7802 56.2462
89.6524 59.7997 56.3233
86.955 60.1589 57.8597
85.3252 58.4222 56.8038
86.6941 58.8306 56.6884
89.935 62.3927 60.4939
87.7302 58.621 56.4659
86.5038 58.8842 56.9931
86.1811 58.4918 57.1949
84.9638 59.2626 57.8781
82.6563 56.5856 56.2774
85.6281 59.6361 58.4817
84.1058 60.1176 59.898
86.2149 60.7256 61.058
87.1371 60.2408 59.3702
84.2677 58.3144 59.2691
84.9844 58.708 59.5825
82.4902 57.9171 58.6768
84.2459 59.9152 60.3644
81.685 58.1537 58.7105
76.2445 56.0275 57.8203
79.8436 57.5034 58.4412
79.3258 57.7037 60.0519
81.5313 57.8936 59.9944
79.5098 59.4217 62.1831
80.3439 57.0201 59.2525
79.3942 57.413 60.3453
78.5535 57.1986 59.366
76.5539 55.7836 58.556
77.0658 55.6468 58.5486
76.5522 57.0562 60.3711
77.8368 57.5889 61.6105
76.8597 56.6952 60.4645
74.7318 56.6306 60.8604
76.4807 57.4624 61.4555
74.5142 55.2163 59.869
74.77 57.3419 61.8799
73.6292 56.3843 62.0091
75.6179 57.2292 61.2144
74.759 56.7788 62.6355
73.8175 57.1254 63.4897
74.8354 57.5526 63.2778
71.7068 53.9993 59.3998
70.9134 54.5371 61.2802
71.2957 55.0767 61.5897
72.1012 56.9721 64.2205
71.8644 55.7078 61.9096
70.4588 55.6658 62.5546
71.2499 54.9511 62.5861
68.2244 53.5612 61.7924
72.8261 56.0611 63.3593
70.8732 55.1221 62.5755
67.5995 53.3973 62.0135
69.7286 56.0199 63.7495
69.1935 55.6815 64.6562
68.9725 54.6975 63.3517
70.7528 56.6478 66.4898
69.3809 56.558 64.6747
65.1765 52.6795 61.5879
67.7857 55.822 65.5287
65.4509 53.8898 64.1117
67.4765 55.0497 64.576
67.3527 54.8068 64.9734
68.3765 55.8579 66.7763
66.266 53.7476 63.8832
64.0639 53.2908 64.4281
67.3853 55.3284 66.1017
64.3517 54.0849 64.958
65.4915 53.2595 64.1424
63.0379 52.393 63.8153
65.0232 52.948 64.3667
64.7517 54.7041 67.0826
64.2072 54.5548 67.2886
64.0658 54.6466 68.0913
64.122 54.5718 66.6173
62.4453 53.8426 67.9074
63.4914 53.9075 66.2969
60.9786 52.2033 64.4706
62.6396 53.7471 67.1308
62.2484 52.9443 66.5646
60.8495 51.347 64.8264
61.576 54.1236 68.9186
63.7998 54.4051 68.3116
60.3299 53.0743 67.4887
62.0144 53.5053 68.8571
63.578 54.7423 69.5712
61.6509 54.5488 71.2391
59.9965 49.3063 62.9152
60.0348 51.998 66.4568
59.0071 52.7125 67.365
57.0125 51.9515 68.2231
58.3708 50.9506 66.3604
59.0527 52.9272 70.0686
59.1477 52.2158 67.7751
59.7181 52.7707 69.1627
58.2226 50.3946 67.711
57.2888 52.1916 67.8806
57.082 51.7167 70.4222
57.1637 52.3422 69.5418
55.7432 51.4496 68.24
58.3285 51.5952 69.2963
56.7534 51.466 70.011
56.4276 50.4461 67.1474
56.4334 50.648 68.603
55.9199 50.8822 68.8002
56.6225 50.925 69.123
57.6259 52.1214 69.9551
53.6789 50.9071 69.9365
55.7735 50.3965 69.1118
54.1742 49.5233 68.6513
54.3443 50.3398 69.9363
52.9087 49.8812 69.3489
53.8138 49.687 70.1156
55.0494 51.6899 70.6475
51.8281 49.4843 70.2846
54.4247 50.9081 70.9535
54.4072 51.8582 72.0651
51.9938 50.5434 71.1305
53.3747 50.3785 71.8474
53.6704 50.1727 72.0047
52.7503 48.8222 68.6997
51.7758 49.1268 70.0209
51.6879 49.6639 71.5357
49.9788 48.4049 69.5382
50.8945 49.238 70.5241
49.8322 47.4531 68.6748
50.0931 48.4222 70.1746
51.9647 49.8811 72.0427
52.2708 49.4244 72.5952
51.1972 49.3595 71.4491
51.0469 49.8161 73.3078
48.6148 47.7216 71.0041
50.0442 48.6168 72.932
49.5608 47.8256 71.0728
48.9204 47.7848 70.7255
49.5844 47.5547 69.6233
48.5073 47.8139 70.3661
48.6284 47.376 70.3923
48.3639 47.2737 70.2808
49.2196 48.2922 73.0019
48.0261 48.8576 74.3646
47.5179 46.5024 71.4213
46.4183 47.5588 73.0265
47.3759 46.2246 69.1109
48.6708 49.1431 74.0496
45.4893 46.0006 70.8512
46.7666 47.5118 72.916
47.4953 47.2305 73.0823
48.0482 48.0175 73.3655
46.0841 47.0541 72.505
46.959 47.7383 73.1957
45.1915 45.3076 71.5493
45.1212 45.4109 70.9039
46.0997 45.5984 69.8548
45.9843 48.4987 76.1246
44.6523 45.5792 71.9531
44.4797 45.3653 72.1825
44.9341 46.9251 74.6576
44.5401 46.2332 72.9903
45.6486 46.8661 74.1342
46.2383 47.4589 74.6632
43.741 45.119 72.4278
44.3075 47.5032 76.447
44.7692 46.7243 75.4425
44.953 46.8089 75.5945
44.7312 46.0722 73.5399
45.5419 49.4617 78.9318
42.2369 45.237 73.6076
42.2815 43.8507 71.656
42.8955 45.1557 73.7267
42.1285 44.0189 71.2935
42.6899 44.4024 73.1566
43.3998 46.0723 76.3081
42.7249 44.9117 73.4372
43.1636 45.0807 74.2751
42.7129 45.713 75.3479
40.746 43.1509 73.9081
43.6171 48.6022 79.4491
41.8855 44.3609 74.5951
41.5713 45.6921 77.2391
42.9986 46.0573 77.1529
42.8963 46.0976 76.3754
40.5588 44.3041 74.0952
41.0486 45.6419 78.3673
41.0279 44.6698 74.8543
40.7054 45.0151 76.4636
40.432 43.8434 74.8154
40.9482 45.3237 76.7135
40.0056 44.4039 76.6757
39.5244 43.4221 75.6094
40.9047 45.1123 76.1601
39.4775 43.2237 74.7295
39.4608 43.8588 76.2075
39.049 42.3307 74.748
39.373 43.4196 73.6032
38.8733 43.8847 76.0165
37.98 42.5799 76.0268
39.3899 44.8381 78.3854
39.0528 43.3187 75.0769
39.7704 44.5872 79.4649
39.5743 44.2289 77.9445
38.4564 43.8915 77.3669
38.3282 44.3355 79.8086
38.5139 43.4051 77.4438
38.944 42.9672 75.9029
38.3487 43.9862 77.6328
37.2954 41.9393 76.3406
37.7031 41.6968 73.6054
36.5128 42.7228 76.5413
38.9134 44.3234 81.7621
38.2337 43.708 78.2125
37.2176 43.0888 78.2962
36.6849 42.3706 78.1124
37.2768 42.8823 77.5374
36.5629 43.0232 78.7056
37.4333 43.1756 79.4281
37.4104 43.813 79.6074
37.0059 43.2168 79.0101
36.2087 42.0092 77.8663
37.2181 42.279 77.488
36.6257 42.291 77.928
35.8518 42.3631 77.799
36.2681 41.7935 77.6045
35.2691 41.0231 76.6751
36.3252 42.4585 79.8187
34.9838 41.2356 76.6869
35.4563 41.9173 78.0038
35.2444 41.8805 78.9691
34.2213 41.7739 79.375
35.1251 40.6216 78.2918
34.4497 40.7365 77.8204
35.5444 42.0287 79.3956
34.6381 41.9378 78.614
33.7434 40.4021 78.3682
34.8986 41.4031 78.7896
33.5459 40.6189 77.9173
33.7309 39.8109 77.8049
34.2769 41.021 80.2796
35.1139 41.5446 78.6799
33.919 39.3287 75.453
34.0375 42.2177 82.674
34.5374 40.9423 78.204
33.1528 41.1255 80.3107
32.9629 40.4715 77.6206
33.7132 40.9013 81.4069
32.5048 39.8109 78.9442
33.832 40.8165 80.2802
33.7818 40.9803 81.4102
33.2119 41.6418 80.6347
33.5688 40.1171 79.6235
33.0864 39.9988 79.0187
31.7148 38.6185 76.2924
32.3802 40.113 79.8075
32.4918 39.028 78.358
32.1248 39.6642 81.1387
32.5167 40.0635 80.274
32.759 40.6325 81.1232
32.6811 40.066 81.7723
32.189 40.0273 79.9532
32.0366 40.9509 80.1824
31.2006 38.6763 78.7173
31.0089 39.4093 78.8131
31.174 38.7757 80.0408
32.4452 39.5916 81.5074
31.3873 39.2315 80.0368
31.2101 36.9747 77.5361
32.2331 40.3512 80.3487
30.8748 39.0537 81.4022
31.7518 40.9169 82.4144
30.5723 39.0485 82.7048
32.0909 40.1328 82.9088
31.4827 38.7292 79.6721
30.2409 39.1499 81.7725
30.5131 38.7314 77.442
29.6891 39.1263 80.5631
29.5331 38.4303 81.3798
29.9211 38.4558 81.0888
29.2702 37.607 80.0142
29.7226 38.2823 80.8099
30.2753 36.8228 77.9241
29.305 37.5374 77.9132
29.8568 38.118 81.0494
29.6356 38.8495 81.4763
29.0855 37.0962 80.7024
30.0946 38.5153 81.9121
29.0372 38.618 82.1574
29.49 37.8068 80.2519
29.1978 37.8902 80.8326
29.3839 38.2711 83.0524
29.689 39.0028 81.1431
27.65 36.8561 82.8284
29.7307 38.6294 82.6331
28.2336 37.2133 81.161
28.6874 37.2691 80.0097
28.8005 36.7839 81.0284
28.8064 37.4104 82.9515
28.6359 37.5521 82.524
28.9352 38.0893 81.4555
28.1047 37.4157 82.5433
28.2003 36.757 81.5232
29.1024 37.9244 82.3158
28.1749 37.7963 82.2814
27.431 36.7013 82.257
28.3485 37.1806 83.3078
27.6621 35.2417 78.7106
27.9654 35.9496 78.9427
28.3557 38.115 85.1347
27.9311 36.5384 80.8606
27.022 36.8349 82.3116
27.2836 36.6947 80.4516
26.9083 36.9756 82.9404
27.258 37.1394 84.3144
27.6117 37.223 83.1524
26.7846 37.6791 84.9116
27.1528 37.2204 84.9378
27.3073 36.5435 82.4444
27.2597 36.5298 82.9738
27.1668 35.9839 81.0121
26.8978 37.0559 85.0223
27.4122 35.1561 80.9792
26.4803 36.5371 83.117
26.577 36.0539 81.554
26.514 35.1691 81.0664
26.9805 37.0783 85.3627
25.3598 35.235 81.9583
26.226 36.1863 81.7604
25.8734 34.5302 81.7266
25.6526 35.5211 82.3752
25.9918 34.8526 80.7156
25.7617 36.4953 83.983
25.3596 36.4151 85.4036
25.7624 35.2009 82.6113
25.7905 35.1222 82.5299
25.9574 34.972 80.5983
25.8283 35.3094 83.5191
26.3913 35.5424 83.281
25.7885 35.6691 84.7792
25.8151 34.6843 81.6229
25.5465 35.9477 84.6413
25.9858 35.4481 83.5672
25.5625 35.6699 83.2944
24.9453 35.7168 85.266
25.419 35.3233 84.4334
25.1667 33.9496 82.6026
25.631 35.0705 81.0912
24.5074 34.2382 83.3104
24.8105 34.5143 83.0193
25.5726 34.4366 84.2242
25.294 34.2717 82.4115
25.5177 33.7177 80.4093
24.22 34.6237 84.2558
24.4161 33.3327 81.6986
24.2749 33.6829 81.6621
24.9516 35.572 86.0548
24.7759 34.9176 84.3986
24.6731 34.2549 84.9688
25.1671 34.9759 83.3321
23.2872 33.0405 81.6821
23.5863 33.3739 82.9496
24.4541 33.5064 82.869
24.328 33.6394 82.0601
24.0232 34.5947 83.9791
23.8236 34.3219 84.8452
23.5248 34.8442 85.5994
23.4269 32.1979 81.6086
23.2119 33.1089 83.094
23.5899 33.588 82.3511
