# pn-170911/CsIIA-av-USN3-1280-1959.psd
# Power spectrum* (dif=0,1,2) (really just |FT|^2)
# NOTE: only the first half! (symmetric)
# weeks: 1280-1959
# 17315 clock-days, 5589 excluded
# PSD: 1441
105701 2.81971 0.0327103
2.51057e+06 31.9564 0.0224223
1.55794e+07 340.289 0.0291338
1.7314e+06 61.9463 0.0246609
2.22275e+06 160.051 0.0343124
636919 60.7743 0.0293744
449000 62.0514 0.0328187
321389 59.7506 0.0361236
256081 62.6367 0.0409926
196454 60.239 0.0448351
160327 60.3217 0.0502119
132256 60.5419 0.0569384
112562 61.274 0.0637891
95297.6 60.5526 0.0709701
82841.9 61.7045 0.0796468
71888.5 60.9146 0.0867388
62250.8 59.5897 0.0939264
54872.6 59.2238 0.103454
49981.6 60.9628 0.115255
44236.1 60.0005 0.124502
39926 59.8764 0.135356
36295 59.686 0.146686
33004.7 59.9561 0.158935
30139.8 60.0749 0.173688
27533.1 59.9604 0.185598
25312.5 59.4646 0.197351
23666.5 59.9521 0.213775
22152.3 60.577 0.231834
20286.9 59.5849 0.243835
18964.9 60.1508 0.261838
17678.1 60.2814 0.279076
16530.2 59.9737 0.297477
15574.9 60.3062 0.31543
14646.7 59.9223 0.331845
13786.4 59.7725 0.347478
12933.2 59.5277 0.36782
12307.3 59.9009 0.392105
11706.7 60.2635 0.414081
10962 59.4837 0.429354
10500.7 59.5225 0.452436
10079.4 60.1615 0.478572
9443.09 59.4925 0.496171
8974.79 59.5337 0.521449
8536.14 59.4501 0.542529
8213.54 59.5577 0.5695
7746.54 58.9847 0.589291
7462.59 59.5826 0.620844
7157.4 59.3679 0.64366
6878 59.2269 0.671677
6640.46 59.6331 0.702438
6373.27 60.0721 0.735211
6071.7 58.9585 0.751961
5838.53 58.9162 0.778605
5600.16 59.1927 0.809389
5442.24 59.6695 0.849852
5229.92 59.3227 0.873874
5017.57 58.6583 0.89461
4777.19 58.2309 0.918142
4706.17 59.0318 0.963631
4514.1 58.5216 0.987818
4326.3 58.0969 1.01506
4140.35 58.2358 1.04935
4104.11 58.3841 1.08565
3971.37 58.9265 1.12911
3784.24 57.7995 1.14721
3713.08 58.7593 1.19966
3548.68 57.3868 1.20584
3499.33 58.2457 1.26165
3377.38 58.0506 1.29781
3276.14 58.1027 1.33322
3165.34 57.9641 1.37205
3080.49 57.6224 1.40076
3016.71 57.529 1.43752
2926.79 57.9217 1.4822
2803.55 57.2133 1.50804
2740.55 57.4098 1.55398
2701.11 57.8004 1.60119
2600.29 57.0186 1.6279
2563.82 57.6417 1.68184
2469.89 57.0865 1.708
2408.45 57.1263 1.75227
2306.64 56.4698 1.78112
2283.08 57.002 1.83675
2200.49 55.7948 1.83844
2181.3 56.1932 1.90021
2097.02 56.7844 1.96484
2062.58 56.6941 2.00426
2022.42 56.9218 2.06088
1968.33 56.1041 2.08132
1945.01 57.0036 2.15807
1892.29 56.6769 2.19102
1826.59 56.2797 2.22886
1794.51 55.8983 2.26073
1758.03 55.7739 2.30495
1714.17 55.3071 2.33293
1689.48 56.0421 2.41535
1620.43 55.296 2.43482
1617.32 55.9827 2.51064
1571.38 55.5302 2.55339
1545.41 55.7816 2.61432
1491.53 54.9314 2.62218
1470.12 55.0709 2.67855
1428.05 54.4611 2.70346
1408.03 54.9268 2.77387
1412.6 55.3862 2.85844
1366.11 54.5394 2.86669
1318.47 54.437 2.91726
1309.01 55.1105 2.99999
1273.42 54.2967 3.01898
1255.88 54.2801 3.07734
1236.32 54.956 3.16414
1195.21 53.4039 3.13261
1185.68 53.8951 3.22483
1168.36 54.4072 3.31427
1138.41 53.6561 3.30864
1116.04 53.6387 3.37386
1091.28 53.2844 3.41206
1068.56 53.0307 3.4515
1044.71 53.0965 3.51963
1026.84 53.0837 3.56844
1017.79 53.4459 3.66294
1006.16 53.4657 3.72357
983.97 53.181 3.76378
958.595 52.7735 3.78608
930.86 52.2114 3.81672
931.24 52.3651 3.89018
915.471 52.6124 3.96605
893.912 52.0567 3.99289
891.335 52.5553 4.08861
855.216 51.4565 4.06008
867.389 52.7153 4.23212
850.736 52.4284 4.26823
827.188 51.5793 4.26399
810.922 51.3586 4.30479
804.341 52.3465 4.45539
792.201 52.0158 4.50095
766.351 50.9655 4.46536
768.55 51.9642 4.61661
742.407 50.8303 4.59205
735.329 51.3174 4.68992
727.668 51.2274 4.74902
717.54 51.6123 4.85854
713.804 51.7449 4.94432
691.277 51.0788 4.95385
675.367 50.925 4.98703
675.124 50.9485 5.07116
666.259 50.6854 5.1124
656.755 50.4483 5.15431
655.539 51.0181 5.27642
632.805 50.5012 5.29988
620.649 50.0756 5.33241
612.598 49.6771 5.36056
603.433 49.7 5.43537
592.179 49.407 5.46971
582.339 49.2905 5.52111
577.391 49.4132 5.61285
576.759 49.8797 5.73752
558.818 48.816 5.67875
549.379 48.9339 5.76418
544.883 48.3757 5.78036
541.886 49.1901 5.93722
535.919 49.3995 6.03439
532.686 49.6175 6.13752
514.329 48.5713 6.0941
514.3 48.9301 6.21183
507.389 49.1801 6.32452
497.938 48.4555 6.3038
489.937 48.2946 6.3463
487.6 48.6552 6.46608
481.934 48.4839 6.52758
473.351 48.6041 6.62535
465.672 48.0471 6.62231
458.32 48.1645 6.7165
453.248 48.2821 6.80492
450.783 47.5339 6.76771
445.739 47.8582 6.92163
442.187 48.0371 7.00318
434.139 47.8072 7.067
429.562 47.4399 7.07889
425.649 47.8261 7.19257
414.504 47.3107 7.22942
408.517 47.0226 7.25238
404.235 46.9681 7.32635
401.277 47.0042 7.40117
394.537 46.8387 7.46
391.354 46.9817 7.55017
388.615 46.5817 7.57727
385.517 46.9379 7.72425
383.451 46.9894 7.77673
369.905 46.1818 7.74993
372.06 46.498 7.89663
360.633 45.6206 7.8418
366.277 46.6545 8.07103
357.274 45.9219 8.0257
351.83 46.3464 8.2073
349.795 45.9632 8.17095
343.195 45.7059 8.23321
338.734 45.6979 8.32431
337.004 45.9755 8.47526
334.88 45.8424 8.52033
327.915 45.3814 8.51222
327.785 45.9156 8.68993
318.799 45.134 8.63456
317.618 44.9284 8.69045
311.612 44.6157 8.71556
309.299 45.1763 8.87947
308.809 45.2742 8.99089
304.739 45.0671 9.05819
300.019 44.3066 8.9846
297.779 44.8283 9.15978
296.887 45.5083 9.39231
292.491 44.5353 9.29348
286.445 44.0447 9.24007
286.942 44.3824 9.44958
282.441 44.5136 9.54191
277.142 43.7541 9.45062
275.088 43.9113 9.58976
274.236 44.054 9.66368
270.051 43.9 9.79837
269.153 44.1732 9.89121
268.367 44.1924 9.97789
263.934 44.1543 10.067
258.776 43.4107 10.0001
258.438 43.8526 10.1851
256.327 43.3844 10.1658
252.626 43.1985 10.1997
248.528 43.3336 10.3477
243.275 42.6581 10.2407
244.154 43.146 10.506
240.645 42.9288 10.5338
237.649 42.1666 10.4299
235.695 42.3992 10.5404
234.01 42.7662 10.7297
231.911 42.3723 10.6893
229.27 42.5755 10.8949
228.03 42.4217 10.8914
226.376 42.4162 11.0027
225.339 42.7254 11.19
221.881 42.3425 11.1811
220.938 42.1295 11.1851
217.447 42.0097 11.2688
215.686 41.7801 11.2603
214.216 42.2609 11.5429
210.541 42.0935 11.5839
210.931 42.2984 11.6963
209.23 41.8631 11.6703
206.94 42.0666 11.8266
203.879 41.561 11.7662
203.236 41.9363 12.0002
199.856 41.4312 11.9277
196.137 40.8902 11.883
194.746 40.9506 11.9792
193.215 40.9152 12.0701
193.676 41.2127 12.2293
189.615 40.8351 12.2539
189.845 41.1214 12.3772
186.367 40.7207 12.3768
186.059 40.9771 12.5632
184.201 40.2697 12.4069
183.359 41.5844 12.9764
180.574 40.5715 12.7322
178.972 40.1995 12.6795
177.141 39.8572 12.6766
177.658 40.6894 13.0426
174.388 39.913 12.8769
172.689 40.0613 13.0602
170.918 40.3286 13.1821
170.953 40.0711 13.1927
169.165 40.1646 13.318
166.65 39.7267 13.3309
166.516 39.7262 13.4307
164.62 39.8091 13.5051
161.577 39.0245 13.3405
161.58 39.7121 13.7007
160.489 39.4025 13.6632
159.087 39.1546 13.6831
156.981 38.9113 13.7046
157.426 39.4379 13.9924
155.775 38.9357 13.9171
152.855 38.8036 13.9584
151.498 38.9933 14.0956
152.65 39.0095 14.211
148.947 38.5243 14.095
146.7 38.1132 14.1261
147.493 38.7739 14.3583
145.275 38.752 14.5485
143.577 38.3826 14.4499
143.645 38.3222 14.5904
143.376 38.7093 14.7626
141.73 38.6643 14.8792
141.973 38.5012 14.932
140.907 38.8145 15.1208
137.164 37.9051 14.9278
138.993 38.6561 15.2796
136.733 37.8518 15.0375
134.002 37.6731 15.1106
137.423 38.3069 15.3482
131.863 37.2609 15.1733
132.77 37.5768 15.32
130.504 37.4494 15.3945
130.562 37.3155 15.3938
129.125 37.679 15.6903
128.646 37.4563 15.661
126.11 37.3085 15.7129
124.075 36.5566 15.5284
123.286 36.7918 15.6935
123.728 37.2575 15.9649
121.812 36.6465 15.8966
121.866 37.1593 16.1482
121.441 36.7944 16.0868
120.48 36.693 16.1653
119.157 36.4929 16.1633
117.54 36.2604 16.1845
116.788 36.2001 16.2278
117.317 36.2529 16.3577
115.597 36.1338 16.3477
115.433 36.3321 16.6014
113.892 36.0268 16.5224
113.152 36.2003 16.7535
113.705 36.2574 16.8471
112.034 35.7362 16.7227
109.576 35.7882 16.8848
108.984 35.9585 17.0369
108.032 35.2605 16.8252
109.833 35.9883 17.1709
107.342 35.6218 17.2011
106.953 35.5314 17.2447
105.703 35.0895 17.1345
106.218 35.8021 17.5779
103.733 34.905 17.2499
104.512 35.264 17.4656
102.565 35.4198 17.722
102.044 34.9896 17.5487
101.731 35.0504 17.6326
100.643 35.0534 17.855
98.8703 34.6842 17.7375
98.3639 34.3679 17.712
97.7796 34.6282 17.89
97.7507 34.9001 18.1739
96.5626 34.3777 18.0406
98.2396 34.5315 18.0455
95.5005 34.3982 18.2659
95.8053 34.7557 18.4379
95.6212 34.7926 18.5276
94.2712 34.5647 18.6283
92.6947 33.9222 18.2269
91.5584 33.8713 18.5107
93.5067 34.7575 18.9717
91.9568 33.8359 18.5442
90.8268 34.2762 18.9891
90.8001 33.7826 18.6645
89.7899 33.5114 18.7997
90.6579 34.0646 19.1225
89.0327 33.9907 19.1598
88.4645 33.7072 19.1233
87.1892 33.3634 19.0073
87.4249 33.777 19.347
85.7632 33.3942 19.2297
85.299 33.4943 19.4949
84.807 33.1398 19.2308
84.9601 33.6344 19.738
83.6317 32.7896 19.3128
83.059 32.7829 19.3052
82.8142 33.1048 19.76
83.0473 32.9181 19.6621
81.4714 32.7217 19.7246
80.8201 32.8931 19.8525
79.3658 32.654 19.9775
80.2724 32.6945 19.9598
80.2822 32.9198 20.1333
78.4921 32.2254 19.8673
78.426 32.0671 19.8385
78.2458 32.4205 20.2039
77.0135 32.2709 20.2274
76.4226 31.8569 20.1001
76.8891 32.2143 20.3988
75.2846 31.5043 20.0103
75.0228 31.9205 20.3861
74.4135 31.9401 20.5262
73.7044 31.4266 20.4169
73.6829 31.5203 20.4483
73.5573 31.6278 20.6923
73.4554 31.9174 20.9224
72.475 31.5192 20.7261
71.1472 31.0998 20.5452
71.4792 31.294 20.8247
71.6818 31.3544 20.9148
70.9204 31.1279 20.8813
70.8083 30.9404 20.8516
69.1061 31.0807 21.1727
69.7396 31.3596 21.2606
69.8244 31.5582 21.6662
69.0607 31.0993 21.3668
68.3498 30.9286 21.3018
68.1063 30.8167 21.3873
67.3732 31.2033 21.8385
67.6286 31.3302 22.0183
66.9072 30.8708 21.7684
66.6736 30.5903 21.656
66.5157 31.0174 21.9577
65.2307 30.5196 21.8504
65.9817 30.953 22.1871
64.5154 30.5568 22.0644
63.8815 29.7676 21.5445
64.0465 30.48 22.2696
63.88 30.1464 22.0518
62.7104 29.9375 21.9103
62.9117 30.4064 22.4957
61.9635 29.9506 22.3219
62.0423 29.8304 22.2047
62.4362 29.9176 22.3523
61.0742 29.7209 22.3137
61.3189 29.6405 22.355
60.333 29.6519 22.4484
60.3086 30.0179 22.8511
60.3745 29.8141 22.8356
59.5347 29.6008 22.7335
59.3923 29.4747 22.7753
58.5172 29.326 22.7777
58.5429 29.4049 22.9796
59.0955 29.4286 22.9553
58.197 29.3194 23.0211
57.793 29.2372 23.0628
56.6692 28.9019 22.9122
57.3277 29.1767 23.0806
56.8548 29.233 23.4801
57.1963 29.3042 23.5509
56.1741 29.0174 23.4856
55.9449 29.1257 23.7094
55.9051 29.135 23.6901
53.8999 28.4011 23.2816
54.5397 28.4182 23.2389
54.0788 28.6237 23.5611
54.2893 28.977 24.0318
53.6506 28.4522 23.7016
53.629 28.4807 23.8678
53.8824 28.583 23.9735
52.9633 28.4282 23.9502
52.6541 28.3569 23.8768
52.1844 28.2356 24.0336
52.1862 28.1845 24.0083
52.0844 28.6053 24.5436
52.2691 28.7813 24.6952
51.3489 27.9209 24.0865
50.9518 27.8503 24.2227
50.4578 27.8002 24.1296
50.4173 27.754 24.1501
50.5069 28.0409 24.6262
49.2539 27.7814 24.5874
49.9618 27.7757 24.5407
49.2635 27.9328 24.8805
48.9957 27.5238 24.4671
49.3831 27.876 25.0705
49.0907 27.8141 24.9475
48.3259 27.2709 24.6142
48.2282 27.5854 25.1076
47.657 27.0465 24.6036
47.8986 27.4025 25.0358
47.8801 27.2949 25.1139
47.9866 27.2733 24.9943
46.5006 27.4123 25.4897
46.7274 27.0442 25.08
46.5985 26.9322 25.0807
45.861 26.9136 25.1951
45.9954 27.1075 25.5765
45.6494 26.7691 25.3353
45.9199 26.8687 25.2992
44.8674 26.5822 25.2915
45.1283 26.6243 25.435
44.4851 26.4141 25.4498
44.888 26.6404 25.6332
44.3403 26.8906 26.0303
44.1888 26.3001 25.4639
43.8086 26.1841 25.4382
43.5941 26.1652 25.6762
43.335 26.3734 25.8213
42.7993 26.3756 26.0048
43.2372 25.9536 25.4996
42.8882 26.2101 26.0208
42.6831 26.0955 26.1382
42.8959 26.4579 26.4188
42.1368 26.0522 26.2655
42.1755 26.1136 26.1638
41.2599 25.6021 25.9846
41.0472 25.5748 25.9971
41.3322 25.8457 26.2351
40.7061 25.4862 26.119
40.2854 25.3152 26.0472
40.7902 25.7747 26.5196
40.804 25.6023 26.2652
40.3206 25.4873 26.5313
40.1738 25.3756 26.4693
39.7413 25.1148 26.3592
39.9546 25.6385 26.732
39.3684 25.1869 26.583
39.4479 25.1995 26.6565
38.7352 25.097 26.598
39.0251 24.8538 26.419
38.6029 25.0159 26.7651
38.0608 24.5983 26.3971
38.4131 25.1283 27.056
38.1149 24.88 26.9305
38.1437 24.9697 26.9945
38.0762 24.8987 27.1711
37.9097 25.0382 27.1355
37.6548 25.0878 27.4363
37.4072 24.6135 27.1368
37.0892 24.7347 27.2842
36.8488 24.2983 26.9106
37.0555 24.3737 27.075
36.4623 24.4903 27.4173
36.5633 24.8662 27.7059
36.2889 24.5594 27.5659
36.1537 24.4725 27.5014
35.4716 24.3268 27.66
35.5135 24.2912 27.4788
35.3437 24.1143 27.399
35.5551 24.0467 27.5098
35.1624 23.9097 27.6
35.2644 24.124 27.5412
34.3779 24.0065 27.8101
34.6509 23.7599 27.5304
34.5353 23.9529 27.9161
34.6596 24.1851 28.1106
33.7248 23.3254 27.4039
34.6303 24.249 28.4133
33.9501 23.7518 27.9982
33.7842 23.7758 28.1061
33.555 23.6393 28.1143
33.7926 23.7381 28.1515
32.9791 23.4795 28.2186
33.6862 23.462 28.1083
33.489 23.8411 28.5326
32.9366 23.607 28.51
32.7367 23.3058 28.1474
32.5372 23.4341 28.51
32.6953 23.2721 28.4111
32.2345 23.304 28.6244
32.4878 23.3727 28.5922
32.1938 23.2236 28.6353
31.9322 23.3234 28.5654
31.7897 23.3022 28.8522
31.1959 22.4454 27.9722
31.3188 22.8269 28.451
31.3322 23.0726 28.8512
31.2017 23.2245 29.1222
31.0005 22.6871 28.5071
30.8734 22.6902 28.8194
31.0969 22.8649 28.7446
30.7154 22.7616 29.1025
30.5738 22.5541 28.9216
30.9507 23.0537 29.4546
30.0739 22.5275 29.0155
30.069 22.1686 28.4645
29.9281 22.3674 28.803
29.6708 22.3479 28.8577
29.3488 22.3178 29.2051
29.9958 22.408 29.0439
29.681 22.4227 29.3312
29.5622 22.4381 29.2969
29.5093 22.5916 29.7537
29.2662 22.0581 29.2688
28.8989 21.962 29.1217
28.9491 22.1389 29.6577
29.0034 22.2558 29.4567
28.9138 22.3992 29.7915
29.0995 22.3055 30.0752
28.6312 21.9324 29.5029
28.4833 21.8967 29.1908
28.0945 21.8136 29.6072
28.1903 21.7882 29.3971
27.7872 21.6297 29.5127
27.9967 21.6845 29.49
27.7819 21.8466 29.8885
27.4609 21.6359 29.9269
27.5972 22.0068 30.4279
27.1836 21.2599 29.46
27.3255 21.7286 30.0563
27.189 21.4355 29.8124
27.4546 22.1806 30.6496
26.928 21.2841 29.7993
26.6561 21.2159 29.8065
26.8897 21.4617 30.1585
26.603 21.5183 30.3572
26.7225 21.2516 30.1243
26.5575 21.2453 30.2383
26.1824 21.0324 29.8151
26.5478 21.1693 30.0504
26.1673 21.2255 30.3523
25.8549 20.9044 29.9994
25.8672 21.035 30.2216
25.5872 20.534 29.7436
25.7291 20.9433 30.1931
25.3897 20.8632 30.3806
25.5834 20.8274 30.2068
25.4057 20.7868 30.3955
25.1548 20.9485 30.7043
24.8269 20.6367 30.5549
25.2168 20.6216 30.6669
25.1586 20.5834 30.4656
24.7942 20.4458 30.3017
24.9754 20.3255 29.9298
24.5937 20.2051 30.0134
24.3608 20.1559 30.277
24.5688 20.2308 30.2035
24.427 20.2985 30.4885
24.3114 20.3903 30.7766
24.2094 19.9389 30.1269
24.0441 20.4298 30.934
23.834 19.9807 30.4323
24.1583 20.3942 30.8876
23.6806 19.9298 30.6345
23.8307 20.072 30.7334
23.8831 20.0485 30.9046
23.9116 20.0818 30.7549
23.7427 20.3539 31.4555
23.5575 19.7818 30.5208
23.0133 19.6117 30.7266
23.3499 19.79 30.7802
23.1492 19.9262 30.9392
22.9425 19.6819 30.9683
22.9019 19.7898 31.0723
23.0285 19.6037 30.9226
22.5174 19.7491 31.6417
22.8815 19.519 30.6612
22.5262 19.375 30.8359
22.6501 19.7126 31.3762
22.6294 19.3937 30.9614
22.6235 19.5682 31.4426
22.6511 19.7262 31.6077
22.3131 19.7011 31.6058
22.3303 19.4091 31.2435
22.3244 19.7519 31.9284
22.1037 19.0936 30.8358
21.8227 19.2654 31.4325
21.8791 19.2507 31.5591
21.7487 19.0726 31.0606
21.4846 18.9176 31.1547
21.7191 19.1749 31.2775
21.6084 18.9189 31.3226
21.4986 19.4306 32.0892
21.5011 19.2322 31.8513
21.1765 18.7735 31.2581
21.3808 19.146 31.7431
21.2038 18.8965 31.5771
21.2555 19.0512 31.8854
21.2351 19.12 32.2994
21.3809 19.116 31.9148
20.9849 18.7404 31.6172
20.721 18.8257 31.8873
20.6532 18.5465 31.4012
20.5519 18.8332 31.9274
20.4986 18.4886 31.4071
20.5621 18.9318 32.3484
20.3827 18.6815 32.1657
20.366 18.6416 32.0656
20.4825 18.8536 32.3584
20.1136 18.4808 31.8769
19.9727 18.3325 31.7826
20.1208 18.4359 31.9906
20.1087 18.4847 31.6159
19.5485 17.974 31.5952
19.5514 18.0676 31.7296
19.7844 18.546 32.4897
19.8557 18.3164 31.8273
19.755 18.1795 32.1962
19.6908 18.3711 32.204
19.6068 18.3949 32.6392
19.3636 18.1815 32.4138
19.4577 18.0862 32.3033
19.5138 18.0891 31.9764
19.4233 18.4803 32.8469
19.2126 17.8913 32.1795
19.1194 17.8731 31.7142
18.7784 17.9786 32.2571
18.8838 17.8637 32.3447
18.7802 17.5533 31.8119
18.7307 17.8707 32.5147
18.707 17.8999 32.5706
18.7846 17.6907 32.1544
18.545 17.6734 32.3549
18.7697 17.8321 32.544
18.5522 17.7429 32.6343
18.446 17.4181 31.9165
18.1507 17.3168 32.0262
18.5574 17.5696 32.3887
18.3741 17.5443 32.2957
18.1491 17.4397 32.2784
18.157 17.4462 32.4294
17.8381 17.1884 32.0432
18.0702 17.3233 32.4603
17.9511 17.3728 32.402
17.8107 17.2201 32.0831
17.8131 17.2678 32.6421
17.9312 17.2981 32.6176
17.6412 16.8772 32.0166
17.4595 17.0318 32.4339
17.5936 16.9494 32.2994
17.7033 17.2526 32.7571
17.6027 17.0244 32.4549
17.4451 17.1089 32.6823
17.3233 16.8333 32.2076
17.3683 17.1032 32.8764
17.3456 16.9522 32.8519
17.3482 16.9344 32.7908
17.4275 16.9503 32.4366
17.1218 17.0139 32.96
17.2659 17.0813 33.0733
16.9027 16.7442 32.8255
16.8758 16.6106 32.3142
17.0951 16.9378 32.9968
16.6705 16.4944 32.4275
16.7879 16.6223 32.5866
16.7495 16.7372 33.1113
16.6957 16.7092 32.7502
16.8397 16.5058 32.6697
16.7299 16.4429 32.5497
16.4802 16.3894 32.4575
16.4782 16.3456 32.5234
16.5635 16.3449 32.3335
16.3758 16.6005 33.424
16.2076 16.0992 32.2675
16.2492 16.1208 32.5533
16.2858 16.3025 32.9348
16.1295 16.3836 33.0667
16.2217 16.4782 33.1687
16.0355 16.3018 32.9674
16.0265 16.3032 32.965
16.0371 16.002 32.5544
15.9854 16.1347 33.1708
15.9572 16.1375 33.0639
15.9385 15.9386 32.4905
15.9935 16.1785 33.1382
15.7782 16.1022 32.933
15.8316 16.2679 33.0752
15.5121 15.8938 32.8066
15.523 15.7808 32.9216
15.6108 15.8562 32.6844
15.4753 16.1363 33.4392
15.5812 16.12 33.6647
15.4644 15.8086 32.8175
15.4506 16.1229 33.6819
15.3335 15.8574 33.001
15.1819 15.7868 33.3898
15.0895 15.7383 33.1278
15.261 15.646 33.2226
15.1838 15.6534 32.794
15.1424 15.7156 33.4164
15.0558 15.7221 33.0924
15.1125 15.6012 33.1719
14.9269 15.6575 33.3364
14.8828 15.5494 33.2545
14.8618 15.4326 33.2332
14.9656 15.5786 33.3049
14.8397 15.5092 33.0798
14.905 15.4864 33.1586
14.6435 15.353 33.5028
14.8065 15.5968 33.8347
14.7694 15.2872 32.7354
14.3446 15.0777 33.0537
14.6358 15.3028 33.1229
14.6983 15.2057 33.0978
14.2454 15.1898 33.2343
14.6144 15.3095 33.0369
14.361 15.1409 33.3351
14.1674 15.1504 33.5834
14.2378 15.1032 33.1507
14.3217 15.1652 33.3644
14.2031 15.156 33.5107
14.1574 15.0756 33.5081
14.2333 14.8393 32.7528
14.1036 14.8055 33.0661
14.1893 15.1433 33.7871
14.238 15.0682 33.3407
13.9015 14.7569 32.9912
13.9814 14.7941 32.8834
13.9687 15.1082 33.8601
13.9795 15.0686 33.8937
13.7969 14.7998 33.3884
13.9171 15.017 33.7681
13.8458 14.7911 33.3779
13.8538 14.7605 33.3658
13.7693 14.7252 33.4464
13.6627 14.6186 33.0053
13.5882 14.7129 33.7817
13.656 14.4338 32.9358
13.5312 14.5421 33.4452
13.7224 14.835 33.7465
13.5078 14.5045 33.2403
13.5071 14.8152 34.0821
13.385 14.5194 33.599
13.4847 14.6725 33.7418
13.557 14.5907 33.3899
13.2471 14.3254 33.364
13.2953 14.5361 33.6163
13.2846 14.5496 33.8302
13.1412 14.3008 33.341
13.173 14.2637 33.226
13.2121 14.2781 33.2739
13.1176 14.3705 33.8871
13.1347 14.1943 33.2761
13.1027 14.1456 33.1341
13.0238 14.2335 33.835
12.9854 14.1844 33.3596
12.9144 14.3871 33.9823
13.0459 14.1762 33.5177
12.8917 14.118 33.2501
12.7737 14.0818 33.7135
12.8204 14.1226 33.6837
12.9962 14.2585 33.9143
12.7542 14.1084 33.4914
12.8125 14.0097 33.6758
12.7911 14.1563 33.8135
12.7196 13.9925 34.0084
12.7739 13.928 33.5126
12.6627 13.9077 33.503
12.544 13.9203 33.7189
12.5166 13.8391 33.6498
12.6076 13.7901 33.3159
12.5452 13.8113 33.1048
12.4157 14.0194 33.8324
12.3673 13.8454 33.7987
12.5085 13.7817 33.6044
12.2287 13.6568 33.7783
12.296 13.6819 33.3906
12.3557 13.5056 33.0028
12.1713 13.6821 33.6369
12.2532 13.7815 33.7384
12.1663 13.5946 33.566
12.1536 13.8016 33.9526
12.0643 13.3471 33.2635
12.0596 13.5633 33.5002
