# pn-170911/CsIIA-40-CsII-1280-1959.psd
# Power spectrum* (dif=0,1,2) (really just |FT|^2)
# NOTE: only the first half! (symmetric)
# weeks: 1280-1959
# 531 clock-days, 235 excluded
# PSD: 1441
113166 1.62293 0.0463461
4.70998e+06 65.0564 0.0416426
3.20011e+07 637.771 0.0543629
3.64697e+06 142.638 0.0436311
3.98298e+06 274.915 0.0629738
1.24608e+06 123.627 0.0551587
972063 141.305 0.0582476
731860 145.145 0.072479
564746 137.67 0.0837331
414377 132.443 0.0879554
346323 137.199 0.106359
302514 129.029 0.111329
235904 129.668 0.124964
205908 133.231 0.139275
187110 128.055 0.159163
159325 130.814 0.184461
131866 131.076 0.204438
124491 130.644 0.220864
124958 143.747 0.264939
90992.3 112.834 0.238243
88306.7 118.713 0.270465
79483.2 133.653 0.315308
79292.3 131.955 0.33407
60793.2 118.805 0.338305
64294.7 132.887 0.396079
58220.1 129.529 0.430077
54546.5 125.156 0.445405
47326.3 119.017 0.457127
47615.2 130.753 0.516836
42541.5 130.68 0.546763
40038.9 126.873 0.585207
36565.8 130.23 0.634674
37412.1 130.201 0.680765
31126.2 126.1 0.69403
30562.7 125.751 0.746824
30032 137.011 0.841206
26621.7 126.475 0.820099
25860.5 130.328 0.873594
24384.4 127.291 0.907955
23708.7 126.483 0.94569
22439.8 130.478 1.0193
21174.8 127.383 1.06727
20189.5 127.534 1.12016
18337.1 124.564 1.128
17732.8 130.98 1.216
18258.9 130.277 1.29099
17417.6 126.315 1.30245
15855.8 123.22 1.33442
14864.3 120.209 1.33307
14847.8 130.505 1.51903
14305.9 130.949 1.59437
14145.1 134.979 1.69853
11919.6 118.147 1.55185
11986.4 123.376 1.70858
11734.6 121.552 1.70551
11238.6 122.076 1.80877
11589.6 129.564 1.96955
11309.5 126.771 1.9852
10778.1 125.565 2.04308
9303.55 117.186 1.95566
10447.4 123.101 2.1335
8988.47 120.255 2.16159
9343.47 120.193 2.22573
9193.02 124.148 2.38062
9279.79 123.714 2.44175
8197.83 121.685 2.48809
8887.58 125.35 2.65236
7911.77 121.463 2.64515
7999.6 119.04 2.67331
7639.36 123.945 2.83461
7345.5 117.312 2.74575
7054.57 121.261 2.9389
6907.96 120.745 2.98755
6827.17 125.366 3.1678
6454.31 123.615 3.24684
5932.53 111.764 3.00306
6581.38 131.562 3.6718
5420.7 119.09 3.38522
5766.33 120.957 3.53215
5630.9 126.706 3.76871
5153.45 116.644 3.58311
5244.99 122.849 3.79849
4907.26 110.779 3.59329
4582.58 111.922 3.69001
4822.42 118.286 3.99272
4721.32 118.22 4.09226
4537.31 110.001 3.8476
4664.89 119.364 4.32509
4290.31 117.143 4.39095
3841.56 108.422 4.11267
4028.25 117.633 4.51553
3923.66 112.536 4.40319
4398.11 121.839 4.92787
3897.69 123.048 5.09495
3663.62 109.059 4.57074
3740.61 119.463 5.16693
3812.28 118.532 5.18102
3413.88 103.305 4.63064
3448.23 114.191 5.29732
3524.16 119.755 5.56171
3323.68 110.3 5.29324
3174.41 113.206 5.48068
3299.54 112.154 5.54391
3349.49 116.4 5.84951
3143.49 105.104 5.37737
3256.27 121.848 6.37769
3285.67 114.533 6.10455
2756.03 102.429 5.55682
3087.93 116.303 6.40698
2720.7 109.798 6.17558
2908.34 113.171 6.59951
2704.13 105.89 6.28304
2915.1 118.406 7.02009
2470.67 104.666 6.36294
2677.95 109.81 6.73949
2515.26 105.704 6.7208
2706.36 111.221 7.01248
2303.59 106.048 6.89815
2253.32 98.8112 6.57762
2122.79 105.021 7.01171
2345.05 107.618 7.28642
2272.3 111.211 7.80273
2142.41 101.698 7.16795
1968.34 99.1096 7.1734
2271.55 109.1 7.89475
2060.82 104.319 7.77631
1869.88 98.7903 7.32831
1847.97 108.157 8.24167
1804.86 102.092 7.91087
1832 98.3811 7.76619
1918.67 110.096 8.84846
1834.06 109.167 8.84805
1784.35 96.5769 8.1208
1830.71 110.022 9.26369
1804.71 99.7706 8.49577
1743.81 105.12 9.07542
1670.77 99.5075 8.6455
1584.18 102.198 9.08157
1793.04 105.349 9.55492
1734.8 99.2924 8.94954
1592.52 92.1043 8.58098
1643.7 101.715 9.6791
1690.12 107.928 10.2462
1603.31 101.705 9.8887
1592.06 95.0382 9.22929
1505.92 98.4453 9.76898
1569.02 102.514 10.3657
1555.21 105.63 10.7487
1507.98 105.422 11.0028
1400.79 95.3907 10.0252
1421.1 102.822 10.9004
1330.96 93.312 10.1324
1424.31 100.334 10.8369
1376.51 95.9781 10.5942
1255.18 92.1148 10.2053
1271.19 98.6287 11.2712
1236.01 94.2546 10.7178
1174.49 92.028 10.6838
1317.3 103.553 12.2274
1187.81 92.2608 10.9489
1111.09 90.0606 10.8632
1169.03 97.2409 11.781
1061.72 95.5211 11.9295
1100.66 90.0131 11.2344
1122.39 96.3346 12.3726
1057.57 92.812 11.852
1048.85 100.646 13.1209
1152.82 100.19 13.1131
1038.72 93.5068 12.5167
1012.89 96.7747 12.9035
966.863 93.6638 12.7206
983.574 91.9758 12.5336
1001.38 89.4979 12.3595
960.772 85.3289 12.0351
974.825 90.8297 12.9073
957.095 95.8108 13.9697
965.025 88.3715 12.9604
991.14 91.1626 13.4507
909.958 86.866 13.1073
944.577 91.9147 13.664
914.135 89.1614 13.6097
875.347 88.8309 13.7204
941.025 87.3317 13.6344
880.491 89.6609 14.0322
846.54 86.904 13.657
855.944 89.0933 14.5298
890.582 85.8979 13.977
870.278 87.4454 14.4598
782.661 82.7531 13.6631
813.538 85.1328 14.2767
843.266 85.2285 14.5176
758.73 81.822 13.9794
899.124 89.605 15.5924
747.768 81.3249 14.3591
755.418 87.0245 15.3029
725.737 83.1369 15.0466
797.091 85.8157 15.3706
774.326 88.4882 16.0169
734.923 86.451 15.9409
643.189 76.8977 14.4112
644.342 80.4421 15.1059
703.774 84.3559 15.7363
667.402 78.5876 15.1702
668.601 82.9423 16.1341
658.468 84.1849 16.2182
656.033 79.9388 15.7776
634.376 81.5674 16.1882
655.98 84.3307 16.8546
686.964 81.3503 16.4686
592.822 78.8879 16.1662
561.774 75.7685 15.7144
613.966 80.4824 17.0413
627.303 82.2521 17.1141
573.158 80.0095 16.939
562.057 75.5663 16.2427
568.096 75.6908 16.245
583.295 78.7857 17.0361
604.816 80.398 17.559
537.823 77.5596 17.5621
573.651 81.5802 17.9652
622.376 82.4677 18.7921
508.614 68.19 15.2776
551.415 78.1379 18.0053
507.244 76.0446 17.6255
539.477 72.5704 17.1478
530.63 77.7862 18.4759
480.124 71.4968 17.0008
521.519 79.6948 19.2832
555.36 75.1745 18.2075
508.468 74.3616 18.1122
523.534 74.1015 18.3046
525.033 73.3819 18.0756
455.056 68.984 17.3553
489.559 72.9746 18.6785
522.619 72.5748 18.2732
463.361 75.2417 19.5405
467.042 73.0807 19.2879
436.796 68.5293 17.8631
448.694 67.845 17.5404
449.894 70.2114 19.3148
439.139 72.0889 19.541
451.632 76.5853 20.119
435.275 71.9391 19.6897
452.404 74.9199 20.453
437.972 75.0531 20.6683
381.389 68.7753 19.5375
413.22 68.7291 19.3548
394.589 71.8096 20.2928
367.095 66.2398 19.0797
410.444 72.3584 20.7283
414.919 71.131 20.7036
399.155 71.3849 20.928
386.225 65.2579 19.2747
363.783 70.4116 20.8303
372.745 68.9624 20.3112
349.832 67.1814 20.6417
381.736 68.0852 20.8123
355.732 67.7727 20.4769
384.918 70.9217 21.694
339.298 66.7681 20.8726
350.578 70.724 22.3983
350.009 65.5545 20.8771
352.503 68.1826 21.3374
338.572 69.7119 22.9014
348.258 64.1164 20.5903
326.071 62.4374 20.217
367.092 67.4088 21.7944
340.911 66.112 21.8043
339.442 66.8022 22.31
357.841 72.4198 23.9314
340.494 62.3633 21.2148
315.085 63.0851 21.518
335.147 64.6375 21.6561
313.471 64.3808 22.5054
317.359 59.0908 20.2807
277.781 56.7258 20.1196
309.701 62.481 21.8281
287.339 59.8769 21.26
309.359 59.7614 21.8703
269.968 57.2699 20.4953
281.31 61.9957 22.1054
272.256 64.3968 23.3244
264.686 61.3526 22.5309
254.44 61.3574 22.9409
286.426 67.4469 24.6226
260.974 63.8002 24.0011
262.289 60.3217 23.035
249.592 58.013 21.6831
222.862 54.0179 20.7164
243.804 62.0397 23.4973
244.904 66.0374 25.494
236.715 57.125 22.781
258.141 58.058 22.2685
220.431 55.7873 22.2998
240.835 60.6313 24.5272
239.006 60.4324 24.1946
246.098 60.6441 23.8644
228.746 56.7876 22.4422
232.803 56.6915 23.4999
225.385 59.065 23.7205
234.844 61.0612 25.3271
217.821 55.272 22.8588
212.003 52.3045 22.1188
223.252 57.7064 24.3105
222.618 54.7186 23.2184
231.546 60.6047 26.1525
215.24 55.2381 23.8798
215.682 53.4807 23.0429
218.724 53.6501 23.2269
195.644 51.738 22.4269
235.24 57.4144 25.0458
213.12 51.0501 22.9076
223.336 52.0629 23.4323
225.959 56.361 25.7517
233.186 55.745 25.1665
211.669 53.2412 24.0739
216.573 54.8821 25.1084
200.023 55.725 25.0758
223.26 55.9711 26.1825
202.855 53.738 25.3094
202.622 50.195 23.1043
186.196 52.5649 24.8428
198.66 51.9006 24.8575
204.886 55.6842 25.9122
175.336 50.2747 23.9369
190.404 54.6115 26.1972
210.306 54.4499 26.42
194.777 55.6653 27.0652
187.561 49.4462 24.5001
184.525 51.0166 25.6228
189.388 49.4564 23.9649
177.236 52.6518 26.6582
177.354 51.6282 25.549
176.879 55.0692 27.7255
183.186 54.3911 27.8414
183.606 55.6684 28.478
178.54 49.9468 25.2649
168.044 52.2409 27.0209
157.093 45.3009 23.3597
178.874 55.4769 28.8442
161.075 47.2522 25.0358
172.753 48.687 25.5279
168.408 50.1648 26.8455
170.427 49.617 25.8807
169.125 50.0646 27.5774
166.132 50.4271 27.1634
170.569 47.9199 26.2876
170.703 48.1209 26.6048
178.596 46.6479 24.9355
160.704 49.8341 27.7163
164.818 47.2973 26.1944
163.792 47.6645 26.5055
181.007 45.8969 26.136
170.377 49.1032 27.3852
169.991 47.7741 26.872
172.102 48.2751 28.0455
161.773 44.4195 25.2742
155.047 48.2654 28.1795
166.281 46.6499 26.7216
164.7 47.0617 26.8589
161.702 46.9626 27.5537
161.307 47.8951 29.0503
160.573 45.2871 26.2182
142.452 47.0733 28.2022
171.058 49.6507 29.6428
148.009 46.3681 28.2765
140.66 44.193 26.4162
136.956 43.3128 26.8202
146.548 44.8154 27.2477
141.684 41.1144 24.8047
139.781 42.7268 26.0944
133.175 42.47 26.198
140.686 42.7209 26.2348
132.202 46.924 29.5493
134.971 44.2276 27.9149
134.057 44.1945 27.0918
140.817 42.3784 27.1154
131.563 45.1021 28.9137
130.412 41.9349 27.2028
124.431 44.1907 28.9439
135.108 42.822 27.6934
132.524 41.6006 27.3787
126.952 41.6754 26.899
124.775 43.2849 28.4746
135.982 43.395 28.3042
127.338 41.8209 28.132
133.755 41.7662 26.9909
127.694 44.1231 30.146
139.919 40.7692 27.4364
124.456 41.8822 28.7165
126.626 42.2511 28.8058
136.46 42.7835 29.1913
143.139 40.1446 28.0851
129.326 41.1761 28.8679
139.114 42.404 28.7517
124.558 41.7227 29.0944
135.352 39.0872 27.0071
122.704 38.9171 27.6889
142.764 43.9918 30.9381
136.094 45.1812 31.917
128.926 39.4923 28.1807
122.086 40.224 28.54
123.489 39.449 28.4429
122.69 39.7368 28.8869
136.953 40.4758 28.9976
118.536 38.034 28.1207
121.973 39.936 29.4155
114.328 37.9436 28.1264
112.792 38.8799 28.8734
122.777 41.1968 30.7641
118.637 41.9829 30.3097
104.718 41.2227 31.3777
107.878 39.4975 30.4725
118.118 39.6598 29.171
114.581 39.2275 30.0726
104.919 40.4887 31.5554
106.728 40.8724 31.0533
112.04 41.0845 31.2812
107.492 38.0498 29.9325
107.289 40.8437 31.7596
107.015 37.3063 29.6679
102.356 38.3932 30.1086
106.217 37.9326 29.1968
104.992 37.828 30.2727
102.876 37.8014 30.0045
103.31 36.9176 29.5261
107.666 38.2134 30.0906
102.11 35.2424 28.6367
104.078 35.6367 29.0272
98.2785 37.268 30.5161
115.865 38.0489 31.6148
107.726 38.3167 30.8607
113.82 37.8104 30.9712
106.024 35.2066 29.3186
105.761 34.5366 28.8808
100.686 37.4003 30.8819
111.244 39.3544 32.1766
104.513 35.4449 29.6092
103.236 34.6739 30.0307
97.9184 36.6923 30.703
103.328 35.5645 31.3607
102.357 33.2596 28.1294
110.233 36.4416 31.0733
90.9877 38.6513 33.3487
99.5711 37.3189 32.2493
92.3193 34.0442 30.2161
96.2278 34.2399 30.692
93.4035 33.8719 29.0023
99.0267 35.2628 30.1516
93.9256 35.0231 31.6044
94.2095 34.4961 30.2911
80.5097 32.2118 28.787
89.4458 33.5437 30.3545
84.1235 33.0842 27.9941
83.9026 32.6299 30.5617
89.7455 34.1405 31.1877
81.9166 31.7886 28.6378
83.1047 34.2182 31.145
80.9868 34.0462 31.2958
81.6873 33.9033 31.1301
86.0575 33.2891 31.0973
83.6772 34.6317 32.5109
81.3691 34.3913 31.8751
84.2593 33.3469 31.3073
88.0002 33.9219 31.5683
83.4618 34.911 32.666
84.6434 33.4693 32.077
80.5845 31.7006 29.6691
90.498 32.5196 30.7176
79.4839 31.0296 30.6852
90.47 34.0814 32.6276
85.4647 35.7446 34.3087
87.9044 33.7843 33.2396
83.5547 32.7575 32.5489
88.1882 32.6609 30.7808
75.2888 32.3411 31.2666
87.2156 32.2326 32.5286
85.0686 33.2009 32.6723
91.1061 32.4477 31.7889
86.5687 32.7008 32.2673
90.8451 34.1543 34.0359
78.5937 29.7746 30.2005
90.085 27.9892 27.7162
80.8396 30.7861 32.1806
85.9544 33.3884 32.1759
78.6885 29.6489 30.2578
75.3974 28.2848 28.8766
71.2946 28.2806 29.6994
82.6301 31.49 32.7233
84.0774 29.782 30.4588
78.7066 31.1281 31.7563
75.4698 30.5761 31.6399
79.0447 29.4591 30.8967
69.4861 28.3571 29.6785
76.0283 29.4385 30.8429
65.3572 29.1168 30.1082
71.5114 28.9983 30.7398
72.3914 30.6414 32.129
69.3762 27.2032 29.1689
68.8906 29.9109 32.0614
73.4572 30.2017 33.1627
65.5592 27.6954 30.0416
70.2286 30.3348 32.7858
72.7957 30.2385 34.1072
71.1514 28.4356 31.1038
66.8796 29.1244 32.1921
68.7501 31.7758 33.6572
66.28 27.9693 31.5297
71.828 28.9441 31.7874
71.0276 28.4103 31.1894
72.2663 30.6766 34.3278
67.7508 27.687 30.4795
73.1252 24.8484 28.4174
73.7978 28.8325 30.9099
73.3446 30.2602 34.8868
64.9631 28.2372 32.493
75.4573 29.4528 34.0528
72.9389 27.5236 31.7438
73.0902 26.9012 31.1247
72.1297 28.7211 31.9247
71.9189 29.5203 33.2137
70.6818 28.9213 33.3035
75.9559 28.4493 33.0304
64.7353 27.3149 31.8192
75.7169 27.0297 31.7986
66.9612 26.7586 31.9501
64.6994 27.3127 32.8187
64.0769 26.8886 31.1494
72.0387 28.1118 32.6195
63.5259 26.02 31.5882
68.6027 25.5952 30.3553
66.9914 27.8219 32.9674
64.6639 26.7074 31.6368
56.8071 24.2834 30.1439
67.9158 27.6958 33.0681
64.8178 25.9627 30.4599
63.8696 28.3046 34.9692
61.2984 26.2389 31.5947
55.8715 24.2841 30.7035
60.4862 25.9019 31.3215
59.6585 26.1713 31.9117
58.9172 27.8366 34.8414
53.7014 23.6772 30.2381
55.7516 25.8022 32.9947
64.9364 24.3176 30.3373
53.3876 26.6616 33.2178
61.3772 25.5351 32.8842
56.9785 25.8859 31.6208
56.0501 27.9127 35.693
55.0969 25.823 32.7927
61.0481 25.8713 31.6633
57.6064 24.5785 31.7491
59.1675 23.9805 31.5271
56.4934 27.7202 35.3196
61.0372 24.1583 30.4179
55.3997 25.6392 34.3481
55.2247 24.4074 30.962
56.0343 24.2125 31.851
58.4919 24.0982 31.8852
59.6877 26.8758 34.851
61.6242 24.5885 32.7351
58.4822 23.1908 30.3273
63.5084 23.8119 31.8573
52.8085 22.4543 28.6325
61.6517 25.9645 35.4597
53.4274 24.522 32.6446
54.6058 24.8002 34.1317
56.7946 24.9649 32.3484
57.8224 23.9336 32.4385
54.855 24.0705 32.7421
52.1442 24.8124 32.6964
47.3123 22.9889 31.3749
54.2106 23.9862 32.7712
46.8703 22.8786 31.9381
51.4359 24.8788 33.9834
53.2439 23.033 32.2102
47.5705 25.1777 34.6852
48.0666 23.4368 32.2284
46.2023 23.0506 32.2895
44.6965 23.2672 31.1903
50.5807 24.8697 34.4614
41.8219 23.8113 33.5314
47.4856 23.297 33.446
44.1538 22.4912 31.9315
46.9073 23.8731 33.4106
41.9522 22.8801 32.8026
44.5666 23.182 32.7112
43.5574 20.4629 29.6285
41.9541 22.2178 31.1402
42.5864 23.0012 33.5966
46.0169 22.0711 31.9084
42.2901 23.0887 33.6323
42.8483 24.1291 35.2465
43.5515 22.6353 32.0338
47.6147 23.1541 32.7091
41.5695 22.0146 33.3313
44.9401 23.0639 33.1015
43.1663 21.7302 32.4908
46.2116 21.6307 31.6287
41.2184 22.0564 32.4274
43.6855 22.4524 33.2207
42.9969 20.9967 30.6947
46.6426 21.9963 33.0484
41.8086 20.3471 30.9418
44.1107 21.1919 31.1662
40.6699 21.3223 32.8192
45.7227 24.3111 34.7254
42.682 21.7609 33.6089
45.2037 21.0223 33.1651
42.5383 22.0559 33.1401
44.1093 22.5065 33.6138
43.9339 21.3771 32.9436
44.4355 21.1395 32.9792
40.6609 22.2264 33.925
46.182 20.4275 31.7794
42.4427 21.6593 32.7523
42.7034 21.0739 33.395
38.2054 20.1861 31.0364
41.8038 20.9291 32.9123
37.1898 20.162 31.4114
39.5373 21.1897 32.9108
37.8883 19.4886 30.4174
36.677 20.6521 32.4571
36.1999 20.2508 32.332
39.0656 20.6716 31.8544
35.8247 20.5856 32.9167
37.017 21.154 32.6335
35.8439 19.0761 31.6559
37.3086 19.5728 31.3324
34.7855 22.3389 34.2396
36.4845 20.6837 33.4851
37.2872 19.7703 32.3713
36.5041 19.5665 31.6751
33.8974 19.6614 32.202
34.2885 21.0133 33.1654
35.0855 20.8136 34.3359
40.1841 19.1409 32.1981
37.3773 21.2284 34.4105
36.7796 21.5167 36.9993
40.6387 21.0664 32.1509
40.7108 19.38 31.6378
37.1291 19.0947 32.1177
40.5122 19.6039 32.2182
38.2359 19.7342 32.7289
40.09 19.0583 33.0022
39.029 19.1493 33.8053
44.3091 20.3382 33.1869
38.1512 19.7079 33.9099
43.8759 20.0217 32.6201
38.8618 19.1328 33.0936
41.6968 19.6961 32.4892
37.3319 18.4033 30.2053
40.9471 19.0294 33.0402
37.9972 19.2934 32.7094
39.7955 19.741 32.9305
32.7909 18.9784 34.1987
38.975 19.1332 31.784
34.3244 19.2296 33.3955
36.2133 17.412 31.5738
34.8101 18.2544 31.0459
33.6094 18.7985 32.3194
34.2967 19.7957 34.2631
34.2512 18.6 33.2554
33.2735 17.8965 32.9559
35.0559 19.348 31.2706
30.9973 16.9001 29.757
33.5402 18.9731 32.9639
31.6487 18.3463 33.0002
35.5962 18.3495 32.1683
32.5577 18.871 33.2286
32.9579 17.2644 31.1125
32.6744 19.2797 34.6329
35.9783 19.8631 36.0484
33.8127 17.9046 32.4464
31.5456 17.7151 31.1348
33.7846 18.8445 33.1366
37.073 18.5729 32.618
32.7745 17.6357 33.8002
36.649 18.6225 34.4245
35.2789 17.8727 31.652
35.8791 18.0787 32.2426
34.776 18.5744 32.6898
37.3001 17.6663 33.6315
37.4032 17.8501 32.5151
36.8803 18.0698 32.6709
34.0763 18.3449 34.6899
36.6863 17.0994 32.6009
35.9029 15.9945 28.3299
37.3337 16.3769 30.9577
31.8899 16.2993 31.6967
36.4551 17.7892 32.7513
34.692 18.1034 32.7425
38.4125 17.6586 33.7722
33.7554 17.091 31.8856
35.751 17.4593 32.3451
33.9305 17.6448 32.6013
34.5544 16.8339 31.8735
32.9532 16.9347 32.2736
36.0967 18.2725 33.7845
32.3936 17.6503 33.0661
32.6779 17.2452 33.9758
31.7458 17.3208 34.6108
32.7628 16.7627 32.2006
31.1412 18.101 33.762
30.3317 16.6397 31.367
32.0477 17.14 32.9933
32.1129 17.006 32.9198
29.4336 17.397 34.9201
30.7007 16.2436 32.0589
30.0903 17.1667 33.0966
31.5354 16.9585 31.89
30.5034 17.4722 35.4289
30.8743 16.9396 33.0077
29.0117 16.5033 31.8115
30.7004 16.2217 31.4781
34.8846 16.9868 34.5359
30.132 16.5316 32.9213
30.0365 16.6954 32.209
33.0982 16.7648 34.7079
30.8563 16.0247 31.0235
33.3959 16.6621 32.526
32.0719 16.0639 32.6373
33.1838 16.0954 32.2485
28.7416 16.6069 34.2283
30.7432 15.6521 30.5669
32.308 16.1948 33.2109
34.0439 16.4724 32.8875
30.6641 15.7802 33.0581
32.1832 15.3552 31.5417
31.6616 15.778 32.508
34.4819 17.5246 35.5473
27.8173 15.5366 31.5032
31.408 15.1122 30.4439
29.4577 16.9586 34.535
33.2769 17.482 34.4717
29.6564 15.8164 31.7665
32.3438 14.6016 29.5131
28.1177 14.5476 29.9721
30.9292 14.9182 32.8064
29.1456 14.9385 31.3408
30.3694 16.4595 33.2583
27.4774 15.559 34.0493
31.3503 16.2214 31.3803
28.9143 14.5702 31.3481
28.5831 15.1779 31.9332
26.2904 14.6112 30.7014
26.8706 13.7409 30.1597
26.158 14.3478 30.4274
27.347 15.358 31.8762
27.4367 14.6339 31.637
26.5906 14.7887 30.9158
27.2619 14.4693 32.5141
28.3451 15.4636 31.5105
27.0138 15.4757 33.0696
25.7394 15.1334 31.7899
26.2661 14.7935 31.6323
28.8658 14.681 31.4869
25.5553 13.4699 28.9511
28.4267 14.9802 32.7184
26.6205 13.8875 30.9844
28.6256 14.5966 32.2535
28.5141 14.9687 31.6503
28.6451 14.3633 33.1331
28.1054 14.7991 32.1034
29.4583 14.0124 31.5381
28.7104 15.0185 32.8171
31.6132 14.2651 30.0585
27.7334 14.7308 33.0865
32.1672 14.8181 32.1814
27.8191 14.6792 33.7605
30.7794 14.6736 30.4225
30.2874 14.5696 32.3207
28.8819 14.2104 31.7626
29.4077 12.8299 30.9813
31.2775 14.1349 29.4594
27.2303 13.7476 31.0957
29.1368 13.6455 30.6719
28.1923 15.2402 33.9957
31.976 14.9849 32.8737
26.9407 14.0134 32.894
28.1193 13.9534 32.7463
26.1057 13.2968 29.7434
27.9973 13.5791 30.7016
27.6915 13.479 29.5124
26.4504 13.2381 29.7818
25.4267 14.0315 32.9475
28.1984 13.1636 30.2904
25.9875 14.5765 32.0228
25.2303 13.3834 29.8227
23.8031 13.4452 30.6066
26.7967 14.0652 32.8232
25.3155 14.673 33.6441
27.4532 12.8464 29.9036
24.6917 13.7671 30.7393
22.8842 13.3919 32.0225
25.757 13.4082 30.2058
26.068 12.4878 29.7327
23.4422 13.8031 32.0976
26.8329 12.8573 30.2952
24.1619 12.6288 30.3438
28.3132 13.2025 30.0364
24.8349 13.9186 32.6998
25.7723 12.8501 30.2492
25.712 13.9593 32.2857
25.9951 11.9456 28.6786
27.2619 12.8953 29.3654
26.9003 13.5917 32.3462
26.1779 12.8264 30.1383
28.5453 14.4628 36.0363
27.4589 12.7127 28.8277
29.6453 12.0682 29.0759
26.5146 12.9048 30.9577
27.8332 14.1035 34.6736
26.5395 13.2375 33.0484
28.5626 13.0478 31.7516
27.2747 13.3814 30.5023
29.6591 12.5388 29.9258
27.3524 11.7494 28.1878
27.7634 12.3709 29.5585
25.9149 13.4328 33.4965
27.7821 12.0863 28.7396
23.866 12.8027 30.717
28.9581 12.3726 31.4197
25.7934 13.147 31.5323
26.4532 12.223 31.4594
25.7478 13.5246 32.6301
26.4383 13.6796 33.7988
26.8179 13.4395 31.6884
25.1093 12.6524 31.4896
23.3513 11.51 28.5282
24.886 12.454 30.6785
23.5037 13.1849 32.7574
27.0812 12.1872 29.3991
22.6981 11.805 29.8176
