# pn-170911/CsIIA-32-PTBB-1280-1959.psd
# Power spectrum* (dif=0,1,2) (really just |FT|^2)
# NOTE: only the first half! (symmetric)
# weeks: 1280-1959
# 3 clock-days, 1 excluded
# PSD: 1441
437583 4.02154 0.0432971
2.59338e+06 40.5532 0.0846219
4.09536e+07 1036.39 0.0473456
3.02494e+06 70.4578 0.0805067
1.46613e+07 1197.84 0.223941
1.79286e+06 150.206 0.089389
736209 119.513 0.155708
967695 143.581 0.100945
610896 115.018 0.182101
457208 53.7543 0.0974638
230509 39.6298 0.125098
427362 166.563 0.21934
67762.1 80.5324 0.199722
320731 383.301 0.206162
119182 173.861 0.223689
91014.4 133.628 0.28348
138754 125.832 0.219695
139825 160.856 0.270955
129335 68.8773 0.236462
116534 170.12 0.443856
246335 346.367 0.572201
148721 223.003 0.516612
59729.1 156.582 0.504559
30890.4 20.9643 0.204007
43389.7 76.2618 0.320978
48209.6 58.1526 0.220212
76292.8 138.907 0.626876
51351.2 78.3065 0.486632
20667.8 49.3469 0.385096
61555.9 111.369 0.568853
6794.55 66.554 0.417082
65979.3 140.633 0.674627
43686.1 196.283 1.10388
45341 140.729 0.588281
52341.5 159.902 1.25417
16352 28.4358 0.0715058
8957.32 35.9755 0.342425
25892.8 78.5756 0.225694
27348.8 82.6124 0.716504
20430.2 73.491 0.607803
24215.6 79.4416 0.462835
11800.2 69.6982 0.837096
25651.6 101.713 0.625492
10822.2 58.3823 0.666431
9986.25 46.8045 0.378061
10510.7 22.5013 0.361112
14912.4 176.256 1.92949
12761.7 43.4368 0.385571
8854.74 138.05 1.28724
21733.2 104.911 1.40569
10813.6 38.6955 0.673562
6675.15 41.2653 0.657921
31215.6 216.474 3.6947
16415.8 205.118 2.50022
7173.57 48.768 1.10332
2589.43 60.891 1.02068
2187.88 32.5365 0.607653
4120.39 22.5686 0.414593
10753.9 224.724 3.79412
10546.2 54.0638 0.935619
7541.27 85.764 1.32861
29022.2 365.515 6.07835
2794.36 73.9429 1.08087
8661.91 121.664 2.22727
2777.77 67.3036 1.1369
3813.4 91.8139 1.73419
11666.6 127.636 3.22745
5470.92 114.991 2.77229
6722.01 166.313 3.67925
7087.9 57.5339 1.28243
5044.86 92.2751 2.33184
10766.5 125.488 3.01076
8443.09 108.827 1.98809
3036.24 44.6851 1.15383
2920.19 86.3978 2.06948
5758.29 175.272 4.13419
4200.57 119.733 3.23214
3329.41 76.2439 1.91377
3133.53 52.1462 1.5241
4327.56 88.0666 3.03668
3978.23 58.8765 1.6806
5851.04 66.0575 2.20484
8482.94 117.561 3.96771
2562.57 33.1353 0.969177
4077.83 109.424 4.23071
5135 131.351 4.21121
2136.35 70.9745 2.05748
834.683 43.7151 1.3417
3890.05 34.9072 1.30979
3383.77 112.056 4.21821
2941.81 77.3209 2.31101
2885.21 91.437 3.84696
2824.99 111.466 4.16148
4042.37 64.6671 2.03013
2272.29 93.5959 3.44424
3044.24 105.509 4.77797
2933.63 128.428 5.25009
3131.47 72.5655 3.79058
383.147 43.8437 1.81728
5871.45 115.436 5.10681
3686.56 91.6797 4.26546
3556.5 80.7711 3.49974
860.16 10.3678 0.689458
1927.7 118.493 6.0594
3373.88 194.154 9.68063
3077.26 75.398 3.96291
1914.33 52.1638 2.73502
1171.99 62.1825 3.67758
3268.55 70.7031 3.72346
1689.34 101.797 5.58371
5280.92 109.055 6.03012
3423.45 72.7111 4.46163
2782.17 80.7067 5.47122
2026.81 47.8889 2.88476
670.814 71.7848 4.05287
1686.48 46.2511 2.85494
1138.06 63.992 3.7745
1535.88 61.9045 3.87983
1093.07 6.22849 0.646268
1331.4 56.5135 4.29936
1956.17 55.1542 4.11832
2244.93 78.8475 5.20944
1439.51 71.473 5.20388
2753.55 88.5178 6.83615
1120.08 61.3561 3.99645
523.52 54.6966 3.20474
689.689 10.778 0.662011
1341.42 34.1874 2.01032
1867.1 74.8764 5.13405
2220.59 63.1569 4.82507
780.161 40.8283 2.73361
583.651 85.029 6.76983
538.051 23.0073 1.74522
1706.26 70.0912 6.86502
1452.85 25.5039 2.03283
844.25 41.154 2.6317
1628.17 120.294 10.7976
1233.48 52.868 4.75941
477.619 31.5567 3.22779
1354 120.323 11.6225
1676.95 61.3125 5.62088
375.29 55.7798 4.94976
1840.99 62.0963 6.29918
1402.63 50.681 5.47201
1035.36 33.1008 4.19683
587.989 26.4787 1.81567
1646.52 54.8229 5.30552
807.075 51.8952 4.55389
421.019 33.6579 3.14514
449.275 33.8125 3.59478
1598.57 126.569 12.0598
1180.28 39.3684 5.25446
724.028 30.8722 2.99016
213.932 39.0211 4.51665
1068.33 36.343 3.70395
1080.71 61.2648 6.85133
245.591 48.1972 5.73229
1325.56 57.7755 7.48354
484.428 20.4098 2.85833
1405.05 72.1318 6.75042
853.476 41.9114 4.74276
941.706 37.4702 4.91684
785.917 37.1046 4.99144
879.229 36.1009 5.21154
592.617 45.6067 6.45878
974.362 70.4168 8.13717
204.718 41.6534 5.02132
536.737 28.743 3.665
1236.74 59.8463 7.31691
1072.44 32.4718 4.09171
762.448 29.744 4.56049
750.554 40.8877 6.02748
682.517 33.4204 5.04753
230.424 45.0783 5.57564
927.712 40.4034 5.93645
1234.91 73.039 10.0186
685.69 48.7693 6.82582
996.476 51.2903 8.3431
422.375 17.395 3.15042
219.628 17.3434 1.99735
614.144 35.7921 5.6463
306.925 24.6984 3.9331
412.937 32.2002 5.39992
744.57 84.2152 11.5635
564.169 37.5057 6.71452
798.894 21.6586 3.53146
556.191 64.9154 9.82601
502.683 60.13 8.75221
850.939 86.6949 14.6117
204.767 9.8951 0.978307
75.5924 54.0816 7.48667
275.726 73.4558 12.7781
845.935 41.3497 7.69877
196.39 39.2785 7.13804
472.267 34.987 5.49667
381.052 41.5411 7.08505
632.841 35.1194 5.13852
807.972 67.1587 12.9395
199.996 30.4843 5.14449
279.746 23.6322 3.8968
523.561 60.7589 10.6238
147.623 53.4861 9.46368
262.488 32.3254 6.36579
332.424 41.2021 6.74895
267.735 35.2182 7.95281
296.1 11.4594 2.01927
842.65 79.6157 17.1329
747.928 52.32 9.44483
301.42 17.6306 3.54435
430.013 21.3038 4.24457
275.965 32.24 6.47096
541.117 27.5711 5.4814
569.367 40.0721 9.34091
400.418 49.2998 10.384
284.213 50.3974 10.9422
259.813 27.0217 4.94826
609.534 67.492 15.3011
248.634 17.0303 2.38837
520.865 62.2651 13.1624
259.548 25.5151 6.43205
219.26 22.3983 4.68991
414.457 20.5734 4.78507
258.366 24.8202 5.07536
330.393 18.4963 4.04707
352.832 11.6149 3.01972
428.455 27.2726 6.33615
274.972 26.2826 4.48241
827.283 68.8339 17.9598
125.456 14.5039 3.05324
433.407 22.7405 5.43785
215.068 47.2999 11.7051
279.177 10.2125 2.93094
418.432 32.7637 9.66499
419.587 32.142 6.5966
586.561 33.5686 8.03975
223.064 22.975 5.77198
226.446 20.5966 5.68392
145.01 17.7461 6.38097
819.119 47.9398 12.0622
326.176 17.4992 4.18175
289.339 31.995 7.24486
248.193 39.0195 10.2018
326.724 38.6986 11.0417
160.325 26.0963 8.42697
252.32 26.327 5.46439
221.574 23.6963 7.19214
314.795 12.4319 2.54276
413.566 27.3034 9.0407
191.962 16.3935 4.77833
331.327 18.1281 5.67528
559.212 98.2002 27.7154
349.216 16.8723 3.72076
366.586 59.8544 17.852
392.75 37.5394 10.0138
650.021 52.4285 19.23
276.019 27.6288 9.60613
309.743 23.7072 6.39238
99.1852 53.4382 17.9768
337.978 20.0319 3.81343
267.531 23.7149 6.83188
215.905 30.6899 8.80448
82.9838 14.2868 3.41828
56.721 23.0306 7.56408
338.397 31.8376 10.5048
131.673 7.52139 3.43619
466.494 42.7172 11.2088
257.83 13.6155 4.68922
309.563 38.1982 12.5509
245.834 25.6253 11.6858
374.789 42.617 14.8761
171.182 34.6963 8.72358
339.885 44.6873 14.0263
219.79 38.8454 12.7099
349.419 20.8503 6.68228
134.949 15.3934 5.57471
304.297 14.6261 6.0352
88.0678 11.5412 3.59739
152.065 7.78027 2.81236
88.2385 11.1451 3.58315
276.182 21.3169 7.76574
221.313 16.911 5.92752
36.458 22.0589 7.80856
293.967 11.2852 4.81305
176.565 9.96073 3.99041
143.427 17.2367 6.18645
118.204 10.5063 3.74928
216.517 14.19 6.04726
293.657 57.2072 21.0367
98.6319 24.2729 10.3023
180.874 9.86006 4.22079
237.73 23.3386 11.2647
412.936 61.8615 18.0835
184.192 34.9431 15.7585
280.925 29.3911 15.2924
327.798 40.1538 11.9502
168.607 23.5052 9.12255
174.495 6.09067 3.91541
135.314 16.5441 4.54089
173.399 19.8235 7.54432
186.464 13.8742 6.66102
90.9884 37.5557 13.6994
161.691 19.7759 9.76211
109.395 20.2845 8.46803
112.855 19.0916 7.70722
209.442 21.2715 8.59573
273.143 34.8267 13.8376
213.538 12.0529 3.85088
174.491 18.1162 7.60731
76.5194 16.945 8.0427
261.292 21.6088 12.4692
132.115 28.4767 9.6242
182.988 18.1864 8.5914
148.997 36.2958 17.4278
249.056 31.1025 14.1259
251.784 11.9778 4.66949
138.346 32.4842 13.1573
392.903 31.0447 14.0329
103.971 15.8654 7.34493
245.282 20.6428 9.25991
145.717 7.33348 4.29245
145.296 18.1159 11.4957
152.947 11.0224 4.09258
129.881 20.9444 9.84104
129.511 12.9074 4.98391
100.29 15.4911 11.1404
354.43 22.6471 10.0951
82.9716 22.1078 9.75863
218.367 10.4101 2.83561
229.037 43.0839 21.5285
127.324 11.7636 4.34561
255.381 31.5211 16.6559
44.5759 14.1634 8.77887
232.642 29.6783 11.0564
122.101 11.6366 7.07752
145.937 9.28223 5.66664
71.207 6.7728 2.92383
76.3812 15.719 9.5249
236.112 8.87889 3.89392
118.113 18.6023 8.55466
176.537 9.24858 4.65658
101.466 6.48056 4.53262
115.169 8.57738 4.10865
161.001 17.989 9.0438
128.655 1.76486 1.43135
383.056 50.7488 24.3059
158.249 16.8138 9.66926
163.381 6.599 5.6054
99.191 27.5001 20.5835
344.379 63.9881 26.3256
97.7891 10.92 6.82426
202.914 22.4194 12.295
67.9058 18.289 9.91809
129.226 26.4194 15.9488
307.394 57.8186 38.3194
75.3738 35.1849 17.0538
100.963 15.6536 9.88506
144.924 28.5246 13.0906
196.576 32.6794 22.4755
187.279 19.0848 14.1687
54.2778 5.77922 3.27156
126.252 23.7972 13.7435
150.138 17.0642 10.8077
114.807 21.0579 12.5254
23.991 22.8886 12.0399
114.154 15.512 8.09161
106.835 11.951 11.4382
154.044 23.6897 10.7196
139.003 15.0286 10.6419
120.895 24.1776 13.26
124.712 19.3604 12.3625
30.378 3.81916 2.48864
116.256 28.3431 13.9541
81.9304 16.9073 13.1068
129.048 3.69066 2.92693
95.3476 7.15651 4.68839
149.62 30.8871 22.9959
140.675 9.96674 4.54066
99.1158 9.29879 5.1358
204.277 19.1631 11.2006
64.4124 17.5595 11.9002
123.367 16.4312 12.2763
98.3277 10.0402 6.57403
58.7475 12.2968 8.69019
63.399 12.7788 6.8048
118.251 15.5836 9.53474
80.6168 7.46797 6.3826
74.7355 24.1271 10.6224
117.529 17.4716 12.8479
110.693 19.8808 13.5983
119.446 11.4272 8.12481
108.632 13.2599 9.22054
91.3 11.1249 8.93207
155.084 19.8403 12.9077
66.6113 3.09258 4.65938
107.272 27.2531 14.2325
66.8111 28.3156 19.7064
144.614 9.82373 5.76495
97.6128 14.6837 11.7141
135.11 6.78284 4.24308
120.79 8.65827 6.17086
78.0618 10.896 8.5537
205.787 12.4618 10.3748
39.4009 14.4171 6.59268
220.914 33.3916 29.0124
64.5325 5.03554 3.88255
64.031 10.8693 5.69664
93.122 3.8235 3.99453
157.516 21.8762 14.7885
99.9264 10.7809 8.42143
80.5871 8.38815 5.59661
196.896 18.1749 11.5331
73.9152 6.14589 4.77695
100.038 10.1893 9.68272
141.279 35.3872 22.0058
57.5783 16.0443 15.5404
131.754 10.0984 8.61071
89.8419 21.3912 20.7101
175.34 23.4225 16.3431
52.1732 7.26157 5.17085
59.2091 18.022 15.4799
79.804 28.6012 16.3925
54.3631 7.12226 7.96133
112.166 9.82241 6.16384
62.4476 15.2094 10.879
74.772 15.9949 17.7906
60.2756 10.0499 8.67777
99.1025 22.6044 15.1534
77.2268 13.4395 11.6164
81.7086 5.62592 4.66007
63.4245 1.9909 3.21823
97.8261 22.4542 16.8893
146.046 14.9876 15.1097
25.7497 8.46309 5.70891
144.721 12.3472 9.9079
44.5867 5.34182 5.56931
67.5786 11.9072 11.231
63.5597 14.8669 8.84027
92.112 10.3336 7.92925
93.9408 10.0814 13.1265
30.3162 14.445 10.9196
134.413 28.4742 17.0961
44.7597 8.48205 9.51096
103.865 20.0938 20.0253
54.5288 15.0385 14.0264
113.847 18.7695 16.1397
109.974 14.5967 10.8189
58.549 9.35008 8.11254
90.6684 3.38333 3.08031
56.9583 10.2918 11.0104
124.513 7.19666 5.51411
103.344 13.5765 9.96268
108.523 17.4794 18.3451
69.5503 5.86708 2.79092
40.5663 8.52722 8.27327
127.426 10.7295 8.73229
62.5509 10.6262 10.896
121.085 8.86368 6.29777
58.5726 9.21715 9.51761
134.046 9.21686 6.64048
60.0679 6.34751 7.58104
102.242 7.60291 10.0301
55.2897 18.5456 13.2059
75.6519 11.5819 10.4933
113.26 10.591 11.4614
61.5325 2.72293 3.34402
144.845 21.9476 24.9712
63.2755 16.1754 12.43
54.7863 6.92904 5.73298
36.9625 5.55215 3.81686
81.2173 15.8135 20.5252
58.7567 5.89522 5.27853
68.4411 7.46143 5.81603
50.4358 9.81211 8.26333
57.3538 5.90056 8.80534
64.5645 12.6854 12.0345
39.3166 8.49341 5.76764
56.1438 2.43394 4.11335
54.5188 6.12284 5.76891
45.0078 7.47437 6.99582
98.0606 14.9348 14.0386
34.2823 4.01424 5.03348
78.7346 2.08437 4.06775
34.1532 7.9261 5.89986
48.1267 6.26607 6.11276
51.1153 16.7697 13.7993
68.2078 7.17923 8.92794
63.9471 13.2154 12.7735
49.289 9.07436 9.56127
101.383 4.03346 7.59521
30.3074 19.9997 17.8051
112.677 17.0033 13.9623
59.8419 10.9106 12.5228
64.1754 6.19915 7.5483
92.5355 8.70491 8.68812
40.5353 4.47685 5.46664
92.9239 12.6793 13.1732
49.3015 5.81237 6.56903
128.741 28.3389 28.0902
25.4501 10.3874 11.2243
61.5607 4.55422 5.57507
68.3091 5.76902 9.39906
56.824 9.61002 12.9889
96.5064 11.7233 11.2599
65.904 5.73305 3.36345
129.361 17.8142 15.4067
47.8789 5.34209 8.13356
82.4114 6.78107 7.0035
73.9067 9.49642 9.18215
41.187 13.2934 17.5657
75.2917 3.59144 3.18668
81.2152 17.6373 20.6695
111.234 13.5017 13.5446
53.0812 12.6859 15.9487
72.0896 5.27736 4.46189
42.4486 2.93592 1.53674
51.8984 5.00979 7.33992
84.593 13.2173 13.5676
28.7254 11.1864 12.7397
96.4708 8.1713 8.96738
30.7412 5.97369 6.91064
93.6439 6.81658 6.46286
29.1585 7.44257 9.13039
73.0614 6.30335 6.38159
55.7955 5.55996 10.9857
45.9525 12.2845 9.02017
81.0358 9.8453 12.9472
38.8523 13.9187 14.5916
87.2289 4.18287 4.47882
28.3245 6.86733 6.86547
82.5267 9.54292 14.551
38.693 6.88645 6.53885
54.4051 5.66693 4.94823
58.4978 3.17694 8.51208
57.2881 11.7675 8.97178
58.8607 5.31641 11.821
42.1265 12.7307 12.5638
87.2711 5.79156 6.74588
60.9216 14.6746 15.4878
93.1405 12.7482 17.0269
41.0997 8.52716 10.1138
37.1268 1.06609 2.93081
55.3871 11.126 18.4393
27.0937 11.3519 6.74248
41.676 11.988 16.0334
44.194 1.23973 2.23689
83.0775 3.9215 5.36994
23.8488 13.7575 13.8603
71.186 20.392 26.7479
95.2751 6.32568 9.05356
28.1671 5.82125 6.88986
75.3495 2.93525 4.70301
49.466 7.06293 8.02993
58.9821 6.54871 12.6237
68.1098 8.00165 4.6626
85.8303 11.1764 14.155
55.2964 16.9453 25.1192
36.426 11.7514 14.7071
76.331 5.27819 6.00238
31.2938 4.36383 4.72496
49.7127 4.22432 4.94994
37.3684 6.12832 9.00356
50.7651 4.76322 6.59281
50.0793 0.622816 1.55275
42.2405 4.23857 4.81385
63.9848 1.39103 2.30485
29.282 0.632799 1.16168
72.489 0.590692 1.76246
56.5439 10.7654 12.3294
70.6827 3.72652 4.02575
43.4913 5.38949 7.20801
80.1998 23.2028 35.3684
43.0155 2.65488 2.84755
37.0924 2.12483 2.95123
68.6225 2.74208 3.22764
37.2027 3.98391 4.02283
88.7265 15.9978 26.7485
12.3745 7.35517 8.87003
22.0149 7.4152 6.73787
53.1668 8.07329 6.59909
28.3875 7.2914 10.0767
50.0402 8.55045 13.7983
46.955 7.22537 14.4616
68.7488 8.75836 8.58007
31.9783 5.71984 15.7061
47.3429 11.2964 9.29155
40.2916 4.82403 7.1848
53.3925 11.2624 12.0761
75.9889 6.60722 10.2026
28.2301 2.516 3.07215
66.0242 7.21971 11.5552
49.3122 15.2602 19.8927
66.9805 11.9772 18.7105
33.3875 3.66845 1.49168
36.6318 5.64603 8.04438
49.1717 9.64129 16.2032
40.4999 8.81365 11.9954
49.5212 1.59693 1.99913
18.2371 4.36894 3.36827
57.9314 0.827633 1.92647
27.2952 12.6995 18.3452
34.2645 7.91605 8.48477
39.1093 10.8109 18.9169
41.3544 3.53844 3.53933
56.0778 3.42254 7.71883
35.0552 0.752798 3.02559
63.6977 4.51476 3.32604
24.0537 4.23112 7.83564
72.4005 8.91378 13.7433
41.2126 4.19521 5.83304
48.1649 17.1393 25.0652
56.0842 6.62133 13.5122
27.8624 4.67206 7.75737
69.6881 8.40104 9.69662
30.702 13.0918 17.9704
53.1562 15.2354 22.5237
34.3701 7.25131 12.9607
62.1122 6.77056 9.24066
25.708 4.88369 10.3792
54.4433 10.7597 13.4519
43.2161 8.59945 13.3412
13.1304 9.708 13.4606
57.8589 8.66473 13.9412
46.5719 5.11696 8.79367
48.5029 3.81231 6.41989
39.3955 5.19617 10.854
22.9196 5.31195 9.92692
34.086 2.27024 1.89516
23.499 3.38712 7.15048
55.4155 6.41551 7.89152
35.6365 5.48138 10.799
26.9291 9.19615 11.9871
28.7436 6.15997 13.6902
47.8599 4.71885 7.04177
52.1303 3.94726 8.03397
34.2576 7.0903 13.6416
51.7311 12.3092 18.5036
45.9395 13.2547 15.8606
50.3072 3.48918 10.8986
33.7205 3.29998 4.70845
55.5343 4.4018 7.8634
46.8543 8.10274 11.6028
22.5906 6.69378 10.7372
34.1574 2.1916 4.14765
24.08 5.32205 4.12877
58.474 8.67769 17.0211
33.0201 9.13634 8.87269
37.3936 8.33313 23.7881
41.4183 3.69895 4.0584
28.3204 4.17892 5.41065
61.079 4.98347 7.39784
20.6518 5.43885 8.00007
50.6586 8.30773 13.1531
29.4076 4.84357 10.2861
43.524 2.22614 7.88333
20.0089 5.12284 7.34452
44.8063 8.94127 10.5893
35.7005 8.70887 22.3315
39.2694 6.5411 4.94071
61.8252 5.8809 8.44194
17.1287 1.93438 4.30048
43.2176 2.11292 5.3091
21.2465 4.64063 11.4502
45.5177 6.11846 7.58862
24.1851 6.19465 16.1808
40.6572 1.24183 4.67217
33.0128 3.53792 5.34545
24.2053 15.0604 16.9498
40.3385 5.97533 14.6861
29.7577 2.30868 4.19303
59.2733 7.86905 8.97696
32.5614 4.60054 8.63155
29.9906 2.25088 3.21488
28.8008 2.87927 6.46181
42.3761 10.3682 16.3437
39.9878 4.13788 11.8225
28.5735 10.4199 11.6547
46.3484 4.75254 12.1702
30.5287 3.59393 4.35541
40.7933 6.11916 12.831
41.1659 4.70838 10.5918
23.5361 4.04286 7.90241
35.3681 1.41043 4.7938
21.7256 2.39459 3.02258
36.5735 3.15198 6.93432
21.7015 6.42919 12.847
34.1496 2.69008 3.85665
35.2995 4.70524 14.2389
40.6824 11.6029 20.8845
17.9396 9.22029 14.9268
15.9802 4.74275 8.72648
42.0743 12.7339 19.7392
18.3634 8.5403 13.0643
51.1342 12.7131 15.1857
25.8909 6.70063 18.9624
25.0464 4.40058 8.30881
22.9341 7.8174 19.3318
29.3991 2.34909 3.54849
27.8273 7.08241 13.2465
28.2767 1.99851 2.15592
46.86 4.42227 11.6053
24.7492 7.51066 9.61282
43.489 3.57369 4.58779
23.7789 4.61245 12.6353
35.4644 3.22178 4.36736
45.0373 11.0165 22.1937
11.2538 7.10806 14.0718
34.2995 4.61587 11.9739
29.2501 6.97924 5.86482
28.9831 3.93392 9.48034
27.6518 4.3381 9.34816
34.8029 1.87104 5.37408
34.4143 4.04251 8.41814
19.1452 5.26582 8.09506
47.8341 8.40853 20.7533
21.3375 10.7281 21.3631
49.4562 4.43063 2.49945
22.4366 7.95504 22.2158
43.9534 6.99101 7.37636
29.1498 2.28404 8.27871
26.7454 2.94502 5.78811
45.7588 10.7958 17.0527
21.9525 3.31205 11.2493
41.3251 4.61841 12.4389
9.37792 5.90373 9.70449
24.6659 13.9157 34.9317
34.5976 10.8483 13.7276
26.1814 3.72069 7.07379
24.3266 2.23197 3.3989
22.7516 3.41737 4.54158
33.0263 7.44203 19.2488
15.0561 2.61396 4.09752
38.3359 4.6032 12.9653
31.916 3.54088 3.99791
35.5343 2.38545 5.91179
30.9801 5.43522 10.8289
23.8342 4.96826 5.7627
31.5701 4.45266 12.7092
21.187 1.88395 2.96747
41.5315 2.69871 6.35916
18.5566 2.49432 6.12453
33.0139 7.0338 14.0891
26.7893 1.1071 3.64682
37.1757 8.89723 11.3883
31.9502 4.63545 13.5092
24.977 2.6071 5.08264
36.0037 2.42591 5.6769
20.7471 2.22216 3.20155
36.6888 6.7718 13.1142
22.9964 5.52941 13.6238
25.3802 1.90079 6.79243
45.9102 12.1149 22.6157
23.34 1.20123 2.42134
30.2171 0.770845 4.55896
14.8328 4.51504 9.95132
28.9749 3.43121 10.0929
27.236 3.57386 5.00753
32.867 3.11957 8.96567
38.6056 7.73132 9.97877
21.7696 0.707246 1.63767
29.3399 2.79919 5.4106
23.3296 2.16501 6.60905
30.8101 3.53869 9.34519
17.3987 4.45376 6.8362
26.5421 6.00527 8.59562
36.9289 11.5256 25.5894
29.7786 8.07964 22.5039
20.093 8.48496 22.987
33.4859 6.11955 9.56431
29.559 6.42352 9.32761
19.3879 3.70794 8.15756
30.3262 1.97527 7.28734
19.1859 2.77537 10.1745
34.7822 12.9277 31.4292
33.8799 11.4229 18.5582
15.9227 2.67503 5.1509
25.2733 1.15056 3.42248
21.2866 2.74156 8.43495
21.0493 6.59229 17.423
11.3643 5.34059 6.76393
25.1045 2.82528 6.60687
24.4808 3.66499 5.83525
20.6371 5.13786 23.7664
27.8903 6.27618 5.52128
19.3806 0.296534 2.13553
28.2543 2.11605 6.01334
13.2585 3.24003 4.95041
28.8212 7.68387 13.0019
15.1927 2.65131 6.80919
28.0666 4.66589 10.579
24.1415 7.78819 21.5846
24.1114 1.05448 9.61974
26.7618 2.50214 5.87972
19.1444 5.01039 6.03104
33.6546 0.207193 4.14035
22.024 4.98305 10.1118
41.0043 12.244 28.16
20.846 5.17255 6.86592
22.21 3.09551 4.91224
27.7586 2.17177 14.9427
11.3373 8.66488 6.75299
23.0817 3.81766 15.5662
17.6985 4.97168 8.0012
29.399 3.79858 15.6911
33.0888 4.28986 5.29735
19.8759 0.759777 1.24551
23.3284 1.83012 5.10886
18.8543 0.963597 2.0487
23.795 1.77843 5.99617
22.7599 2.0455 4.70122
33.137 3.0656 6.11659
19.7352 4.44009 6.95406
22.402 2.19134 6.02098
22.6283 3.14349 6.20892
15.474 2.27137 13.0062
21.2272 2.36326 2.72881
20.6445 3.43521 10.6241
16.5783 9.40752 15.3052
19.0816 7.96112 31.8786
42.6171 8.53999 13.6314
26.0565 1.39881 4.37306
24.141 3.2653 7.4232
31.7223 5.48887 6.83724
19.4424 3.02287 7.03602
37.6247 7.39997 14.6919
12.1518 1.97545 7.88441
25.5972 4.0447 12.5119
20.9245 4.17685 5.86379
19.8034 5.38669 16.6867
15.494 7.31486 19.5279
23.9666 1.2787 2.28205
28.3488 2.38888 3.41171
20.3679 1.53593 3.77948
26.1033 3.98318 12.0066
