# pn-170911/CsIIA-38-CsIIF-1280-1959.psd
# Power spectrum* (dif=0,1,2) (really just |FT|^2)
# NOTE: only the first half! (symmetric)
# weeks: 1280-1959
# 527 clock-days, 461 excluded
# PSD: 1441
75598 2.87403 0.0859509
3.35407e+06 55.3211 0.185345
1.81334e+07 359.521 0.206932
2.83987e+06 105.949 0.222111
2.94235e+06 203.796 0.231173
975738 95.6222 0.189547
741344 103.12 0.295267
501485 99.5731 0.235316
423051 102.727 0.319402
310125 95.0116 0.475369
272911 97.3625 0.333664
221842 103.267 0.18751
185620 104.189 0.247459
155109 101.044 0.254279
138344 104.967 0.371727
121304 106.341 0.373081
103153 104.499 0.325329
85796.1 94.7259 0.429576
77592.4 94.1961 0.400231
70620.5 99.4448 0.372502
66230.8 104.034 0.409216
63074.9 96.8988 0.447688
55970.7 101.793 0.477224
49005.6 96.7874 0.486133
45878.5 101.273 0.591097
43381.9 100.97 0.701034
40642.1 100.249 0.668044
35073.6 98.0002 0.529222
36269.6 108.063 0.599761
32136.5 101.729 0.728798
32623.8 101.485 0.69629
28996.4 100.087 0.662117
27712.9 105.12 0.744192
24745.1 99.3807 0.711676
26263.4 104.321 0.812152
24035.2 105.472 0.809222
21776.2 106.915 1.07525
18692.6 98.3279 0.869071
19467.1 96.0099 0.894635
19362.1 97.5075 0.979604
16142.7 91.353 0.998162
15401.6 99.4785 1.05524
15873.4 101.171 1.12614
15076.7 99.7017 1.04994
13285.9 93.8751 1.16701
13816.8 96.0664 1.11874
13031.9 92.9716 1.29374
12428.5 95.623 1.31086
12646.4 108.688 1.44598
11499.8 93.1112 1.34133
10314.9 97.1008 1.46263
10221.4 93.265 1.44802
10978.7 104.128 1.53095
9682.78 99.9632 1.47128
9656.6 102.292 1.53128
9402.66 95.9372 1.61171
8422.65 97.1915 1.66703
8921.08 94.6839 1.91972
8426.49 93.1359 1.68276
7890.63 98.2614 1.8853
7462 98.695 2.03508
7657.38 100.219 2.22743
7243.62 100.817 2.06448
6807.78 96.4609 2.18982
6753.71 99.3125 2.19551
6169.79 93.8415 2.1602
6848.31 99.6013 2.18519
5720.42 91.9567 2.11018
5996.66 91.6417 2.34797
6000.7 93.6404 2.16169
5571.36 93.3349 2.33722
6344.26 100.593 2.7212
5537.43 95.7605 2.67441
5630.69 100.899 2.72221
5069.4 95.1618 2.76881
4665.91 89.3672 2.84443
5204 103.738 3.21943
4792.95 96.0684 2.84314
4992.51 98.8185 2.97686
4405.84 90.8521 2.91453
4415.88 93.7762 3.21252
4649.73 97.9484 3.15805
4500.67 98.2809 3.2259
3983.4 91.589 3.29468
4050.92 94.2624 3.32326
3696.11 95.2841 3.50685
3868.31 100.67 3.8378
3906.47 95.3121 3.71615
3598.04 98.0688 3.90213
3607.16 98.3541 3.84036
3478.27 95.5433 3.88407
3725.28 100.115 4.08577
3135.48 94.9631 3.9673
3127.91 98.3358 4.43802
3071.85 91.7907 4.16802
2999.23 90.4033 4.14217
3018.62 89.7996 4.06175
2857.78 89.7936 4.2053
2923.91 95.4673 4.68656
2655.5 89.8264 4.25706
2703.14 93.9498 4.69489
2694.96 91.5827 4.6766
2469.41 84.3191 4.39709
2721.59 101.127 5.25158
2716.41 99.1111 5.07581
2403.06 91.9605 4.84638
2421.03 89.9503 5.00742
2422.25 92.1111 5.19178
2265.1 87.7176 5.08686
2658.24 106.949 6.27301
2338.7 94.6542 5.68762
2188.94 99.2085 6.11258
2100.7 90.6844 5.62441
2058.18 93.9687 5.90431
2127.89 88.8972 5.66075
2125.17 96.3817 6.53286
2062.27 95.16 6.14644
1976.6 92.2071 5.94553
1915.28 94.3091 6.33846
1960.63 96.7026 6.51096
2115.05 104.085 7.22256
1940.28 98.8047 6.95125
1773.53 93.7554 6.71566
1623.03 88.222 6.45926
1776.24 94.994 7.09177
1656.61 91.6202 6.90574
1657.52 90.2299 6.7536
1674.82 90.3105 7.00979
1660.95 91.0594 7.16486
1643.79 93.1915 7.51146
1637.41 98.5727 7.91326
1512.11 91.6554 7.68494
1463.17 94.9598 7.86959
1391.5 85.2459 7.0813
1423.8 86.3783 7.65071
1366.06 84.4008 7.33502
1450.87 92.7729 8.20426
1480.43 87.1783 7.83365
1294.55 88.0766 8.05173
1418.73 102.218 9.50768
1286.49 91.2255 8.32736
1300.57 89.9352 8.61247
1282.91 92.503 8.75458
1252.4 89.7151 8.84571
1260.87 89.3041 8.59548
1317.89 99.2795 9.83441
1190.32 87.8375 8.81172
1246.36 92.4971 9.58036
1208.39 93.522 9.80372
1171.22 87.9194 9.15456
1138.2 87.6241 9.45641
1077.47 86.2058 9.53217
1007.41 84.6123 9.42593
1072.18 85.008 9.66369
1106.55 89.5696 9.90248
1040.17 83.1344 9.46895
1145.37 90.8335 10.2519
930.387 85.4208 9.96448
1063.67 88.2869 10.3007
1023.77 86.7084 10.4081
953.745 89.7955 10.8675
979.754 86.1088 10.7991
1090.65 92.483 11.5154
1016.52 93.8748 11.6252
839.809 81.5435 10.4742
911.87 90.913 11.9764
977.288 91.417 12.0091
942.668 84.5007 11.4161
927.096 87.8501 11.7301
884.672 87.2245 11.5384
905.225 87.3334 11.7631
819.693 82.4279 11.4162
821.57 82.1777 11.3792
854.216 86.2294 12.0548
999.4 86.3331 12.3729
824.053 81.7762 11.8542
822.23 89.6686 13.05
878.382 90.6776 13.5062
829.933 90.5001 13.45
820.86 85.4634 12.9311
868.803 84.4281 12.8445
850.194 89.4674 13.7569
827.366 88.4555 13.7082
726.27 84.7129 13.2587
779.048 85.7452 13.7775
836.197 88.3407 13.8901
798.562 89.2291 14.5455
833.003 90.9605 14.9868
772.939 88.7041 14.6041
749.879 88.4073 15.0793
636.388 80.6389 13.9662
664.894 83.0633 14.3608
733.627 87.3279 15.0608
729.091 87.4288 15.5169
673.771 88.3241 15.5588
749.022 92.3432 16.2676
702.212 86.6731 15.8581
680.144 83.5503 15.2927
685.263 84.5869 15.4797
713.276 90.576 17.0153
636.624 88.6771 16.6683
642.084 81.5968 15.1812
639.291 78.9384 14.8236
672.866 84.5261 16.592
645.744 83.3341 16.3316
614.356 83.6752 16.6348
699.497 83.5271 16.6958
630.031 81.4264 16.4513
602.354 84.2213 17.5941
618.773 82.3706 17.0358
675.41 82.7315 16.9851
606.08 83.453 17.6423
556.7 81.0334 16.8566
558.325 78.7364 16.7359
586.822 83.1404 17.7128
569.423 82.5768 18.0833
549.496 79.9748 17.5287
584.744 79.7698 17.707
551.599 79.6344 17.9162
507.76 72.5792 16.4854
594.369 82.865 18.7442
490.411 76.2073 17.2819
577.881 86.0311 19.7766
555.173 82.0947 19.1752
479.333 75.8655 17.7069
541.662 86.1048 19.9975
451.308 74.7254 18.007
485.726 78.0174 18.8561
510.844 76.4565 18.7106
502.063 84.2861 20.4592
495.146 74.1117 18.4647
481.115 76.3729 18.7025
458.795 76.597 19.2351
455.154 77.9581 19.9701
456.087 76.7477 19.7261
440.274 73.9065 18.9707
483.512 82.9259 21.2409
477.718 75.7669 20.2157
475.276 80.8323 21.0275
428.072 75.9161 20.2988
447.42 81.167 21.7525
480.071 80.445 21.6439
440.207 71.82 19.9484
460.893 80.7975 21.6465
418.782 76.5101 20.9096
427.353 75.9075 21.2411
386.592 75.7832 21.0564
420.001 76.5545 21.6073
406.55 80.0406 22.5668
414.791 73.8785 21.4381
416.807 77.3345 22.0792
406.552 73.127 21.6848
425.388 79.6627 23.8317
401.407 72.7984 22.2249
392.926 80.4743 23.9622
433.215 77.8612 23.0122
438.72 83.8543 25.6284
421.424 80.0561 24.723
437.143 82.3986 25.5495
351.609 77.2298 24.1401
392.649 76.619 23.9885
371.517 74.5764 23.1517
376.534 72.3924 23.3091
386.868 78.9943 24.9905
335.841 75.6287 24.4646
383.544 80.0425 25.8954
351.965 79.0595 25.2941
357.971 76.5445 25.004
342.113 71.3592 23.9619
324.474 73.7859 25.3687
362.427 77.7497 26.0935
367.46 80.8706 27.237
341.934 71.1298 24.1003
315.194 75.6997 26.5419
331.033 72.8243 25.2875
338.933 73.9631 25.7163
315.607 76.7692 26.7367
349.649 80.2726 28.9897
306.26 69.6771 24.5664
319.47 73.5967 26.2621
289.605 75.8408 28.1028
293.631 72.1964 26.4904
324.031 69.863 25.4161
357.236 77.16 28.3357
334.722 70.7607 26.8364
314.485 73.8255 27.7022
344.893 71.6903 26.5121
377.031 72.2369 27.8515
302.654 66.5188 25.237
312.889 73.6712 28.4295
413.61 74.6451 29.2048
316.502 73.4711 28.5766
347.62 72.4879 28.3054
263.483 73.0448 29.4523
370.995 77.4502 31.2307
273.498 74.5709 29.9489
305.36 73.8233 29.3493
276.432 70.1856 28.8191
270.962 69.6301 28.717
278.233 64.8316 27.6009
266.613 77.4001 31.4013
245.478 74.6407 31.1716
282.031 69.4825 29.0074
245.552 69.6344 29.6795
234.646 68.8993 29.2006
271.328 68.1292 29.6221
297.47 71.8965 30.9162
329.85 71.6609 31.9094
240.885 69.0214 29.6545
226.241 63.8596 27.7957
255.63 69.8702 30.5351
253.309 69.7578 30.7689
285.152 74.4878 32.8563
243.513 65.8294 29.6721
248.542 71.1917 31.8053
241.117 76.6191 35.0015
254.456 68.597 31.976
258.266 70.0652 32.2698
277.092 74.7451 34.0091
252.312 64.8364 29.505
223.71 68.5348 33.0956
240.366 68.2268 32.1992
219.171 72.5072 33.5827
265.547 65.1889 31.1467
240.356 76.6106 36.7759
222.042 66.1845 32.5224
253.926 72.9302 35.4707
238.314 70.89 34.1054
260.055 70.6337 34.7219
233.063 65.5626 32.8312
222.794 67.154 33.1016
216.623 63.9174 32.1716
207.865 65.2469 32.4833
227.927 64.2649 31.7947
250.374 65.4986 33.6496
203.845 62.7795 31.7076
229.866 67.3888 34.9786
205.715 69.8625 35.6848
199.375 64.4041 33.9031
221.808 67.2694 35.7359
220.228 66.636 34.2253
213.888 67.5617 36.8172
207.141 68.8024 36.1423
231.297 62.6109 33.7313
221.243 66.9863 36.176
206.973 65.9718 35.4223
207.925 65.5138 36.0018
223.878 65.3519 34.9895
210.37 64.7871 35.7765
192.912 71.1981 38.4676
210.019 65.0345 36.4707
188.947 64.8525 35.5751
177.56 62.9466 35.4327
185.625 66.6406 37.9576
203.029 66.3681 37.6074
183.267 62.7043 35.0965
215.709 66.379 37.9908
224.716 67.4605 38.1967
216.751 69.4344 41.4771
216.301 68.0246 39.0728
185.553 68.0987 39.7076
206.375 65.3202 38.8894
209.264 66.7326 38.7004
184.401 68.8524 41.2626
178.972 63.2524 37.8802
194.509 66.4253 40.4161
203.786 63.5835 38.8073
218.938 60.4994 36.9238
183.651 64.7593 38.9838
218.904 68.5041 42.3606
202.238 63.2516 38.1706
182.137 59.1287 36.7001
184.089 63.1793 39.712
200.011 66.6499 40.3774
158.605 63.3256 39.88
187.989 65.6342 41.7688
176.351 59.1872 38.0164
191.899 60.5504 38.8614
165.824 65.1819 41.7894
175.217 62.461 39.6098
192.935 62.2755 40.7826
180.881 61.2046 39.8835
182.121 64.7807 42.7397
148.941 59.8429 38.716
219.448 62.1583 40.8821
171.596 66.214 44.8186
171.262 66.6512 44.3068
165.951 62.5555 42.6158
149.085 59.677 41.0075
161.75 62.3685 42.0725
167.731 59.9169 41.4831
159.859 59.7172 39.2786
165.318 59.5302 41.6732
180.503 63.8592 44.9399
170.052 63.764 44.3994
163.777 65.2147 46.3314
179.324 60.1705 41.5023
138.41 60.3644 43.2579
169.974 63.2048 44.3197
152.843 66.4925 46.762
152.848 59.33 41.4032
184.432 59.8274 42.813
148.949 63.3329 46.1028
155.462 61.8868 43.5072
138.991 67.4713 49.5543
145.999 61.6793 45.0351
135.04 58.5364 43.2143
132.821 59.8974 44.5638
157.674 60.6285 45
124.735 59.9274 44.1055
170.09 59.3355 43.9229
140.245 61.2919 44.8214
162.051 63.7588 48.3944
140.531 60.3362 45.9537
134.516 56.684 44.2114
149.776 61.7769 46.1731
139.821 60.5878 46.1084
160.884 58.6713 47.4038
132.424 56.9021 44.1992
120.323 55.3229 44.0889
130.745 61.2091 47.1679
127.774 62.7364 48.7786
121.856 59.512 47.4734
132.274 61.3264 48.1806
131.91 57.6131 46.0955
117.999 63.7159 50.784
120.395 62.1946 50.6208
127.234 57.6437 46.0649
128.839 57.2088 46.7295
117.508 60.0745 48.797
124.486 56.7839 45.4404
142.367 57.7101 46.5855
115.677 55.6333 47.3014
126.343 60.5552 49.3143
121.089 60.0803 49.8636
144.728 58.6523 47.8048
114.576 56.5095 48.1385
110.402 58.651 50.3701
124.047 57.8485 48.444
130.038 56.8637 47.791
126.19 55.5957 48.2207
129.867 58.2638 50.2035
123.883 54.703 47.98
103.665 55.5353 47.4536
119.405 54.9828 48.1454
105.757 53.7147 46.84
128.825 57.5575 48.3273
106.724 57.8495 50.7269
112.759 55.4929 49.1156
126.651 59.3688 51.8862
100.541 55.7747 48.7792
102.327 55.8747 50.4989
101.966 54.1068 48.7082
97.2419 60.7892 53.7077
112.014 57.0064 53.4692
114.537 53.9418 48.4205
115.186 54.3537 49.0217
96.6 54.3075 51.9529
113.152 58.2616 51.6468
102.172 55.5116 51.9357
111.733 55.7806 51.876
114.353 53.4288 49.274
114.731 60.9577 55.7559
100.92 56.9571 53.7678
100.777 56.2187 53.5868
112.343 58.3075 53.8554
88.402 51.9515 48.9744
97.5122 55.0677 51.7781
113.04 58.6521 55.6612
139.192 52.7214 51.6174
100.233 53.1142 50.9563
92.7313 55.1152 55.1366
115.049 59.6749 58.5074
125.991 55.8075 53.0999
104.74 55.9547 54.2982
107.453 53.8517 51.9475
118.154 56.5111 55.3063
93.441 54.5234 55.0366
122.999 59.3134 56.5654
100.47 52.0989 53.8053
130.643 53.8434 51.926
99.4244 54.7461 55.8197
108.765 53.1824 52.1333
108.47 53.4346 55.9849
110.847 57.4214 57.7806
126.367 55.8584 56.2206
95.6742 60.2454 60.4843
105.729 56.5562 57.7988
94.4777 54.3938 56.7651
128.427 53.9517 55.2535
85.7439 52.4482 55.8171
94.946 52.5897 56.2542
109.451 54.6335 57.6699
116.905 54.0822 56.3836
112.442 56.1968 57.6418
90.9223 53.4367 57.7534
91.5618 52.6292 56.6656
112.697 55.9811 60.0334
99.7707 50.0478 55.3524
109 51.7481 55.4908
127.088 55.7527 60.1636
113.374 53.6636 55.7324
98.499 53.3475 56.1667
113.427 49.7764 53.1682
116.851 58.4574 63.0505
95.4693 50.1916 55.6079
109.694 57.5164 64.0246
94.6481 50.4834 58.1698
93.1284 55.2126 59.2502
93.2286 54.9683 60.3094
96.2082 51.0775 55.4285
108.607 53.9524 61.5212
98.4335 53.4893 57.5175
84.9062 51.4944 59.7933
95.8395 56.9871 63.4493
91.1904 51.6359 56.3138
93.6442 49.4618 57.9518
83.6343 52.8627 61.104
86.7163 49.5265 58.6484
96.9577 52.2901 59.8604
97.5617 52.3548 58.7819
100.353 51.476 59.6317
85.9852 54.0951 62.1576
89.8368 49.9559 57.7604
94.1169 47.2684 55.2587
86.0833 49.2311 57.4438
87.6867 49.8327 58.7983
89.068 50.0989 59.856
86.9258 56.0478 66.8639
96.1862 53.5403 62.6887
91.6339 52.6514 63.0436
86.75 51.9472 62.5288
89.8038 50.8145 61.4528
97.0435 52.9357 61.8067
97.2134 52.3783 64.3352
97.7844 50.9049 61.2974
80.1346 51.3947 59.526
104.977 48.2691 57.7802
82.2354 49.3188 60.2765
77.5114 49.3394 60.3843
86.317 50.3841 64.7232
90.7625 53.4271 67.5005
83.1182 47.7386 60.1784
83.4299 49.1054 59.9633
81.7744 49.123 62.4993
83.8826 49.7681 59.7802
70.7168 50.941 64.2451
76.605 51.7007 64.9518
67.6786 49.5431 63.4904
76.0132 52.8766 67.2625
74.864 51.7436 67.1719
67.6484 46.705 59.7264
71.8048 46.6276 60.9165
80.7882 47.3644 60.8638
78.0765 47.7626 61.3903
73.3569 46.7493 58.6059
74.3341 44.2913 60.7599
95.1549 53.8581 68.4031
76.3594 49.201 65.4201
81.775 52.4588 68.358
75.1587 51.438 67.1387
78.4779 53.3101 70.5435
68.2133 46.9453 62.4363
70.1461 45.2998 62.0804
103.297 49.5499 65.9902
69.0248 51.6208 70.6405
75.2359 50.7677 65.894
88.8625 51.1639 69.8158
72.4112 49.4166 63.1825
76.2232 46.9062 67.0633
71.0043 53.009 70.1474
83.0829 49.2682 64.7547
70.6162 50.341 68.5358
69.4344 48.7316 66.7305
81.2998 48.0868 67.0949
76.2256 45.4526 60.7896
62.2848 45.1848 64.345
85.1436 49.8578 67.2549
75.9331 51.5366 70.9793
104.151 50.4782 71.9576
76.8678 44.7774 61.7902
72.2406 42.872 61.7095
86.2153 44.2228 60.1435
74.1857 45.5599 63.0579
75.9689 49.2925 72.551
81.3484 48.0356 67.8967
74.8685 48.2663 67.8921
75.0306 47.3305 66.3885
80.6938 51.5763 74.8435
65.1006 49.6478 72.2741
66.4791 46.7229 66.4415
74.3245 49.9222 71.5605
62.1633 46.5529 67.0791
72.1631 51.3859 74.3712
69.1878 45.955 67.4125
67.8612 50.9267 72.8446
70.8343 47.5297 69.1813
55.4728 46.1858 69.8582
64.5957 46.4422 69.155
54.8042 47.3131 70.9222
59.4181 51.943 76.8524
70.3648 47.6037 68.5173
55.0615 46.3944 69.7205
61.3532 48.4976 71.9272
57.5419 50.2395 75.6075
58.7903 45.2672 67.1144
68.0213 47.4726 73.0968
70.6253 50.9538 72.6505
57.6348 47.3549 74.4907
62.0328 48.248 73.402
56.7927 48.4547 76.2601
62.2766 48.037 70.0127
61.6707 43.6959 68.7976
57.8979 47.8741 72.6629
72.9438 48.8391 75.1953
53.0027 44.0386 71.6522
57.667 44.1976 65.3653
61.6156 47.0033 69.5969
55.6354 43.7154 71.1016
61.362 49.5815 76.0642
59.0155 44.5326 67.6288
75.9084 46.4471 74.0462
58.0987 47.1785 72.3333
78.1358 48.4169 77.5715
53.4072 46.6422 75.6164
64.2738 45.2881 71.0176
58.5253 49.4684 77.0813
59.1005 48.2474 77.3091
57.1313 47.2352 79.7235
63.3242 48.9015 73.2549
59.1369 47.5107 77.5583
51.8686 47.2142 73.5741
62.336 45.3405 74.6806
64.0761 42.7961 73.2492
61.7 50.1108 77.9826
64.5555 42.8226 71.1231
57.7041 48.2121 75.3705
70.2519 44.7026 76.7988
59.7336 46.3167 77.0028
71.7997 45.7278 71.5867
66.1236 44.4469 74.4337
58.7176 46.4019 78.9584
59.543 48.3678 80.4258
52.902 42.8244 70.0359
61.5902 42.3972 70.6639
53.4147 47.0404 78.5443
59.1374 46.9762 77.8295
54.0543 47.0132 77.6116
59.783 45.7641 77.3846
59.1466 43.1216 73.5285
61.0267 46.7815 78.2649
55.5063 42.5817 74.2984
75.8246 45.9668 74.4199
71.0029 46.5401 79.194
57.3482 45.0856 78.3329
67.3818 41.7416 67.8559
76.5557 43.4574 78.0134
59.9992 45.7812 78.6678
69.5741 40.2002 73.8253
68.1901 48.5902 81.2165
59.0805 41.9161 74.4914
60.9637 46.4491 81.1539
59.1713 44.3966 80.0497
60.447 44.1015 72.8998
56.8945 44.884 80.59
58.0577 45.1268 75.5664
66.995 48.4567 83.7716
62.0714 44.2666 76.5464
65.4158 46.8518 83.4443
48.911 43.24 77.9407
64.5697 44.6929 80.4778
57.6558 44.3501 77.6797
60.664 43.0496 79.1484
52.7715 42.8671 78.8055
53.2962 42.9208 79.0298
60.8602 46.1654 80.9
64.9548 40.5492 73.3556
56.8225 42.2601 71.766
55.8832 43.5569 80.631
59.5688 44.5691 84.0656
62.5833 44.3577 81.394
56.0018 43.5394 77.1535
45.1663 42.6564 81.374
55.6552 42.4373 76.3706
56.4587 43.1354 82.7951
54.5862 41.7452 72.7042
51.114 43.46 81.1055
55.0671 40.1791 78.8417
64.6287 47.835 86.6516
60.2666 44.8792 82.5662
50.8619 41.0317 78.3586
53.4297 42.5892 76.2207
64.6022 42.1062 82.2891
56.0654 44.4911 79.7472
59.1649 44.5869 83.1938
50.9064 41.9982 78.5773
54.1636 44.7277 83.9842
49.0657 43.2432 82.7911
52.6698 46.7884 89.3583
52.9929 42.2497 78.5545
45.9635 43.1234 83.7523
52.2865 42.8603 81.6374
54.9448 42.2549 80.4424
45.8276 38.5003 75.5449
50.157 45.0696 87.567
59.7957 42.073 81.8
55.2878 42.4385 77.4748
60.3702 44.2405 90.6043
46.3698 43.2358 83.9172
60.6431 38.3603 74.7209
64.686 43.7742 83.3862
56.5722 41.0732 79.5849
47.1504 40.8671 78.9172
48.3046 42.3742 85.6818
50.5863 41.236 82.3761
64.8176 39.0637 76.7047
56.9354 40.5738 81.8457
68.758 39.2835 81.5771
47.5165 44.5949 86.5422
55.0549 41.4189 83.9554
47.517 43.2914 86.5536
62.0972 41.6842 82.6672
60.1091 42.2361 82.2766
56.8758 42.988 86.9672
59.2775 37.3491 76.3463
59.1996 43.1336 86.3978
44.8291 40.5184 85.6145
48.4723 44.7055 92.5194
46.5047 42.2564 81.296
45.0961 42.1563 83.9474
57.145 39.5783 79.6743
41.8703 38.1005 80.3718
46.4933 39.9545 82.7488
53.4994 43.3392 86.7023
47.7664 39.6105 81.6558
71.2278 43.503 91.5921
41.8689 41.6899 83.887
42.7275 43.484 89.5966
45.2043 39.8626 84.3795
47.702 42.1827 86.8773
42.3621 42.4496 85.437
46.4695 39.0427 79.6453
38.4921 40.6716 84.2657
43.1886 40.981 84.8663
48.3386 36.3675 82.2485
41.0376 40.8718 85.9271
49.8946 41.2328 84.5919
41.3605 40.3107 89.2823
42.8983 41.2264 85.915
38.7515 40.9048 86.1745
41.7463 40.2175 85.8343
42.1703 38.6548 85.4969
34.8446 38.7238 81.2691
51.6039 42.3973 86.1791
53.9942 39.0618 88.3326
39.5205 38.9472 82.7759
50.9165 41.6484 85.0942
39.2893 40.7137 89.7629
49.0237 43.8383 91.6483
45.7882 45.8407 97.8561
34.3559 38.4652 85.2932
34.3572 41.1774 90.6525
39.583 38.5949 88.0217
41.904 40.6821 87.6376
48.7292 41.1301 91.9367
40.3173 41.7834 89.7558
43.6885 40.5889 89.3813
47.0703 39.7801 87.1087
50.983 39.9639 86.925
41.0167 38.5233 85.4687
36.2369 39.5304 89.8716
42.2174 40.932 92.497
40.4132 41.8383 90.7455
50.581 38.3519 80.0603
47.5807 42.1202 96.0853
39.0368 42.6113 92.8641
42.5292 36.6394 83.4701
35.8737 39.5189 89.4384
39.6482 38.7023 86.7882
42.2505 39.8977 93.548
47.5828 39.4839 85.5685
43.0045 38.3628 86.2859
35.9505 37.682 86.9574
47.0829 38.6192 86.0533
39.3855 37.9118 85.8369
39.832 34.3609 84.4126
45.7699 36.7365 84.2835
40.1813 39.4134 94.1546
36.9114 41.2326 94.4914
41.3356 39.3726 92.5639
36.2949 41.8569 90.6671
41.7962 38.6374 88.8617
37.5785 39.5756 93.9353
45.018 40.0667 88.0944
41.1473 39.3135 93.4304
43.1825 43.2911 95.0548
37.9498 39.5089 89.4536
41.691 38.752 97.4562
35.2105 37.0389 86.9117
36.88 40.0623 95.9949
34.2542 38.0739 87.2741
41.5424 37.1715 86.33
37.2847 39.6867 94.226
41.2109 40.4107 94.7737
37.86 35.408 83.179
42.1779 38.5625 85.817
46.0548 38.0196 85.9901
43.47 38.7756 97.4617
46.9855 38.8941 92.6033
47.9387 39.0851 95.4132
48.1488 39.2975 93.308
54.3935 38.1228 94.6982
47.8487 38.2068 90.6746
53.3306 39.5499 95.0457
58.9483 39.7072 89.1043
46.233 37.0694 87.2018
45.0137 45.1241 106.456
45.6479 37.3229 90.1073
38.0486 38.3878 96.3108
42.7057 36.6388 89.8274
45.6012 37.3892 92.5634
51.7864 38.7181 87.7737
46.7465 38.9176 97.3374
40.6102 36.0377 87.1561
38.297 36.5632 92.0097
56.6241 37.7325 94.4121
47.778 37.0094 90.7773
33.74 37.7705 94.6344
44.7507 39.4794 95.9155
43.5966 37.0997 90.8674
50.9748 40.2836 96.7364
35.4182 39.9643 98.7545
42.2871 37.8639 89.7272
41.5859 38.0294 96.4683
