# pn-170911/CsIIA-31-CsII-1280-1959.psd
# Power spectrum* (dif=0,1,2) (really just |FT|^2)
# NOTE: only the first half! (symmetric)
# weeks: 1280-1959
# 50 clock-days, 43 excluded
# PSD: 1441
350477 6.98423 0.0707585
7.8415e+06 135.708 0.0905706
6.31901e+07 1208.33 0.104754
7.46196e+06 236.154 0.0913187
1.11674e+07 784.721 0.152527
2.95941e+06 299.192 0.127753
2.31294e+06 387.29 0.137591
1.28944e+06 245.043 0.138714
1.09927e+06 291.89 0.198146
851102 272.415 0.218302
550717 254.654 0.253801
650425 345.825 0.358897
438518 264.571 0.314709
519259 345.053 0.420951
366818 251.391 0.356947
371908 294.844 0.450834
313284 321.67 0.470001
263473 329.295 0.502951
210759 287.191 0.482853
234665 311.382 0.608399
157883 238.773 0.519121
216115 391.409 0.872827
157324 272.346 0.732846
134188 325.42 0.920458
128349 279.076 0.749467
130405 329.395 1.18835
99629.4 282.028 0.993721
111299 368.86 1.53253
106279 321.025 1.29003
70924.7 229.753 1.10539
83236.5 342.121 1.56528
68865.3 265.126 1.2664
79386.9 339.268 1.9992
42915.5 197.576 0.993703
69135.8 296.453 1.68827
54882.8 261.22 1.66279
54186 300.946 1.99143
59988 329.607 2.25494
51087.8 289.511 2.1268
43610.1 273.619 2.07672
46601 275.451 2.0484
40574.3 289.749 2.27622
39077.1 276.758 2.42667
42464.8 336.816 2.83077
29938.9 244.728 2.21115
41257 290.12 2.94706
42419 376.124 3.86649
30885.5 293.695 3.15552
35213 300.509 3.31457
26142 208.034 2.34114
27734.8 265 3.12866
27650.2 317.108 3.95509
28324.5 339.045 4.35601
23176.6 263.065 3.56653
19016.8 222.93 3.14807
21069.1 234.955 3.55517
20907.4 213.588 3.22524
21522.4 287.413 4.36417
19527.6 254.536 4.03501
15635.6 204.365 3.45474
22542.6 268.243 4.65378
15199.9 252.293 4.48881
19966.3 262.047 4.63919
18048 256.188 4.7189
17143.4 248.152 5.00724
13829.9 197.863 4.03011
16411.8 260.757 5.34494
15343.6 266.285 5.74664
13389.8 235.092 5.08536
18027 289.494 6.78744
11579.3 218.496 5.27514
10942.6 186.842 4.66791
12498.3 253.99 6.05012
14477.5 292.634 7.34911
9888.43 238.263 6.31696
11998.2 239.9 6.3186
13463.5 256.475 7.24826
11570.2 259.797 7.28115
10637.1 252.26 7.36637
12704.8 285.586 8.40464
10555.7 233.417 7.37701
6743.69 194.085 6.0684
10851.2 246.93 7.55969
9781.64 223.125 7.44651
6896.04 238.274 8.45024
8644.78 242.362 8.34166
7354.54 173.956 5.95966
8213.78 210.638 7.61774
8644.27 262.382 9.70131
8583.58 233.446 9.03687
6995.81 230.761 8.5344
6980.65 245.291 9.57358
6054.59 174.143 7.31856
8413.43 252.148 10.2678
5860.53 181.51 7.31133
6246.12 201.377 8.64138
7769.1 244.452 10.5612
7906.99 297.754 13.3587
8042.83 226.794 10.1928
6730.53 265.827 12.7328
6198.49 220.495 10.4223
6065.74 181.169 9.16188
6597.91 223.85 10.9473
4926.66 192.06 10.1052
4594.35 188.489 9.70918
5102.35 199.564 10.7515
6507.79 238.854 12.5065
5698.31 255.528 13.8892
4632.36 202.591 11.0437
5351.12 219.598 12.7554
5425.47 211.94 11.986
5290.27 232.778 13.997
4879.97 219.686 13.0883
5204.13 220.964 13.5227
5116.37 225.654 13.1365
4747.27 204.033 13.1351
5330.21 221.048 14.074
3627.47 163.439 10.6039
4268.81 180.7 12.2231
2997.81 141.317 9.66127
3501.25 179.138 12.0327
3678.84 183.354 12.3544
3029.34 166.934 11.8483
3199.32 166.423 11.6077
4400.61 231.609 17.2722
3622.79 200.053 15.3388
3858.86 185.937 13.8943
2400.51 138.99 10.8785
4173.23 209.656 16.2784
3018.34 184.706 14.1613
2982.6 154.514 12.1645
3649.94 183.298 15.026
3292.32 193.927 16.0584
3381.87 204.798 16.6334
3627.58 192.645 15.9844
3597.41 199.349 17.874
3470.56 198.546 16.3743
2731.81 196.449 17.5516
2456.31 128.625 11.8251
2512.29 183.798 16.3214
2456.42 180.862 16.901
2435.95 154.632 15.0059
3125.61 163.915 15.0437
2517.07 168.004 16.3469
2887.65 207.561 20.6452
2852.47 194.707 18.6765
2380.27 160.116 16.8027
1934.85 172.693 17.4299
2815.47 194.727 20.0497
2647.89 159.361 16.6708
3051.35 218.475 23.0184
2562.37 147.969 16.094
2182.29 177.697 18.9202
2945.75 207.862 22.7505
1991.02 147.371 15.8269
1865.19 149.176 16.8927
2551.7 152.642 18.6004
2178.8 185.931 20.9991
1682.07 128.047 14.7831
1952.88 164.937 20.107
1524.99 154.663 18.4516
1905.05 181.01 22.685
1810.98 158.231 19.9664
1566.82 150.92 18.4852
2294.12 171.259 21.959
1339.74 123.235 15.5383
1530.39 139.541 17.7476
1239.1 123.398 17.1132
1477.34 165.122 21.5851
1854.41 181.991 24.6033
1636.93 145.701 19.7776
1491.61 137.175 18.0046
1971.16 155.665 22.1043
1424.04 145.068 19.4304
1345.93 145.226 21.2463
2320.62 198.348 27.6164
1398.43 117.91 17.7742
1698.57 148.639 21.5189
1667.08 156.334 23.4126
1568.69 117.368 16.6766
1178.05 106.28 17.4201
1357.16 136.653 20.7879
1301.15 110.815 17.2058
1302.68 111.778 17.4247
1265.34 129.495 20.1282
1165.64 105.402 16.5329
1482.76 152.987 26.1783
1460.54 136.777 22.9545
1266.66 124.535 20.4463
1012.6 98.0823 16.6042
1266.85 82.1543 13.4764
1035.11 114.674 19.2597
1483.54 173.187 29.7144
1377.2 141.546 24.9036
1108.06 136.524 24.7583
1351.18 139.286 23.7613
1120.64 106.68 19.6743
1163.32 107.674 19.439
1344.27 107.141 19.572
973.198 108.932 20.1389
1057.07 113.07 21.1067
1016.43 116.487 20.767
925.821 115.997 22.1927
1049.42 125.894 24.6724
914.215 110.659 21.8164
828.754 98.7998 18.8742
1144.65 144.881 28.411
1197.14 148.116 30.4065
830.658 98.941 18.7173
880.616 111.537 22.3908
748.747 118.72 25.2394
738.459 106.58 21.9209
1017.72 100.315 20.4858
920.07 103.223 22.4449
677.412 108.755 22.6317
599.814 108.577 23.8931
799.461 105.888 23.4949
888.992 105.118 24.4376
827.085 85.9456 18.4
679.138 86.625 19.2362
899.88 121.129 27.4196
812.62 118.301 27.6995
702.484 80.6699 18.693
776.073 116.587 26.4703
834.449 108.545 25.1359
757.784 104.814 24.609
709.61 89.8037 20.5597
705.739 107.823 25.8416
945.206 89.3803 21.2685
869.672 118.233 29.5928
717.816 118.152 30.2864
759.508 118.145 28.4645
563.279 83.9203 20.7359
612.784 93.0963 23.1178
647.316 78.1795 20.2743
814.745 127.083 31.3436
647.666 92.0993 25.4268
682.471 128.569 32.4456
613.161 86.5585 21.9872
734.058 87.9938 23.1137
503.395 75.0515 21.6711
509.488 101.951 28.4364
757.027 109.791 28.7607
559.2 92.0031 23.7659
472.952 85.2016 24.2538
522.457 80.5998 22.7367
519.898 70.2729 19.3185
518.124 83.1624 23.1636
533.03 89.7396 23.8119
546.067 85.8964 24.0936
407.634 77.1046 22.327
484.418 94.8804 28.3589
465.437 69.3773 20.0712
476.233 81.3175 24.0349
522.812 82.7458 25.428
477.693 78.1199 21.971
412.288 55.9804 17.0476
445.293 82.2155 25.5003
589.333 93.7125 29.7093
462.162 72.1818 21.2352
502.656 85.1707 26.6378
427.277 77.3656 23.5798
460.029 66.5056 20.9022
520.021 93.5181 29.7641
392.586 89.4487 28.3721
395.95 82.9667 27.6988
508.08 87.8019 28.3594
402.316 75.8957 25.6318
509.399 59.1645 19.8868
440.633 65.1931 22.9259
441.307 82.9818 26.9795
410.075 85.142 28.6389
449.124 70.2033 23.1686
340.944 79.6206 29.1351
484.854 79.1525 25.0108
396.113 81.3558 28.9565
451.559 92.9001 32.239
432.593 77.5994 28.8555
408.24 70.6854 24.0184
392.467 67.928 24.6882
457.963 75.7289 27.9677
403.64 78.4079 27.9878
460.007 79.5001 30.63
350.981 78.0052 27.5854
441.644 84.8443 31.6771
304.873 74.0501 26.4428
303.84 63.5183 25.0683
318.294 67.5494 24.3802
344.276 73.1648 27.2199
385.302 66.6953 27.3267
320.566 54.9947 22.2551
388.554 79.3778 30.0199
370.288 79.2482 31.1146
325.271 68.0482 27.8141
316.258 63.1525 23.3621
351.811 64.5006 26.3526
348.309 67.1579 26.7128
331.807 68.026 26.4906
327.934 65.9448 26.997
303.003 76.2212 30.0451
345.953 69.3377 29.3582
279.882 57.457 23.6987
340.023 75.1116 31.5614
294.076 64.0139 26.4445
258.127 52.3804 21.5312
269.048 69.0385 28.8937
326.197 71.1727 31.1447
296.311 59.8264 26.9198
301.365 70.6447 31.2687
241.42 68.8613 30.2743
351.497 56.357 23.5799
223.062 50.2086 22.6279
372.491 69.1919 31.4909
268.355 61.4981 27.7145
360.473 62.641 28.7719
313.803 73.3527 34.3074
291.104 51.079 22.3621
227.052 48.2659 22.5937
245.375 62.2391 29.3248
274.647 59.7635 28.7212
285.492 57.2911 25.7263
297.791 67.4834 31.6672
257.723 65.3315 30.441
310.541 61.2872 28.4869
279.432 56.1794 27.593
269.536 54.9967 25.6544
312.426 68.7668 32.3292
228.422 62.5406 31.2202
269.59 70.3206 34.3941
195.289 50.9571 24.6399
221.646 52.3362 25.8186
251.098 68.3742 34.1203
175.563 57.2511 29.6878
247.468 56.0891 29.3983
229.426 57.1873 28.4986
210.565 51.9396 26.8852
233.691 70.6482 37.4607
221.141 57.8943 30.2647
276.944 68.0642 32.8384
217.005 53.9338 28.0371
280.373 64.4986 33.9348
205.751 48.1723 25.4221
252.827 51.3456 24.5561
201.238 51.7798 27.0567
226.485 53.7026 29.9813
195.237 54.3442 29.7999
171.327 56.5306 30.3307
162.357 47.5469 24.0396
205.352 49.681 29.2155
187.207 62.9222 32.7714
236.859 49.9618 28.8935
231.32 46.0042 28.2085
242.271 51.2279 30.3631
226.876 60.5982 32.813
231.655 50.1775 29.7205
220.532 50.6099 28.8448
164.027 38.2302 22.365
181.025 51.1651 28.3109
231.259 58.9594 34.0731
188.47 44.8014 24.6534
206.441 41.4052 25.1385
244.304 55.2247 33.1672
228.759 59.5959 34.7779
222.905 53.8178 30.8335
200.647 45.1759 24.9183
191.503 53.9717 32.9069
203.919 48.7412 29.1375
144.242 45.1124 28.7079
206.636 43.9081 29.5778
201.042 54.968 31.1884
180.156 41.7303 25.3761
195.67 48.1614 27.2086
191.976 45.5271 28.0031
207.892 50.1463 31.13
167.663 56.5741 35.4451
188.811 40.1273 27.264
188.931 51.9877 33.9723
232.887 50.7752 30.4193
184.687 38.1636 25.4337
204.82 44.2577 30.045
163.225 41.8269 25.1787
144.281 42.8226 29.4215
253.572 48.8467 32.5122
194.841 51.4641 31.2775
160.653 49.664 31.2841
176.817 41.0698 27.9991
228.128 51.0367 34.5825
157.071 50.3222 34.6708
176.073 32.3497 22.0212
237.693 46.2625 29.9455
164.755 43.3517 29.7206
181.475 43.2881 29.7353
156.985 40.9731 28.2613
163.352 42.4361 28.4127
140.619 37.1045 26.6946
129.475 37.6552 27.5234
235.031 60.4282 38.9709
182.753 45.1975 32.2471
197.624 40.2898 28.0744
172.067 33.8983 25.1898
209.244 44.3238 30.2819
201.349 43.7616 31.2904
178.224 39.922 29.5512
159.401 50.872 35.6681
184.896 51.5314 38.9075
160.822 39.4259 30.6449
176.807 56.2285 39.7437
153.718 33.3749 22.5049
162.28 37.9812 29.6338
167.979 46.063 32.9285
199.969 43.5149 35.1306
179.907 41.0261 28.3612
185.4 36.1659 28.2583
151.548 41.4571 29.3078
161.824 48.1607 35.9251
149.158 46.2772 34.1463
138.438 41.422 31.5226
188.197 41.8876 30.3152
145.201 38.8141 32.1783
155.41 42.6172 33.5235
146.218 34.1496 29.5308
172.402 40.1058 30.219
226.021 39.9316 27.7642
200.946 42.1567 35.2379
189.835 33.1317 28.4106
132.789 37.4125 30.3322
184.51 40.574 31.6768
150.91 25.0868 20.1643
118.945 31.2269 26.3071
154.397 33.9303 25.5003
178.935 40.5072 31.5496
161.422 38.4112 33.7808
143.319 36.7772 30.0222
175.756 30.8801 23.4185
177.866 30.6605 26.2327
135.893 31.801 25.6593
155.13 42.2789 34.612
129.231 41.2848 36.0258
145.058 41.0232 35.489
122.076 43.6451 36.324
175.707 30.735 26.2069
152.592 32.3139 26.1975
153.099 33.628 28.8652
151.335 36.3641 29.6968
166.539 34.6391 28.9816
208.127 39.0599 34.5051
126.036 33.6829 31.0406
118.676 33.5224 30.806
133.78 31.2797 24.2523
144.823 29.62 28.2554
139.636 31.6607 26.3729
113.824 40.0887 37.3202
149.004 27.8371 27.2587
107.453 33.8557 30.4767
148.23 35.7761 29.596
137.394 30.5833 27.2005
165.938 33.3273 30.3011
136.235 38.6564 35.5761
128.743 26.5344 22.9778
142.625 23.2365 22.4632
175.335 34.4077 28.6675
126.407 23.2675 23.3507
113.435 35.4683 31.8216
142.659 31.602 30.0374
140.749 35.8004 32.1832
95.8821 27.0632 27.2324
134.742 30.2388 26.0087
135.875 36.4075 37.1513
124.604 36.9886 36.5334
93.6613 38.3035 36.4327
140.557 31.0779 29.9251
129.497 27.0245 24.9105
113.244 33.146 32.1239
163 24.4914 23.747
114.645 30.081 29.4032
134.849 27.5782 23.4728
112.773 37.0642 39.9219
134.017 35.7914 33.6337
153.324 37.0013 33.2313
112.221 26.8512 28.8164
169.622 33.4039 34.013
131.39 26.4729 25.5064
133.971 28.5896 30.2886
140.399 34.7284 33.9992
173.777 35.4161 34.5482
111.454 23.0733 24.0403
95.7631 24.0919 26.1021
132.426 34.5163 36.5569
86.166 23.5146 24.3291
102.328 29.3714 28.2063
103.995 19.1982 20.9858
108.664 34.0505 34.8535
112.967 34.3139 38.3653
147.259 32.1422 32.1021
152.189 32.2776 36.0097
99.6753 28.6135 30.8508
136.008 37.0905 38.445
103.038 25.1521 27.5131
115.51 26.0578 26.529
95.4537 27.8379 32.3348
129.761 28.3593 28.7349
121.821 31.8898 37.2641
103.125 24.7082 25.0346
129.53 29.8366 32.3499
126.101 25.699 27.2879
114.919 25.0191 28.1327
91.1838 25.0692 29.0449
95.0796 29.4577 31.4474
115.511 26.3268 29.508
115.793 33.1676 38.0156
125.053 25.5601 29.8265
115.797 30.0799 32.0055
118.427 25.2065 28.6469
111.23 22.8429 26.7431
109.439 29.0218 30.0256
148.611 32.5882 37.8832
145.379 31.018 32.6987
108.821 25.1228 28.0941
113.409 26.2395 30.4525
100.343 20.6683 25.5403
97.9253 26.503 30.1478
74.3001 22.1646 26.3684
122.198 25.4293 28.1012
103.286 28.9638 35.3774
93.9423 31.4813 36.2344
85.8859 28.3853 32.587
105.311 22.4866 24.7598
112.185 25.5555 36.8159
95.6404 27.0445 31.7601
109.571 28.8744 30.2859
145.259 28.2079 35.3148
116.607 24.9404 27.5181
83.4865 27.5549 32.5274
114.742 25.6444 31.0237
113.97 18.3156 23.0709
81.2477 28.1731 33.3994
91.5761 23.7761 30.7333
96.3048 24.867 28.5825
92.3753 23.3976 30.9058
75.8642 27.6891 31.5094
91.2538 21.1739 25.0445
108.996 28.5167 34.1173
92.3868 28.613 35.3063
92.2211 24.8617 31.2593
81.62 27.006 35.767
90.6958 23.1736 28.1448
63.8283 24.8933 29.59
84.1723 26.8241 33.8741
96.2475 24.4437 29.8939
81.8802 26.0157 35.4142
96.9538 23.3737 27.7641
71.6849 21.519 29.7887
103.459 26.79 33.9556
109.132 32.5569 40.9397
101.727 20.6629 29.0967
91.2483 23.501 34.1758
98.368 28.405 33.9131
96.6638 20.9268 24.4342
65.0459 23.1178 28.4718
82.3386 23.0382 28.796
81.0013 23.9593 33.2015
83.7403 25.0627 34.1331
95.7821 19.7219 24.5393
102.313 25.6358 32.7566
120.36 19.92 26.4358
78.6756 14.5963 20.5779
89.2989 18.3084 26.736
69.7871 21.6256 26.463
97.3621 21.2969 29.662
71.478 25.6241 33.9568
77.716 20.7976 29.9449
82.3425 20.2457 26.2955
84.3163 23.6608 28.662
89.4483 21.0411 31.395
82.9152 17.5271 26.9979
89.2802 24.6598 32.5451
86.322 18.5408 22.7526
66.0007 18.4739 26.7488
68.436 16.1714 24.1682
77.4004 20.9264 28.6238
87.1981 21.6336 32.2246
58.6409 23.6862 30.9603
73.5568 19.1718 25.2901
78.5041 26.6254 35.8076
73.2621 15.977 23.8104
76.2075 26.3144 38.6609
72.9216 17.785 26.3631
87.3446 25.3548 39.5205
68.5619 27.8309 36.9575
71.9165 21.4821 27.9221
61.4603 17.1679 27.3306
62.6407 19.3089 24.8
60.8022 15.0256 23.2124
58.4224 19.874 27.1015
86.1837 20.1805 27.8108
62.1885 21.0113 31.8311
55.632 20.7682 28.3209
56.7757 16.4103 25.0214
59.4691 15.8922 22.9202
64.2725 20.8313 36.1109
76.0684 21.1626 29.5342
80.8024 21.3212 30.1577
79.2086 22.9423 35.1806
75.5849 20.5891 33.636
68.0304 21.3104 28.2262
61.6492 19.2148 29.6543
92.5339 26.2619 40.0004
56.6262 18.4543 24.4987
72.8438 21.2827 34.738
55.3493 17.0562 29.1326
67.1517 21.3613 33.3987
69.8911 24.7082 34.3692
67.8601 23.5235 33.9991
77.603 19.0548 26.2038
59.4982 19.8285 33.6683
58.7585 20.4514 35.1143
55.9044 19.0392 27.657
66.261 18.6749 28.7246
54.5764 24.5728 41.0047
52.4581 26.0826 37.7318
67.1886 18.2867 29.1595
50.9765 18.3367 26.2459
64.0567 13.33 21.2485
59.841 18.3261 30.7481
72.9609 19.0783 30.1682
56.4862 15.1734 28.6026
60.9481 19.5758 29.891
59.8201 16.3631 21.7407
41.7164 18.1714 28.3203
56.8337 19.4319 30.2728
41.1606 19.051 33.8814
51.7725 20.1175 34.3716
59.7827 21.2974 28.8057
55.0521 20.3164 31.5761
59.3915 16.5629 27.8662
57.9753 20.7603 37.3099
75.4436 16.7644 28.8602
46.2886 18.1102 28.2229
69.5434 16.5812 27.5985
45.7455 13.2327 21.9034
45.7759 18.2435 31.6617
51.6422 19.662 33.2022
51.9314 21.6587 32.9096
70.073 14.7368 21.6087
68.1649 20.1066 33.5746
71.7989 22.8722 37.3888
68.0522 17.6814 31.7452
67.3108 17.7803 33.0241
62.6185 20.3878 32.4287
49.5931 21.6608 35.8494
59.7957 14.6883 28.2708
48.5531 16.0518 26.7195
66.4457 16.717 27.3214
64.3658 16.0111 24.0584
62.0122 18.6973 32.1786
67.3553 19.0769 33.5792
61.7454 16.9557 30.2011
62.8831 16.1951 30.9601
54.783 17.4457 26.4864
58.7027 18.6654 33.2837
57.36 16.8796 28.3142
55.2594 14.4395 25.249
56.4587 16.0443 27.8126
53.7157 19.7666 34.8456
59.827 13.6751 27.0462
53.3288 17.1917 31.4944
61.8883 19.598 28.0116
48.6605 18.1054 33.9122
58.4417 14.5143 31.347
57.511 18.564 30.0657
53.1696 18.2506 29.6213
69.0081 20.5555 35.8888
51.8416 14.8541 26.2361
52.001 13.3628 25.841
63.8318 14.4137 24.2665
59.1397 16.3945 25.5255
60.5625 18.1014 33.3958
33.3956 17.2536 29.5366
60.8683 15.9984 33.9167
37.7691 16.7798 27.5362
60.803 17.0688 31.2182
50.3379 13.858 28.3118
57.6463 16.7477 26.9454
63.4457 15.2289 30.3909
57.1231 16.9903 31.6826
75.6462 17.3366 30.5012
50.9248 20.3264 38.9689
57.0311 17.3855 32.6122
48.4913 18.8461 34.6428
39.7128 14.3811 28.0169
50.5193 11.9564 22.8137
47.9768 17.9668 30.441
53.4766 17.5474 32.3287
48.9511 15.3872 28.3361
67.541 14.8366 29.2518
53.7682 17.4348 34.0977
62.1395 12.7382 26.1454
62.8244 16.246 29.4674
51.0645 12.8975 24.4695
53.482 17.7483 27.8531
45.9564 17.2461 32.2457
55.9216 13.1117 31.0667
67.2433 17.8273 30.9368
62.3636 13.873 30.8378
64.2037 14.3417 28.3731
59.3576 14.3509 29.3639
74.1801 13.5371 25.7856
51.2981 12.8993 25.9207
58.1754 16.9907 30.7797
46.435 15.0515 31.1288
34.979 15.6787 29.8367
46.9891 13.2097 22.9262
46.2808 13.4525 28.4213
58.8372 13.2918 25.0368
46.0819 13.3219 27.3669
60.7906 12.5285 24.8314
54.66 14.2469 25.9246
67.2425 10.1931 19.466
68.4773 11.5994 25.8767
44.5943 11.9776 22.9893
50.4008 13.0906 26.4777
51.7869 13.8185 26.2703
52.3826 12.3025 26.6857
53.6777 11.5112 22.457
67.7759 13.7236 26.4476
64.9821 13.2053 28.681
38.7778 9.01597 18.4938
56.4338 14.1225 32.7118
59.9048 13.7978 23.5753
57.3112 10.4908 16.564
45.774 8.79342 19.4027
49.9867 13.0678 26.4034
61.7615 12.6768 31.8823
51.9844 17.6235 28.6203
69.5953 10.3809 25.4389
60.7669 17.3442 34.4819
58.6396 12.4468 22.4715
50.7652 14.1251 27.2619
50.7112 14.072 31.2139
58.9461 13.5527 24.8908
57.6852 12.5647 26.9889
52.816 13.3021 28.1907
40.8082 11.7163 21.9614
60.2718 10.9605 25.1912
53.9866 13.2557 28.9832
51.7893 11.3871 24.1859
53.9775 13.4477 28.1361
41.3162 10.5396 22.736
50.8566 13.2306 29.6877
42.1435 11.2283 25.1026
55.455 14.526 29.2359
51.3859 10.3178 23.4608
56.6397 11.181 26.4751
53.6107 12.1767 26.2305
50.768 15.7882 32.903
76.4702 12.3118 28.0454
61.6824 15.4461 31.5144
56.2213 10.3778 22.2145
52.781 11.0733 27.1375
49.4573 14.6536 30.9634
48.9739 11.4026 25.0303
49.9908 12.1329 23.9549
58.9657 14.2138 27.4682
40.1283 11.3561 25.3727
58.9723 11.3166 23.4151
51.3608 13.8507 34.8029
53.0579 15.0814 30.8545
61.7158 11.422 25.3961
50.936 13.4399 27.9941
45.6804 12.2775 24.3283
40.0287 9.87732 22.5028
51.1507 11.9695 24.4076
52.0687 9.58137 23.4342
56.7179 10.9772 25.637
64.104 9.662 22.0145
48.3107 11.6333 27.8976
61.6623 11.6928 24.0635
59.9529 11.5608 28.8397
69.8111 10.7122 21.6953
43.9835 8.73327 20.7783
42.9445 10.7601 22.3782
52.1016 11.696 25.1277
49.1326 12.5908 28.7264
47.4914 12.0929 22.7605
46.4962 14.3709 30.8381
60.57 11.0747 30.5892
56.6036 14.7743 31.1975
49.3105 13.2474 30.5632
60.717 11.5101 27.9145
53.2341 10.4399 26.4933
51.334 11.3915 25.2199
42.1159 9.46695 20.7665
57.6835 12.5869 28.3463
50.1069 10.0545 25.2539
53.7786 10.9264 26.4049
58.2938 10.5691 22.2107
47.9192 11.1556 27.0331
57.4785 9.07923 22.5604
46.2127 11.5731 33.4343
55.3506 13.4757 24.4951
50.7968 10.2501 21.6607
51.2744 10.6492 29.0553
41.8971 10.9741 23.3058
41.8017 11.3575 23.0823
71.3753 9.47374 20.2433
46.2857 10.3916 26.4115
49.0705 11.42 25.7925
52.0182 8.92962 23.286
57.1275 12.1014 27.726
50.4377 12.6374 30.26
62.4218 11.3827 23.5152
68.8675 11.6568 30.7128
49.3221 14.6538 30.7744
43.1215 9.95273 29.1398
54.5999 13.3857 32.0786
49.4777 10.0498 21.2287
44.667 11.2021 28.5782
35.7267 10.2535 28.0859
50.4793 10.7005 22.5198
32.2741 10.2258 21.3926
39.2981 11.2941 30.942
43.2385 7.55886 20.1939
52.2617 9.99058 24.8306
42.637 10.6968 25.2852
43.4825 9.28194 26.743
61.1166 10.0818 21.5203
50.7443 9.86512 26.4818
55.0407 10.5266 23.6279
51.6914 11.5146 27.7255
47.579 11.0138 26.4425
49.5531 11.9826 29.2407
44.0122 12.4725 28.408
53.451 10.8602 30.3061
40.4872 9.26832 22.8648
48.4333 8.12135 18.9053
