# pn-170911/CsIIA-39-PTBB-1280-1959.psd
# Power spectrum* (dif=0,1,2) (really just |FT|^2)
# NOTE: only the first half! (symmetric)
# weeks: 1280-1959
# 7 clock-days, 0 excluded
# PSD: 1441
6374.62 4.84612 0.0415199
2.45306e+06 31.4829 0.00265617
1.38329e+07 410.08 0.0109048
2.61753e+06 83.3218 0.00413442
951411 112.869 0.007665
640394 97.4647 0.0161787
687931 92.3567 0.0159546
591741 153.198 0.0391799
310119 67.9176 0.0265338
268763 54.6444 0.0180815
152206 77.6288 0.0444153
136292 79.9464 0.052857
79893.3 47.342 0.0396483
63624.9 35.7939 0.0327002
99586.8 46.2428 0.0323333
74631.7 52.0434 0.053206
47524.4 40.3582 0.0616858
101028 84.2962 0.127585
53609.5 62.1722 0.0813536
39563.8 41.9939 0.0559303
67163.3 70.4585 0.153728
31773.5 63.6411 0.144037
20321.8 24.549 0.0587416
71737.2 117.655 0.314468
21561 62.0276 0.160106
27882.6 63.8602 0.194687
26793.4 65.7515 0.216477
46960.7 108.292 0.40022
24099.7 56.4588 0.213468
36615.9 75.1023 0.308167
19814.7 46.5218 0.217681
26149.4 44.5944 0.20608
11876.2 90.1723 0.449714
16067.2 42.0727 0.229134
26185.6 56.959 0.30351
11138.1 35.6255 0.225522
14063.9 52.1658 0.325206
7632.38 32.7427 0.22705
15763.4 65.8386 0.468828
10443.6 36.174 0.239122
18927.1 79.2725 0.603415
7414.15 48.6183 0.409907
17703.8 79.8852 0.707772
7766.69 27.422 0.269872
8304.37 68.4144 0.647129
9510.76 105.872 1.03619
11641.5 108.193 1.04316
14831.5 77.4055 0.80568
3498.12 25.6473 0.31244
10934.8 76.4433 0.854534
4607.71 45.5205 0.53525
11945.1 75.8361 0.953853
7740.5 68.0106 0.879957
5031.59 55.3024 0.771328
7428.56 66.5385 0.954477
6979.26 69.0049 0.988545
6807.71 67.0685 0.974809
6054.07 79.3788 1.18454
10304.5 78.3309 1.24876
7177.77 70.4086 1.21024
5761.61 68.9607 1.16625
5455.71 78.063 1.40671
5283.88 38.9365 0.713958
6446.23 56.716 1.06316
5527.9 45.0624 0.856841
4506.26 86.0339 1.72402
1547.11 32.4214 0.673037
2920.49 44.9473 0.943704
4660.9 35.2167 0.801844
4189.81 59.5289 1.30982
4025.53 62.1565 1.48774
3310.12 58.6551 1.39827
4174.48 57.8759 1.48315
2594.09 34.544 0.860788
3175.37 66.7194 1.82905
3528.41 76.3436 1.93863
2791.72 59.2684 1.66059
3008.57 34.9 0.943862
1692.83 32.9891 0.957592
3311.89 36.5566 1.05562
5110.4 102.471 3.12662
1816.54 57.8837 1.81915
4948.22 79.8855 2.4717
2790.65 44.2191 1.44923
2808.46 52.3857 1.72772
3542.26 45.191 1.56245
3096.86 56.7841 2.0944
2110.76 78.6571 2.8088
1523.07 64.3562 2.43711
2365.25 56.1458 2.04607
2650.55 55.2279 2.19228
2590.69 47.2371 1.93674
2164.4 91.4744 3.65847
2042.24 51.5458 2.20089
2156.28 49.2533 2.06361
2082.1 81.8883 3.48915
2182.06 75.144 3.28414
2508.29 61.4261 2.63934
3372.32 81.2194 3.68074
1241.78 29.7397 1.44489
702.912 52.2938 2.60479
2642.21 75.9048 3.73778
1649.17 41.5821 1.93215
2010.64 60.9535 3.1362
1053.21 57.8828 2.97621
1480.71 28.8317 1.47359
639.204 24.2081 1.28088
1305.82 45.9154 2.55533
1485.47 56.381 3.16516
2038.11 87.5102 5.00482
874.733 45.4344 2.62067
2239.75 52.3337 2.97529
739.959 23.8183 1.55051
1346.03 43.5215 2.58753
1293.29 58.5489 3.57107
1097.17 27.0633 1.60012
1078.43 62.0161 3.93024
1378.05 62.8384 4.36026
1474.67 46.5735 2.89706
1155.78 29.9295 2.12163
882.526 71.2309 5.05107
1904.33 60.6235 4.12521
902.994 44.5236 3.27967
1052.2 52.9176 3.86369
2608.77 91.451 6.42824
740.827 27.7293 2.0783
1476.34 75.838 5.59835
1558.44 51.5537 3.92345
1355.46 50.243 4.05452
1277.78 62.3776 4.61443
470.329 41.6829 3.49728
1176.22 55.1909 4.7465
720.129 56.3035 4.25956
1137.63 65.7041 5.56733
514.541 20.7882 1.88151
1066.57 71.9115 6.17285
887.756 45.9969 3.99309
1089.27 42.0606 3.68895
1018.83 29.7948 2.52407
1168.61 41.6014 3.86262
1054.46 59.2474 5.62716
1154.07 43.8248 4.18151
714.288 34.5058 3.38843
871.058 43.9955 4.48812
388.793 41.5428 3.84373
673.952 45.3824 4.63665
950.169 57.4328 5.91586
973.123 55.5299 5.90534
646.516 41.5631 4.04842
1251.14 65.1724 6.85121
776.279 51.0876 5.75075
216.832 39.902 4.58795
309.325 24.3612 2.65638
971.387 39.5009 4.49717
507.099 48.8819 5.12617
918.324 59.313 6.72996
780.999 39.1677 4.71953
1039.64 48.9126 5.81237
395.011 30.6721 3.43977
420.723 29.3147 3.41266
661.432 25.3266 3.19712
969.588 46.12 5.7915
673.499 52.4947 6.08609
280.528 24.8804 3.6978
1238.67 80.3797 9.43488
723.948 54.5907 7.83941
489.417 47.0558 6.07421
753.419 60.0192 7.85799
713.114 48.9288 6.6581
1205.31 74.81 10.1149
571.966 46.3884 6.05157
712.808 58.4671 8.42
327.329 48.7377 6.2734
654.285 46.3772 6.98396
355.497 25.675 3.39525
396.299 50.0326 7.65558
755.057 36.508 5.32058
550.123 67.8399 9.82288
619.116 59.8537 7.90327
442.899 38.9072 6.19777
322.7 45.5142 6.83917
451.535 68.0042 10.4378
252.064 11.6002 2.0742
441.939 31.2273 4.80132
347.366 27.0799 4.02527
412.299 51.1877 8.78381
457.154 41.7766 6.58364
288.139 18.3946 2.96866
522.946 41.6767 7.47357
433.404 35.8797 6.07383
307.544 28.4606 4.60908
665.633 84.1848 13.864
393.374 34.4745 5.90716
371.799 37.9884 6.16843
356.456 24.6412 4.46289
466.425 67.3171 13.0752
279.587 62.1617 10.4529
370.052 23.1762 4.36184
259.744 38.2762 7.17263
459.127 39.4733 7.24359
433.5 33.0118 6.44732
311.631 39.5478 7.75461
440.939 34.0886 5.96218
503.6 57.7319 11.3203
430.464 30.641 5.70036
310.219 28.0282 5.76569
189.474 26.1143 4.92241
394.443 35.9735 7.21775
288.965 17.6827 3.64506
295.194 33.0781 7.19799
243.08 28.908 6.06711
269.92 20.351 4.9515
147.234 32.3953 6.06433
390.98 65.4457 14.822
419.981 56.9461 11.6705
295.432 26.0204 5.6964
209.672 43.7797 9.15909
395.344 64.4044 14.8299
341.844 45.9171 10.3506
667.117 104.043 21.8976
177.772 37.1557 8.57215
257.584 34.7761 9.58718
471.574 54.5206 11.4965
295.273 22.4503 4.46795
320.97 49.591 12.0402
259.67 51.4072 12.5746
305.961 28.1102 7.77007
400.122 37.3021 8.40885
311.313 41.9791 10.3655
323.366 33.5553 7.80529
331.736 32.3158 7.50929
398.981 43.3466 11.1686
175.199 25.475 6.90956
503.731 60.6951 14.2256
118.919 16.5349 4.41068
301.289 41.3774 9.68258
418.659 71.2371 18.8346
294.082 25.9402 8.84156
248.538 32.2445 6.56812
357.699 56.5893 14.8546
356.068 46.8356 12.9087
267.04 43.4573 12.4748
254.326 33.8402 11.0539
293.477 53.4699 13.2583
211.045 40.2541 12.0394
218.328 19.471 4.97408
261.156 18.3981 6.05906
361.717 35.9464 9.79911
300.026 48.5169 13.6223
195.647 54.0081 16.7448
157.243 26.2605 5.82375
183.592 43.1747 12.6508
265.622 53.2471 15.5643
116.194 38.7344 13.0758
446.26 62.6057 16.1565
150.507 49.8484 15.5343
180.43 15.8468 5.11774
199.292 37.4819 13.3821
280.688 49.2963 14.5121
398.832 49.882 14.3529
239.684 35.1778 11.9092
185.203 26.0775 10.7031
122.653 39.5637 10.9938
443.872 57.15 16.8358
139.943 34.1035 12.0386
218.101 46.7994 16.2375
132.611 38.9029 13.6278
159.188 27.5878 8.85145
169.402 30.8729 9.49505
247.142 31.2076 10.0737
196.392 43.7117 16.3908
270.952 35.956 11.4929
353.525 67.6614 22.0543
195.468 13.9303 3.72586
166.781 26.936 9.92937
225.46 36.3983 12.262
212.41 25.8812 8.07055
138.392 18.4967 6.84529
198.128 47.6389 16.5102
164.988 29.2044 13.0842
252.426 55.3145 16.9839
172.661 34.661 13.1799
122.395 33.6371 13.2015
200.273 20.4693 6.89458
164.56 28.9804 12.2243
287.006 36.3338 11.9165
188.775 44.9197 15.0403
170.529 19.2403 8.11084
234.094 41.6339 16.5398
94.813 30.2256 11.1393
116.725 25.1796 10.2525
167.842 28.221 11.0913
117.872 44.5633 16.8594
121.189 28.7553 12.2363
204.368 42.6828 18.6765
185.35 40.194 15.7346
95.6838 18.895 10.1075
155.661 29.5394 10.3963
247.298 38.0631 15.8826
62.2337 35.3394 12.4916
137.866 19.0689 7.85848
124.975 32.8793 13.8303
180.368 35.8488 14.6077
140.577 18.3705 8.68257
84.8846 19.4855 8.93672
152.17 34.8819 13.9487
128.388 26.8058 11.2602
157.093 28.5105 11.7707
142.793 21.4437 8.25659
94.9362 21.2969 9.15118
183.336 32.2827 16.2397
81.802 21.2758 8.15136
107.759 52.0458 24.5241
174.208 49.6849 20.8205
136.119 26.1024 15.5753
198.691 52.5715 17.872
177.638 62.2578 28.2604
96.6722 15.3716 8.44629
80.0538 17.3629 7.7776
79.3561 18.9751 10.0014
61.3833 27.5089 12.0124
106.613 35.185 16.5155
185.548 39.38 19.5951
127.142 13.3557 6.34642
115.912 34.2261 16.3902
114.515 24.612 12.6568
136.665 11.0625 4.89357
95.0921 23.7322 11.7287
99.0804 11.4638 6.17986
141.412 15.5605 7.33753
86.8078 11.789 7.81728
139.554 28.4402 13.8537
181.087 34.2269 16.7747
53.2981 15.6003 8.63864
99.7775 35.4328 18.616
126.089 24.4355 10.147
85.3583 32.7214 19.1482
167.177 25.196 11.1295
174.36 33.2462 18.5155
167.309 43.863 20.1145
119.45 15.943 7.33887
156.356 40.7329 20.5109
70.9829 16.1327 10.273
94.5652 23.3034 11.5639
52.7525 25.4784 16.9815
178.171 33.4374 15.1053
133.901 24.1125 13.8565
126.714 22.0188 10.9885
143.396 25.0015 13.6165
150.912 46.6757 27.876
122.241 26.6082 12.7103
108.236 18.2769 9.2333
123.646 39.5906 22.1304
118.995 64.5267 35.5113
131.276 16.3421 7.47855
122.578 35.2639 19.9014
120.609 25.9059 16.5613
81.1208 17.3757 10.9669
134.655 28.7184 17.1786
80.8742 21.969 12.6558
108.355 13.5686 9.17437
182.51 37.133 18.8326
114.926 23.3853 12.4741
137.59 32.7849 25.2389
182.011 45.3817 25.9605
93.7255 25.6432 14.8195
75.8064 38.3122 21.7244
106.199 15.8789 9.63279
95.092 15.4642 9.88019
68.6602 12.0347 8.47158
135.048 32.5935 15.4065
131.331 33.6856 28.0541
67.5238 33.1256 17.0108
102.233 16.8754 10.0689
101.006 42.1225 27.5404
70.874 24.5443 13.6991
108.878 35.6259 23.1597
102.749 16.4192 11.7124
103.073 30.0558 19.9126
47.7083 37.8709 26.8279
129.304 16.6353 8.38199
144.422 27.2645 17.6074
83.4027 22.6346 14.0513
69.9223 12.4789 11.8637
42.4219 19.7985 10.3614
61.3709 30.6584 22.6702
126.518 50.0368 30.4927
86.61 15.5188 11.2286
158.224 41.4774 28.5851
90.1112 32.8196 18.2791
93.6002 15.5633 10.2769
65.6197 21.9003 18.2767
104.743 22.3471 15.026
61.0658 11.9496 9.28803
93.3823 18.3541 11.178
70.9531 11.8653 9.29934
62.3512 23.3304 18.4731
77.7402 14.0095 8.41153
90.0918 14.8679 10.9087
82.7566 20.7388 14.2536
77.7769 30.4046 18.6562
105.037 22.7906 18.3105
69.3139 22.1908 16.7901
85.7536 22.4813 18.008
59.3872 16.4834 11.7484
91.3498 44.8901 29.9216
71.9736 16.2829 11.156
98.4388 27.7244 19.6873
76.4361 16.0715 13.9573
65.5306 20.1138 13.4041
60.2269 17.105 15.264
95.392 20.7239 15.9075
56.6735 20.9039 16.8567
75.9219 19.167 12.4893
71.9177 16.6368 13.166
103.029 26.1755 19.3666
66.4006 9.17423 8.95256
30.2142 16.3979 11.1889
52.602 15.9494 11.9695
63.1437 26.011 20.0276
55.3738 16.5134 12.8721
84.1622 18.6583 17.4574
46.1742 16.9352 12.4786
82.2088 25.3322 21.2637
75.698 14.0106 10.3576
99.0899 31.2097 29.6946
83.4644 27.6879 23.8272
24.6068 28.3413 22.4135
77.9048 18.6549 13.2468
89.9694 18.9704 19.6401
67.6753 15.5983 9.2956
106.465 28.6738 21.1356
53.1962 11.9857 9.19279
53.3211 23.3378 16.439
70.5164 21.7692 18.5939
65.7756 13.1954 12.9706
47.8841 18.6696 14.4165
74.9138 26.1567 23.1412
59.9462 31.7112 28.2971
77.7173 28.1358 21.9066
117.469 54.419 44.3109
68.406 9.59108 6.96704
86.7847 24.1991 19.3208
38.4665 16.1897 18.3389
49.8401 11.189 6.36612
74.6098 17.7651 15.3034
32.4582 18.8573 16.7509
44.816 7.19512 7.55591
54.102 29.2134 25.4435
82.2708 9.76523 7.6687
69.3833 13.1199 12.5289
47.4037 11.7528 10.1469
82.564 25.7349 24.2824
58.7331 24.9841 25.3282
32.6199 20.2221 16.2524
59.6561 19.9018 19.1899
59.1867 27.8437 26.4732
44.4812 13.1971 14.025
83.5895 19.9656 17.5089
52.5215 14.2635 10.3131
67.6414 19.6495 16.8342
49.5464 5.35988 4.80067
87.5549 22.9065 19.9653
69.2607 25.4965 25.6881
32.9714 12.2629 14.0206
61.9116 18.3767 13.0486
73.7374 20.6317 16.642
59.2251 18.4157 18.1853
48.3264 14.5434 13.8639
31.0065 9.40945 10.3551
55.3913 16.279 13.4567
78.3867 19.6276 22.4282
49.6648 13.6948 11.9019
65.1675 19.2982 20.8432
39.365 13.8023 13.0179
40.0597 10.0444 11.1954
32.8584 16.9284 14.3694
48.6628 21.6912 16.3784
36.2585 11.5841 13.8032
64.8122 26.1883 23.2179
44.9203 12.9618 19.325
51.2973 20.8309 16.9663
55.0437 16.3341 18.7998
39.9076 11.4564 10.6423
48.1555 16.0275 12.4331
39.7159 15.3834 16.7552
26.5166 19.6863 20.6988
42.3281 9.49518 11.8746
47.6704 11.223 12.8824
33.0489 18.2227 19.7533
36.2515 23.011 25.8093
46.4524 18.5102 19.5155
49.4422 16.9626 19.0657
55.458 8.65129 15.291
77.0144 15.7859 8.17476
54.1202 14.1844 13.1403
58.5047 26.1344 27.1609
50.7 14.0493 13.4073
63.9403 10.0983 9.40497
58.197 18.371 20.4518
57.4589 23.7535 29.087
45.918 20.7213 27.5914
53.88 16.3692 13.015
32.7104 8.46995 9.96194
55.4521 17.9161 19.6879
56.1834 12.1977 17.6253
52.9969 18.1718 13.3393
46.5043 19.5851 23.2024
27.6816 5.02671 8.13487
58.7889 21.9146 24.4261
30.1486 16.5789 17.5555
38.239 17.4585 19.1643
15.2152 16.1639 17.7738
43.5484 22.3913 25.2137
40.4339 12.9357 14.6994
46.8424 12.885 12.2698
31.6016 12.0071 16.837
50.961 12.9953 12.0203
50.7366 11.6077 11.7259
33.8853 11.7221 11.7582
66.2179 17.8628 21.0137
31.1684 15.5932 24.4737
48.8601 23.0761 27.5121
26.3241 5.89305 6.04022
59.1156 20.0816 29.8412
18.53 22.0003 17.2046
28.8755 14.7548 15.9962
33.9874 13.6837 16.9395
32.4278 5.93004 12.0202
34.7808 12.0993 8.89757
37.3257 9.11973 11.2072
29.992 14.0593 18.4953
42.0042 6.64311 10.4326
41.1065 18.4975 22.8762
57.2344 19.9617 23.3893
32.5831 21.7809 27.5832
60.5559 25.1643 28.8147
47.0898 21.7958 32.9189
27.3773 18.4671 21.1054
17.6514 24.1818 30.0525
44.4673 15.0986 19.4663
31.5537 20.4732 19.6274
35.1167 17.0159 17.3465
29.0965 5.97152 11.3563
35.0927 6.32564 9.07185
51.4333 10.8279 11.0633
31.2319 11.3478 16.0618
28.0751 9.26106 10.0754
30.1332 10.711 14.8898
24.5691 14.0654 18.5736
28.4383 8.46922 9.70847
36.4788 14.5551 15.4212
36.2816 14.3196 20.5226
33.7845 4.52803 11.0475
37.8173 16.5781 13.8347
30.6157 17.6361 22.1416
36.5504 18.0273 28.6114
31.0199 10.5868 9.9142
24.5534 3.6009 6.85511
42.7039 9.81414 11.1305
14.7649 10.1082 9.29635
22.6742 12.67 19.2949
35.281 8.99694 12.9295
18.8311 11.2888 18.5358
34.7206 5.78292 11.7272
48.728 13.5231 23.7931
48.7132 16.9296 16.5567
36.9034 12.2616 12.5623
42.1255 16.2549 27.7241
16.9078 21.8681 27.4848
53.2536 16.2672 19.6513
34.0151 16.6631 22.5244
28.3362 12.3401 20.4037
37.2392 8.79184 21.6169
45.5936 18.6045 18.0774
52.3666 15.4508 20.7364
31.4795 12.8043 17.4568
38.6093 7.97577 12.0623
29.426 12.1255 17.4784
32.037 18.3507 19.3983
38.8744 19.3701 29.9394
28.3483 10.6663 15.2925
51.0769 22.393 27.6184
14.2232 13.589 21.3734
28.9626 11.9711 16.0566
38.7408 11.7201 20.995
41.1673 12.9631 17.8844
24.8884 12.0917 9.95018
35.4677 14.708 24.4316
27.0482 11.2058 17.9451
27.2956 12.0579 18.4902
28.9151 9.01021 9.77971
29.3256 10.7532 13.2164
27.1727 15.3014 21.3869
35.0885 4.46222 6.64324
21.0517 16.1934 24.0092
36.7362 7.50444 11.3463
23.111 10.4436 13.1992
40.5184 21.3112 33.185
34.508 15.0851 24.502
36.8499 12.1174 11.2713
25.4219 13.5908 21.2567
26.6048 7.71138 13.9324
36.5457 11.3333 14.568
23.8921 11.8279 19.8919
20.7469 11.4237 18.9944
30.0548 12.6878 18.2936
34.1224 15.8706 23.7623
23.799 19.6504 34.8705
37.867 13.2847 18.2018
37.6183 10.6745 11.323
29.3477 11.1017 17.2482
20.0305 13.3547 18.7789
22.5347 8.50088 11.6088
33.5421 10.6181 19.8538
31.9747 19.6637 38.3474
20.206 18.3163 25.8586
36.3482 9.21348 13.8346
30.2348 5.85561 9.43111
26.4907 15.6537 25.6977
24.8807 7.20908 16.745
21.1403 11.9137 14.6242
36.4136 20.1842 30.907
25.604 7.63251 18.0264
25.7035 10.4589 12.2358
31.4009 14.2828 19.4267
34.9348 8.31564 7.11331
24.6466 13.1904 17.4338
21.0703 10.135 22.0573
22.5765 13.3134 17.5108
23.8707 10.1801 16.3471
29.6608 6.77503 13.2454
23.974 8.05717 14.0101
16.2352 11.2184 20.0355
21.6971 5.67525 15.0716
25.4877 9.88629 16.1429
24.8894 11.9117 17.8859
19.8229 13.1986 30.8369
36.2851 9.06457 12.1183
29.4589 7.32293 14.2055
27.9321 16.8787 22.1026
35.702 16.5015 32.5741
31.8718 12.6493 18.2429
28.8508 17.6501 24.5824
43.0206 21.283 31.6433
33.5048 12.8279 20.118
24.6441 7.07139 13.5215
25.9834 8.82501 11.3393
21.0428 12.6957 23.829
30.2086 11.1239 17.904
23.4747 14.9052 27.1608
27.0548 12.927 24.2038
20.7291 7.69141 7.62012
22.5191 7.76631 16.134
21.126 8.91151 17.283
30.1496 6.3761 8.53685
27.809 9.02295 13.5937
20.5414 3.9265 10.0274
24.9927 7.71886 12.1721
25.4121 13.7566 20.1048
23.2994 11.7586 21.7453
27.5786 4.82917 10.8598
22.6418 11.5335 21.2973
30.6061 12.424 18.931
22.8092 2.19601 10.8952
29.5212 9.6111 12.9722
18.4994 6.27822 18.6316
24.0703 17.7524 29.8645
31.2775 4.74405 6.86231
22.133 14.2438 30.727
39.2509 9.34316 9.89585
28.2586 5.33461 6.72629
28.3781 7.03126 9.1152
28.4455 11.587 24.9844
21.049 16.823 25.9157
24.6551 10.2679 16.1149
37.217 13.6478 27.92
23.4273 11.2267 25.5977
12.7003 16.0966 20.0984
19.3702 14.9378 27.9613
33.3776 11.4226 22.2834
19.9845 7.76058 13.3879
21.4356 7.27652 17.3058
16.1059 12.602 24.3607
30.3586 10.6568 15.1623
20.6758 6.27772 11.7887
21.296 10.2063 21.2838
16.1162 12.2129 23.7274
34.5719 8.85361 15.9753
25.9999 6.49129 13.2175
30.8881 18.3252 29.2148
25.0335 8.01336 15.4285
28.1071 11.9663 22.41
20.9281 10.2963 22.0746
12.9828 4.7827 12.8633
15.8397 8.80844 14.1315
21.5071 7.37989 15.8546
20.9094 3.74728 6.75916
15.2526 9.98645 26.149
35.0044 10.4277 18.5002
26.675 10.7485 14.7035
24.9142 8.89591 17.8049
26.113 7.42548 14.0897
25.6877 13.3737 30.0803
17.4565 7.1446 10.1173
11.1572 8.65707 15.1009
24.7529 9.76646 18.949
17.7578 6.3351 13.9122
20.4829 8.75781 16.3261
25.2285 9.71216 19.8567
24.032 5.18942 11.5958
32.0294 12.1894 18.3367
19.3764 5.20618 12.3787
25.7116 14.683 28.9924
23.0773 12.7803 26.8881
15.0468 11.9035 30.7435
36.6246 9.65902 14.7161
20.4849 3.572 7.18898
19.4074 9.08163 18.7849
29.2052 10.7508 15.8199
20.2415 3.95339 6.68896
16.9349 8.03819 20.5349
21.706 11.1819 22.7734
24.1891 10.354 14.5275
23.1711 6.86327 17.862
23.0368 8.53181 8.67849
23.0665 5.34132 14.0026
21.1731 6.85569 15.6237
14.1475 9.94509 20.7986
22.2182 8.53259 14.7845
12.9753 4.30442 11.6329
16.5011 5.18837 10.3119
24.3097 8.8359 16.2453
21.1867 12.6325 25.5776
9.97354 7.4291 14.5296
17.9794 13.457 27.6267
25.1381 7.51625 12.7686
19.5267 4.58824 15.3749
16.9233 7.70092 16.5354
16.35 4.87354 12.4351
20.3685 10.4993 18.6962
15.046 4.48004 11.8728
21.7493 7.10166 10.5315
16.4234 6.2624 11.3273
18.4889 8.73558 20.8203
22.5542 5.12018 10.9632
20.2719 12.2717 19.3493
17.0418 4.68658 18.2411
24.8799 4.56425 11.4199
21.7365 8.18338 11.0018
11.4459 5.28553 15.9691
21.4609 11.8076 24.0429
24.0442 8.11395 14.3622
17.2795 5.29617 13.7326
23.8603 6.99718 19.2621
23.4996 7.17626 13.4171
13.9962 6.87975 11.8421
23.1271 7.93641 15.8809
18.275 8.06938 19.2947
24.1389 13.9745 24.8806
22.3017 7.83574 20.2732
18.0561 4.6244 12.0849
14.0997 5.9747 15.2416
21.8407 8.25468 16.9289
18.218 5.87523 10.7778
17.9735 5.41975 10.6901
17.9377 6.0123 15.992
15.3591 10.3619 22.2447
13.8537 6.39803 16.5913
15.8833 9.75548 18.8091
19.2376 5.22195 15.8732
16.4578 7.02666 13.6735
17.3921 4.18379 13.2468
13.3465 9.96101 22.9991
20.1984 9.10426 14.5709
16.5041 4.88486 17.3212
17.0642 16.0063 35.6171
18.0036 5.22161 11.598
9.64293 9.17673 23.6294
19.0133 6.24808 15.3202
13.9537 7.90278 9.10104
15.2636 9.22403 22.597
20.2183 3.13635 10.1713
15.8355 9.15563 16.6362
15.9072 4.03193 11.0135
17.7398 6.48707 15.3565
21.1354 5.64631 12.3094
17.5805 9.69838 19.6959
19.4456 7.12593 16.9319
8.05482 4.66792 12.4645
20.0547 11.3699 26.0306
14.9234 10.1976 19.5709
15.2001 5.03443 17.1028
20.3255 5.18023 11.6377
10.461 9.96121 28.7079
23.9989 7.05712 15.004
27.2823 13.5523 26.064
19.2868 4.05043 9.75772
19.8897 10.902 24.2069
13.607 5.15137 8.18262
18.8139 9.18728 20.9377
16.9704 7.1588 13.8555
10.7323 3.49209 15.2732
25.8978 12.2571 21.7435
10.5076 3.80252 11.9236
14.8352 5.24306 15.4818
19.6891 3.92534 13.387
12.1773 6.91545 9.79818
15.6908 6.14717 12.659
17.5742 9.71111 27.572
21.1934 4.87414 10.9781
11.1829 6.11868 12.5411
11.9719 7.71672 19.5812
15.7853 4.11768 14.3812
21.8461 3.81816 8.10372
16.3018 4.91446 10.2291
18.5447 4.30142 11.2877
17.3482 6.4338 23.2536
20.6111 3.07997 5.22071
17.9828 7.02517 10.5818
15.1237 3.40879 16.5357
20.2875 12.6389 27.9277
24.674 5.71737 8.70338
22.1325 10.6763 23.8747
12.1243 7.92267 21.5824
16.9529 4.00076 10.0015
17.3171 5.51288 12.8892
16.4742 3.22777 7.42271
14.361 8.93854 20.7295
18.8756 11.0767 34.7448
14.819 5.15527 18.0468
20.3565 4.43998 7.93641
