# pn-170911/CsIIA-33-PTBB-1280-1959.psd
# Power spectrum* (dif=0,1,2) (really just |FT|^2)
# NOTE: only the first half! (symmetric)
# weeks: 1280-1959
# 6 clock-days, 0 excluded
# PSD: 1441
16040.1 0.525961 0.0299815
658628 14.4513 0.00842565
3.5689e+06 96.2 0.0107239
2.03423e+06 83.6931 0.00990393
1.42675e+06 94.5008 0.0157659
314171 22.8068 0.0133143
420045 61.2216 0.01839
538138 113.257 0.0216483
95995.8 29.0443 0.0195625
204213 89.3014 0.0372849
158246 64.5299 0.0326456
136489 72.096 0.0342469
81449.6 49.9375 0.0585508
175912 100.545 0.0917574
74559 52.2174 0.0914402
33902.1 55.8065 0.0689233
59881.6 58.4251 0.0874453
72553 77.0879 0.126032
56846 70.8664 0.108992
65940.9 85.6806 0.149663
42949.3 56.8791 0.0869242
22589.4 43.3471 0.0914211
24628.4 36.2014 0.110109
33253.4 64.5498 0.164646
4533.05 15.3335 0.0295627
13087.1 24.3167 0.0710104
12503.2 41.3426 0.162222
21247.5 49.5342 0.186187
8746.92 22.7349 0.100574
6788.94 31.8393 0.140998
9427.82 31.5128 0.160097
13416.9 39.9891 0.217417
7883.34 21.9876 0.0773776
4474.34 25.468 0.175749
14622.1 59.3103 0.30703
12628.8 53.3243 0.340922
3888.25 19.1138 0.124275
9123.39 72.058 0.475405
9253.61 34.5675 0.228607
15072 70.0648 0.483554
5652.97 29.5983 0.209832
5912.5 41.8278 0.355028
6235.58 33.381 0.271318
8140.67 63.8768 0.572945
4737.91 40.5291 0.407297
9239.72 65.5482 0.595946
2900.49 29.2718 0.350216
3449.99 51.8526 0.528751
4268.83 47.4771 0.510316
3898.62 23.3531 0.301819
2805.68 43.2462 0.474213
4469.19 60.2027 0.831534
4156.13 42.546 0.580666
3192.44 39.2184 0.518559
2901.22 20.7618 0.328157
2815.42 25.9289 0.395694
5851.88 62.8485 0.927493
5554.68 52.3974 0.831314
3758.43 85.0904 1.34384
2510.01 37.4993 0.698741
829.616 18.0088 0.324532
4786.38 67.1771 1.19061
3999.13 70.8894 1.25867
4193.54 51.3563 1.05411
3554.64 56.799 1.02032
1207.84 20.6585 0.458053
7137.34 126.452 2.61284
2707.41 61.3168 1.31241
1898.36 38.0143 0.839026
3078.53 53.837 1.25579
2398.64 53.0453 1.18322
1913.85 47.8276 1.17544
3953.39 73.212 1.88441
2839.29 41.197 0.996122
2570.5 51.3749 1.3616
2087.27 30.1452 0.763015
1328.63 42.607 1.22863
1564.09 35.3663 1.04133
1664.75 35.2766 0.968395
3091.96 90.3968 2.67929
2279.14 45.1886 1.41146
1252.28 29.5146 1.00555
2312.84 39.4977 1.26447
1324.07 40.235 1.18865
906.847 27.5306 0.989535
1800.18 59.3276 2.14188
1673.61 49.3732 1.59871
1509.77 65.2282 2.3398
1779.56 50.2236 1.95077
976.467 54.2657 2.02914
1061.9 35.7236 1.59523
2504.81 84.7948 3.2163
1165.46 29.9568 1.12378
1763.74 45.4222 1.9521
563.579 8.35425 0.441794
1884.59 48.313 1.97999
584.879 34.5074 1.52852
1473.14 61.927 2.64194
893.992 48.2983 2.17211
1117.6 48.0081 2.20793
931.384 34.6086 1.62625
348.694 27.3326 1.37803
645.375 35.7678 1.7732
1771.4 85.6745 4.5099
1533.23 60.3773 3.26203
746.736 44.056 2.12472
1064.51 38.8171 1.87688
1247.44 43.767 2.44288
894.818 53.938 3.29645
1466.27 51.2167 2.90267
846.777 29.0717 1.51191
540.554 37.6744 2.23645
630.953 32.5976 1.94625
332.949 17.869 1.1069
809.354 47.9516 2.83877
1093.67 45.829 2.88219
1313.94 70.092 4.45707
634.68 32.3433 2.17556
668.493 30.1098 2.29245
1652.45 77.8329 4.86583
896.039 44.289 3.26748
546.552 35.5751 2.43373
1064.84 73.5358 5.16836
751.231 49.1266 3.67431
903.65 53.7451 3.84652
971.465 63.9707 4.57959
918.928 43.72 3.4534
475.913 25.6916 2.06798
368.403 33.567 2.62028
758.119 52.9586 3.87745
628.634 57.46 4.79261
1233.98 66.0934 5.28674
964.636 46.1176 3.76512
777.847 57.9491 4.84199
396.568 43.6023 3.66682
508.06 40.7024 3.81591
619.466 41.845 3.49457
156.908 24.009 2.21886
336.995 24.1585 2.07039
346.576 18.4901 1.69251
415.341 28.8943 2.6432
829.886 58.5079 5.48484
799.739 59.8232 6.00889
259.104 34.8047 3.38865
168.145 25.7905 2.55451
679.19 70.8722 7.18911
602.443 60.6512 6.82992
368.761 35.4289 3.60942
560.629 40.5715 4.45037
637.614 77.6633 8.32098
604.303 36.4289 3.28462
548.812 38.633 4.58057
493.849 40.6855 4.58399
458.05 39.9675 3.95022
1333.71 117.866 13.5255
577.385 48.0342 4.90251
481.547 48.8488 6.11787
472.487 46.6135 5.59609
257.515 25.8151 2.91576
310.418 43.8551 5.53707
659.372 67.2858 7.88172
384.929 40.3726 5.46632
419.702 36.4289 4.5175
365.987 40.3544 5.09133
648.778 72.4928 8.41029
334.489 37.2319 5.17705
546.017 54.0339 6.87976
490.862 88.4243 11.7794
494.413 60.6535 7.73193
138.724 23.1884 3.48395
236.872 42.7474 6.19835
315.589 35.7382 4.78114
463.944 50.3615 6.95471
167.107 30.7115 4.78589
657.417 64.2626 8.35848
273.965 22.7069 3.54644
297.165 53.4531 8.58271
478.73 40.3987 5.69221
381.608 59.9591 9.16075
404.688 58.3031 8.4378
260.537 26.4667 4.02305
245.852 41.7751 6.65084
405.579 33.7199 5.71183
417.581 54.1772 8.43238
173.507 22.7342 3.84703
282.074 51.298 8.00768
158.967 30.009 5.39714
215.868 17.1522 2.7688
207.457 28.9253 4.95487
414.393 46.4649 7.7205
397.492 43.6466 8.18355
336.664 37.3741 5.46799
209.065 23.3405 4.35938
153.716 29.755 6.00804
418.318 56.3666 9.53249
281.855 44.3632 8.3645
222.283 30.9531 5.58362
372.089 62.1791 10.9923
297.727 40.265 6.41838
375.894 68.6293 12.3173
181.091 33.8367 7.2739
430.812 71.4752 11.6438
350.541 72.5651 14.1952
356.479 44.8494 8.60994
156.202 24.5911 4.84582
357.906 47.2724 9.33403
150.327 19.0786 3.51365
180.56 30.7439 6.46362
308.216 40.5644 8.92576
146.551 30.7654 6.23457
331.652 62.2987 13.0293
167.542 38.128 8.08185
243.226 30.3168 5.8138
191.346 43.7486 10.74
298.993 52.0425 11.5757
355.226 53.6845 10.6465
173.921 34.3364 8.38561
183.511 41.7329 7.74265
365.507 61.4018 13.5551
209.248 46.8703 9.61321
165.908 39.1156 9.79225
306.296 48.4782 10.7198
163.274 20.2399 4.11373
146.403 29.4127 6.06947
180.855 43.6433 10.7074
238.706 43.4301 9.97904
269.874 65.4215 16.9353
289.061 40.4557 9.10423
130.495 32.8516 10.8338
325.662 72.983 16.4609
198.456 48.0758 11.2018
274.947 74.4259 18.4019
105.082 21.6633 5.16698
185.343 27.9088 7.43602
228.75 49.1362 12.6646
152.006 19.5179 4.31052
146.845 65.8556 17.986
159.247 12.6745 2.88481
207.27 29.9664 8.12673
94.9173 34.1156 8.73421
311.296 60.6455 15.4835
188.583 33.9722 8.54386
151.47 19.1177 5.46665
174.266 40.0888 10.8277
287.309 62.9154 17.4823
238.013 58.5455 15.7269
263.816 58.8936 15.3852
144.912 32.504 10.5123
71.8648 15.7589 4.63906
72.8563 30.3283 8.36357
209.144 42.4818 12.0898
151.169 36.5894 12.3753
225.086 37.5176 11.7448
156.996 44.5924 12.0616
312.643 67.388 19.6683
88.1812 24.0224 8.2445
171.107 30.0156 8.28604
139.388 41.0546 13.3079
96.6582 19.8852 7.56342
199.236 51.8736 14.6248
178.773 44.1352 11.6915
208.796 45.9139 15.2651
92.4307 28.5152 9.06691
140.837 43.2465 13.6521
149.873 38.3673 11.5827
126.328 33.1392 11.9847
66.816 25.5045 9.50646
162.762 30.2536 8.52088
157.518 38.6698 11.116
203.877 57.1191 19.248
150.493 35.1033 14.0058
59.3948 41.5068 13.533
94.6171 18.8731 6.01492
212.489 46.678 16.4166
98.2225 34.0172 11.5456
120.88 36.9566 13.2029
85.6579 37.1715 11.8142
101.919 39.6057 16.0035
165.25 48.4841 17.161
145.464 31.6623 12.0418
259.093 58.9299 19.8187
132.995 38.8084 12.6753
134.403 44.5987 17.4596
241.522 60.125 20.3962
106.472 22.1243 8.26657
92.5376 42.0357 17.4448
188.083 50.0001 17.884
89.138 44.6832 15.9343
93.6863 48.573 18.7156
61.8139 25.7805 14.4606
116.555 50.833 19.4365
183.884 47.7675 16.647
199.4 51.5238 17.6997
85.5073 27.1475 11.2549
81.6645 22.7916 9.17143
75.0721 43.9884 17.7722
177.219 44.0587 17.513
82.1679 23.9179 9.92035
97.3413 35.0096 16.4111
151.866 48.1762 17.2266
155.431 66.8442 30.1274
100.66 39.2921 20.6734
204.622 70.7043 23.8153
59.5571 21.9477 9.96493
95.7057 44.0089 20.6751
221.805 78.315 32.4739
67.6001 35.3256 16.2369
146.279 45.0828 18.871
60.7527 34.9424 16.5211
137.202 32.59 12.7237
62.7267 17.9471 7.18898
63.9678 11.4672 5.77871
67.9775 35.2336 16.4109
127.518 37.1076 18.1786
32.3006 16.6716 7.33986
105.478 26.9556 12.043
105.471 36.6847 15.3134
35.2464 13.09 8.85713
94.045 40.4219 17.8342
137.029 49.1792 18.2872
148.255 66.7941 30.7667
207.057 76.426 35.7135
112.286 30.9226 11.7075
132.191 40.9423 20.0334
58.554 29.0849 15.9339
77.3661 38.9946 21.463
45.2916 20.3019 11.8416
124.157 41.8933 17.2256
111.917 39.291 19.168
111.181 48.9017 24.9972
65.5939 41.7102 21.3338
66.939 33.3918 15.4781
71.6849 16.2839 9.68838
51.4536 31.5272 14.555
32.0011 34.5823 20.9432
117.389 39.7568 17.1853
35.5924 9.77402 5.33416
57.1158 17.7547 7.54511
131.93 53.8993 29.827
69.777 35.8126 20.4583
76.9746 23.2792 12.2028
54.8062 32.713 15.2403
67.1303 43.6627 28.8682
126.707 44.0102 18.91
94.4402 43.3538 22.323
38.1617 18.1734 11.1987
68.4983 28.0481 14.6148
63.704 29.6606 18.4145
52.1809 5.74456 3.38873
74.8799 31.5722 17.2869
93.8207 20.8291 10.3836
60.2345 28.2697 15.2979
47.038 22.1083 12.4159
42.3548 28.2616 17.5598
62.4384 20.9193 12.3707
56.0212 16.1573 8.46034
159.014 49.3981 24.0141
55.2466 10.8766 5.54008
140.823 58.9036 37.5836
60.4444 35.8031 19.1183
21.2099 11.8324 8.23026
58.1492 15.1848 9.4755
69.4116 18.268 9.05924
116.487 36.5098 19.8962
76.4784 34.8039 26.2577
101.615 39.6219 27.2376
69.4682 42.6229 26.7066
61.255 27.4114 13.4947
98.4521 88.3844 48.2906
22.6169 25.114 20.1526
93.6588 27.2466 15.3237
87.0178 37.2988 19.7144
40.9008 30.8976 24.5809
106.862 54.4789 32.7942
133.492 62.143 37.2928
53.0648 27.2518 15.6777
71.5667 23.6736 12.9493
75.0458 29.7332 17.7353
50.9023 39.0814 35.0718
79.3414 27.5746 16.8664
15.1291 10.1384 3.90247
35.3834 32.0385 29.6104
134.496 75.3389 39.4691
25.3595 7.02703 6.12912
40.5967 21.3476 15.5446
94.4348 55.1846 35.0053
88.1745 38.8598 28.8164
36.8009 30.6981 21.2463
94.0472 42.5098 24.9862
71.3519 40.9165 26.8253
59.0348 35.2218 24.68
34.548 15.1237 10.5651
74.8846 47.8712 32.471
39.857 16.5299 10.3318
61.3601 34.1758 21.1046
32.8007 18.0714 13.3109
49.159 36.3899 23.8998
46.0322 49.7222 36.4985
29.0999 25.7123 24.0956
98.19 34.2935 17.7487
42.5636 35.2562 25.0622
54.0467 30.3862 23.543
39.5939 31.5461 23.2523
39.3622 14.0735 9.18397
39.2941 19.6348 15.0192
32.7019 14.2893 12.6375
96.5112 40.7973 25.1737
23.5617 15.0009 13.7099
73.5868 35.0323 21.975
48.392 29.933 24.4389
52.5313 31.859 19.5579
69.7944 35.289 31.8801
27.199 24.4813 14.155
29.8434 12.8648 9.8023
57.8969 34.8232 23.0287
20.9205 16.6674 14.5645
55.2207 33.0579 28.9105
24.7733 23.3559 16.9031
27.4896 43.1815 39.1756
58.7785 32.6028 21.7859
51.2107 34.9962 34.3535
29.4584 6.44735 4.66343
40.183 9.70778 7.36004
12.7147 8.74628 4.73491
24.2997 32.5479 30.099
87.3484 38.2017 32.7645
46.524 41.1449 32.3519
70.6219 44.063 33.9571
39.4857 23.2373 19.9454
39.5847 38.3074 34.6007
53.6653 19.6536 14.9165
38.0512 22.167 18.7847
77.1944 40.7419 31.3563
53.549 18.5717 13.5555
47.001 14.2588 11.4249
32.7345 19.8239 21.8966
29.5098 12.3764 10.2594
63.0286 49.0898 39.7477
34.3483 21.0489 16.1258
41.8071 29.393 18.4838
46.1316 43.9206 41.424
25.5384 18.5464 15.7077
66.7007 46.4073 42.3427
36.495 37.3291 33.2607
36.7656 28.1839 25.7482
26.5551 13.4106 12.16
40.8421 23.3041 22.4179
50.1575 32.7055 30.9791
34.8606 25.1681 23.3586
87.2773 46.1026 39.7075
32.7221 29.5695 27.3087
52.255 25.2779 19.823
76.3269 56.9682 46.5134
38.4658 13.4119 11.7434
41.5609 23.4488 17.6706
60.1371 46.2896 36.2759
30.6757 34.0708 42.8097
36.4818 15.7527 16.2507
75.327 29.0117 20.8037
40.2594 26.6686 28.3968
53.1796 29.2205 28.0191
47.2079 20.0388 19.6217
29.24 22.3758 15.4427
31.8719 19.0275 19.4932
51.0561 29.7971 26.6843
45.2119 37.0108 40.577
38.539 32.2856 26.8022
42.7619 27.1271 23.533
41.4587 20.6859 15.268
27.6961 21.3979 22.223
32.1344 19.5821 23.1724
40.5501 26.8263 21.4782
37.7437 23.0834 22.8398
20.73 9.43082 9.04726
14.3046 16.0545 19.6764
71.136 55.7527 57.5887
41.5556 24.8365 23.316
23.0131 22.4659 25.4169
70.5591 41.2353 34.4884
39.1482 19.5387 13.8133
36.447 34.1902 35.0527
39.3771 13.8563 14.1897
19.0188 8.22272 8.66518
12.7411 17.375 17.8471
32.381 15.523 15.5024
47.6872 29.9363 30.613
21.8404 17.3494 19.0414
50.1985 38.8793 40.2041
51.6136 38.1683 37.4188
13.6451 4.75934 4.69388
35.1073 32.4826 37.2443
32.4005 24.8855 23.8044
24.2768 17.6635 17.8531
32.7909 14.0533 15.7869
21.9991 12.8001 11.1088
58.3869 42.6886 48.7854
18.0335 12.6857 8.69697
24.1899 19.737 26.3544
27.7577 19.5477 18.9225
19.8021 13.2027 15.0301
46.1276 39.1935 44.4495
35.8638 30.574 31.5968
15.9623 9.63728 8.14049
12.8657 16.9483 19.4177
28.4347 24.0888 24.9662
33.2927 22.8649 23.3656
20.3351 23.1895 31.7178
36.3495 16.1585 17.0662
36.0278 17.8658 21.9678
25.686 37.8359 43.5164
20.6673 18.5015 14.8142
39.3973 30.8904 34.6493
16.2275 15.9501 21.1752
40.7217 30.8329 35.5671
58.6677 53.4072 61.1444
33.0057 31.0692 32.7762
42.851 25.1416 27.7877
29.181 14.6774 11.4887
25.0116 23.3654 22.0217
30.8058 33.487 42.127
36.5505 24.4681 34.1304
29.0588 17.9251 11.0426
27.0089 47.5189 60.7833
22.8761 13.7879 17.6609
21.3964 13.0887 25.8266
34.3237 18.9902 24.7445
43.2252 29.2198 27.0064
16.3453 10.3066 11.3854
31.2692 14.6139 16.1726
16.5188 25.5906 30.2643
28.6928 16.2495 22.974
57.1124 29.3643 24.2329
34.3547 30.7983 36.1348
25.8789 22.5072 32.0844
38.3517 32.9238 41.9419
30.407 16.6128 19.8365
18.767 20.1402 30.2183
20.0426 14.1098 12.9892
28.8165 14.4474 17.8761
32.1627 32.3642 40.3496
14.218 10.777 17.354
25.9505 19.0654 20.32
25.4116 25.5155 37.1645
28.0366 20.222 27.4903
21.5695 14.8711 19.4268
23.6063 23.9492 32.8177
15.2752 11.2814 10.5874
17.1949 22.3583 25.2523
11.9244 21.2024 27.2289
27.9479 15.3833 17.774
22.3566 16.1745 14.1554
22.253 21.5626 30.8232
22.9967 16.1308 18.6622
29.4291 32.4295 52.5083
20.0504 13.3713 13.175
23.4998 19.5968 25.064
18.3024 12.1977 19.4991
8.42954 19.5585 21.8929
16.9623 37.0213 55.0107
27.5994 16.5533 15.3773
25.6772 22.7794 22.3661
20.7269 14.5879 17.5308
21.3361 28.6103 35.093
15.7935 9.87538 16.8816
21.2302 17.5175 25.7883
19 17.2763 27.1371
17.5899 19.3733 25.0777
46.4552 30.2294 34.5021
29.2686 19.547 27.4177
31.3275 23.5239 28.7828
13.7699 7.85555 13.9201
25.1525 24.9192 31.6723
14.7036 15.9241 16.8647
9.33501 12.7543 24.5266
22.5164 31.9198 33.4356
16.1057 22.7003 34.5678
17.7253 8.57416 12.5341
16.6213 13.2686 23.0611
30.1427 36.8753 47.1316
15.2965 9.50191 15.8449
36.3239 35.9242 42.1627
12.5167 15.8359 30.1124
20.9589 19.0747 18.4275
21.9724 26.0164 39.2276
23.2087 17.9418 23.9396
11.5922 11.0378 21.9595
24.1749 16.2586 19.0411
18.9263 10.336 21.8242
21.6339 33.2633 43.7704
20.3308 12.5242 19.5549
16.8188 20.7198 24.6164
15.3256 17.387 26.2064
30.5027 24.9012 28.6309
15.2871 26.203 43.8517
16.9413 22.1617 31.745
11.5279 18.2612 32.8837
28.1125 14.7275 20.3091
31.374 25.4596 30.7168
9.48343 9.71001 20.9001
17.9778 10.0854 13.8397
27.7376 41.9279 54.8148
10.944 8.51913 13.2502
8.08688 19.3991 28.6022
11.7958 20.5588 33.1782
18.9766 11.1103 19.7034
19.8224 16.194 17.0087
16.313 19.1007 32.6571
12.6295 6.15889 19.63
11.7875 10.234 14.5925
19.8191 15.8322 14.1376
11.4526 13.1312 25.3378
19.2061 26.1641 39.0914
32.0513 30.0686 48.2007
16.7894 44.9727 62.1058
14.4615 12.2621 22.6245
18.1986 11.9504 21.5728
12.0618 10.4926 11.9671
16.4405 24.5875 35.0177
19.3878 29.6821 42.5569
10.5277 14.6812 34.4055
25.9334 13.6617 20.1521
27.3105 34.7226 46.3176
18.4702 6.98683 13.5144
12.7598 13.3226 14.6618
7.6648 11.796 24.8936
12.4578 12.3317 24.9099
37.1341 33.3088 45.6119
18.8286 19.7478 32.207
5.93553 7.52007 20.0291
25.4273 25.6173 39.9433
8.11778 13.9821 13.6734
14.0198 12.9715 26.346
7.99817 8.93635 15.1136
18.9932 29.0686 53.6643
24.3562 23.622 33.0565
6.95588 14.1908 21.0766
14.1566 25.6497 44.0212
11.3572 19.5236 27.5233
12.7048 11.9465 21.0029
7.61997 13.2103 14.487
7.91804 18.6194 24.5773
5.91857 21.7918 41.8673
11.2284 12.3181 32.2502
24.4784 31.1607 44.7206
12.5167 11.0572 25.912
22.8531 11.8668 20.7405
8.02693 19.2854 26.5541
15.3432 12.0141 26.777
25.4558 16.5279 22.4178
12.4587 8.97793 9.84876
12.6571 24.0469 48.2547
27.9975 17.5608 28.9667
11.631 11.585 21.3478
19.9154 24.2217 41.7335
15.4939 8.22727 13.341
17.0155 26.2364 60.2361
24.6175 36.0428 57.3695
32.5555 40.4154 51.773
9.6213 13.4396 25.5547
10.7122 19.9271 42.2559
22.4714 24.2025 34.9364
11.0112 15.9007 23.0329
8.47796 5.96661 17.6819
11.8911 13.7701 30.2397
11.0772 21.8141 31.8162
9.00899 14.2229 28.013
16.6724 13.6264 32.1565
19.6289 25.0205 34.0197
13.4819 17.1938 30.9905
8.01215 16.1138 31.8343
16.6101 9.40539 11.1062
10.4933 12.9489 37.0973
21.8357 18.8984 25.6775
10.1901 17.0745 50.0081
24.1871 20.8717 32.405
31.5557 24.8364 33.4873
13.8791 10.0811 16.2506
11.692 11.3104 18.4138
6.08363 7.81496 19.1492
14.8947 12.4525 24.8885
16.0203 17.9109 33.6748
15.062 7.40562 15.5584
15.1171 14.999 26.7558
6.93129 7.70045 16.2557
17.7514 12.6158 16.9339
13.1698 9.95562 16.2653
17.6323 23.5197 50.6141
11.643 12.0541 15.3633
9.08761 5.42598 18.0225
22.8528 24.2132 32.1704
15.025 20.8912 44.9175
6.61334 13.2479 30.1015
12.8267 8.98259 22.9777
14.6742 22.2819 29.1132
15.452 31.9447 78.8623
30.0617 18.8805 26.2901
14.0697 15.447 21.1158
9.27548 14.2541 40.0406
15.2119 16.2674 29.474
14.5499 14.9947 22.8172
8.85692 15.016 36.7892
20.318 29.449 42.3316
13.6513 15.8266 48.787
22.0533 21.2641 45.557
19.7983 18.3048 14.2329
9.90863 19.8159 37.8201
10.7869 25.3181 52.9098
15.2131 25.4988 46.6855
10.9472 12.1087 21.5713
8.88967 14.1608 26.2655
9.53772 22.4091 55.848
21.1131 15.5613 26.0723
20.0243 17.8323 28.6354
6.65356 21.0001 42.9946
12.503 23.2205 45.5625
10.5032 7.52841 11.127
8.23073 13.0279 32.0458
10.1522 11.1903 28.051
10.5036 17.7852 53.4908
24.9919 24.0802 34.5298
14.4154 21.4582 33.6808
10.9006 17.3587 39.6651
13.9593 10.3394 38.2616
20.424 13.4542 18.1352
10.1746 8.61107 10.5037
11.7897 8.55578 17.1225
10.3855 13.6829 24.5329
18.9847 23.1166 33.4286
7.99797 15.8763 41.6253
14.6409 18.4564 42.2494
9.26394 4.3973 22.1262
10.8962 8.51124 19.4407
13.9168 22.4352 50.8111
13.0375 14.2179 26.0543
8.23315 18.0967 35.6967
8.55151 13.6103 20.464
8.88786 13.216 28.8903
16.8965 15.0907 31.6707
8.32646 12.9267 24.7769
8.11642 24.0001 46.7487
13.3904 9.29589 25.7424
17.2476 14.8566 29.1953
9.95301 8.44959 18.0451
10.1515 8.89241 21.8203
16.3394 7.56455 11.3326
15.7774 24.1229 52.9962
12.8736 8.64729 19.8422
4.99836 8.31201 33.0559
12.9519 15.6682 20.3957
7.49467 12.799 39.7695
15.6582 16.9274 26.0803
7.13131 7.03286 19.7188
11.6586 8.21802 9.59112
4.63481 6.61018 12.8724
12.3122 12.863 33.9471
16.2093 15.2096 18.8726
12.6741 14.2062 39.6348
13.5321 15.5798 30.1223
11.9216 34.748 56.1979
6.59247 8.39321 16.7128
5.4582 13.6906 39.0559
17.0912 16.2434 32.5651
10.8194 11.8001 32.3819
7.13656 9.41718 30.8832
13.3113 8.53006 11.8006
9.53687 8.6392 17.8633
3.2062 7.59225 23.1538
10.5871 10.4712 27.6227
15.3637 11.0691 16.3693
9.13613 6.40994 22.0438
11.06 17.6157 34.8567
15.5713 25.7186 62.1164
8.25887 11.5443 31.5908
15.0503 12.3143 19.4523
5.27725 12.5425 29.2337
9.94334 9.59897 20.823
13.1242 10.4952 29.2279
13.2549 14.2258 25.3825
9.151 10.2432 14.3093
8.16734 7.44686 14.1063
10.5963 11.0497 18.8233
7.79896 9.53413 23.2577
12.5409 20.4918 44.6354
6.35139 3.04499 16.2329
9.64686 14.2897 42.2117
8.44628 12.1785 12.2464
5.03781 11.7585 27.7212
9.01516 11.7228 32.6327
7.03379 11.0906 28.4757
7.32661 6.80645 6.56107
3.17986 14.5322 46.7966
14.649 11.3349 19.3059
13.0954 23.5973 36.5911
7.07573 6.21475 20.8295
6.42166 9.90037 27.9361
13.5103 10.0653 21.4693
4.88525 4.61044 18.7714
14.4794 13.5301 24.1905
5.14279 9.96583 20.7665
11.3507 14.6061 43.6868
7.20493 20.1491 30.5392
7.34412 13.2503 36.4219
14.0034 20.2845 58.7992
13.513 13.4576 35.6266
5.03412 16.6216 43.5949
14.7633 16.7785 25.7865
4.3196 14.107 30.3792
11.6791 8.93623 15.337
5.86692 10.4752 33.0351
5.24714 3.82237 11.7035
11.9326 9.59101 21.0979
7.97614 6.92395 12.449
6.66619 12.2031 29.3393
4.92308 4.17864 18.9219
7.83946 27.4377 46.0238
5.41243 3.94808 13.1058
4.51009 7.92944 43.2067
12.4876 15.0098 41.2504
9.29742 7.83881 25.2785
14.5844 19.6959 29.6138
13.0008 10.5159 16.7825
8.39545 11.5564 26.1042
8.90522 12.814 30.9359
5.12167 5.13153 13.675
8.66708 15.4587 26.736
5.5032 15.9564 44.3073
7.53577 9.04403 29.1314
6.02865 10.2038 21.0822
10.2917 9.04391 25.5811
8.01362 15.3439 45.5678
15.5557 17.8319 47.7104
8.02522 25.5459 67.7137
