# pn-170911/CsIIA-27-CsIIA-1280-1959.psd
# Power spectrum* (dif=0,1,2) (really just |FT|^2)
# NOTE: only the first half! (symmetric)
# weeks: 1280-1959
# 1848 clock-days, 709 excluded
# PSD: 1441
93805.5 2.90472 0.0560105
6.23172e+06 63.1982 0.0292494
4.34802e+07 983.266 0.0474959
3.53179e+06 119.758 0.0340281
4.7142e+06 342.815 0.0548028
1.31279e+06 119.052 0.0427142
931793 122.055 0.0508041
657780 116.865 0.056479
530202 124.375 0.0666563
385481 113.316 0.0748284
324882 117.122 0.0854014
256384 111.235 0.093507
221220 112.763 0.105734
185494 114.635 0.122255
167287 119.499 0.143793
138660 112.126 0.149786
127391 115.79 0.173896
115885 119.35 0.195273
100465 118.475 0.207534
88236.7 118.683 0.232072
81438.9 117.389 0.251411
70694.2 110.265 0.257524
66577.4 117.082 0.30181
60727.4 116.138 0.3189
54214.1 114.214 0.343661
51527.6 113.405 0.361277
48238.3 117.832 0.408343
44783.5 116.875 0.435876
40409 114.367 0.458968
38111.5 116.608 0.488305
35534.4 115.1 0.520803
33058.9 115.122 0.545798
31482.6 118.778 0.611126
28966.1 116.273 0.630937
28064.2 114.909 0.657746
26366.8 116.451 0.706313
23579.9 109.642 0.705451
23179.9 116.719 0.780745
22247.7 115.351 0.815322
20756.4 115.366 0.860355
19921 117.022 0.923508
19010.8 113.735 0.941509
17784.8 114.018 0.990285
17534.9 117.279 1.06298
16233.5 109.808 1.0389
15478.6 112.999 1.11449
14802.5 112.968 1.16361
14327.3 112.008 1.20105
13623.1 114.423 1.27119
12564.5 107.763 1.25359
12617.8 114.774 1.40148
11699.8 108.259 1.36856
11473.6 110.371 1.45068
11289.8 115.406 1.56852
10906.5 112.603 1.57904
10481.1 114.227 1.67223
9734.59 104.638 1.5913
9538.61 111.508 1.74911
9649.25 116.658 1.90156
8756.09 109.191 1.83379
8531.09 107.971 1.87609
8319.04 113.194 2.02199
7785.77 106.614 1.98224
8033.83 111.943 2.14534
7396.98 108.566 2.15626
7482.05 113.573 2.31231
7280.75 114.364 2.38712
7058.85 109.991 2.37492
6524.62 108.29 2.42333
6720.11 112.167 2.55881
6435.65 112.141 2.62484
6078.43 108.034 2.6231
5935.75 104.937 2.60368
5708.94 107.375 2.75907
5551.11 107.896 2.85521
5374.68 106.356 2.86769
5427.57 110.67 3.06894
5279.44 110.976 3.15464
4950.91 104.747 3.04839
4690.19 106.307 3.17507
4778.33 110.192 3.37151
4592.14 109.208 3.46344
4601.96 110.406 3.55128
4378.21 104.516 3.44183
4266.88 105.578 3.55482
4231.27 110.731 3.83376
3999.2 106.024 3.75584
3953.21 106.491 3.83952
3876.34 103.581 3.84578
3891.01 107.105 4.05202
3773.46 104.991 4.04678
3628.23 105.947 4.19388
3722.54 108.272 4.36524
3689.77 110.305 4.55683
3568.7 108.576 4.58486
3403.91 108.031 4.65682
3362.82 110.879 4.88037
3263.64 106.005 4.74003
3203.81 108.646 4.99457
3200.94 109.091 5.10121
3036.11 102.998 4.89357
2928.99 104.371 5.09407
2905.03 103.967 5.13183
2818.73 105.81 5.34343
2863.49 104.646 5.37572
2764.85 105.145 5.52055
2580.45 100.988 5.3883
2646.7 105.342 5.73956
2596.86 104.552 5.822
2590.34 105.957 6.00617
2474.33 105.315 6.06106
2379.57 100.265 5.88803
2366.87 105.182 6.28764
2401.37 108.299 6.57439
2297.94 100.964 6.20984
2252.87 102.561 6.46519
2168.8 98.8282 6.35322
2133.25 100.958 6.57323
2083.72 99.2382 6.60067
2171.73 107.582 7.24453
2083.1 103.307 7.09788
2052.13 99.8433 6.9358
1984.67 102.077 7.16045
1847.55 98.7711 7.07531
1862.54 101.21 7.39932
1887.01 101.84 7.53744
1791.88 98.8471 7.45671
1865.24 103.795 7.94825
1801.22 101.318 7.8877
1773.74 102.592 8.09795
1823.25 103.239 8.29005
1747.42 105.142 8.54301
1636.88 98.368 8.11884
1669.87 99.8538 8.30804
1606.13 98.6633 8.43801
1598.66 99.4078 8.59611
1513.08 95.0201 8.35019
1585.59 101.388 8.9917
1515 97.5311 8.83683
1483.02 99.3734 9.06043
1405.39 95.3037 8.8336
1467.29 101.235 9.53667
1450.6 100.874 9.67761
1401.92 98.1516 9.48032
1368.84 99.171 9.68049
1364.59 97.684 9.7215
1320.59 94.9513 9.55293
1284.73 95.5594 9.7901
1301.41 99.0452 10.3197
1270.71 96.7426 10.1156
1245.23 95.9272 10.1428
1210.62 94.8373 10.197
1234.47 96.7431 10.5437
1184.95 94.7918 10.4865
1182.94 93.7416 10.5272
1187.87 93.6084 10.6713
1167.54 96.199 11.0559
1162.08 95.7796 11.1314
1084.33 92.208 10.8349
1088.31 91.7036 10.9688
1097.69 94.5796 11.4042
1063.85 95.5583 11.7412
1094.63 97.9462 12.0617
1058.73 94.4897 11.9149
1092.24 99.8329 12.6508
1003.96 92.8656 11.963
981.798 91.3606 11.8967
1002.64 92.3277 12.1445
963.898 93.4581 12.4809
961.815 93.9284 12.6933
964.54 95.0473 12.9241
931.256 92.6743 12.7099
955.251 94.0172 13.1129
939.204 95.1809 13.4169
908.524 91.5286 13.0189
902.506 91.7692 13.3393
898.531 90.1278 13.1513
869.236 90.8804 13.4334
839.44 87.1264 12.9879
869.995 89.0671 13.3815
831.309 91.2898 13.9603
811.543 90.5222 13.983
865.451 93.2404 14.5165
802.343 91.0151 14.386
813.905 90.388 14.3743
799.658 91.3598 14.6781
780.3 89.3779 14.4231
764.707 87.5178 14.5035
748.462 88.672 14.6438
768.334 89.5478 15.0612
733.042 88.9722 14.9864
710.141 86.6985 14.9863
735.158 89.0771 15.4211
730.128 88.3933 15.4911
700.965 90.0025 15.8869
708.441 85.9642 15.3463
704.263 88.6292 15.9494
699.883 88.4046 16.1054
677.791 87.3235 16.0582
664.036 84.1642 15.607
642.342 83.2567 15.6432
653.298 86.2182 16.2677
669.686 86.8374 16.6201
652.428 84.5088 16.3006
635.742 84.8561 16.5916
617.95 84.4209 16.8629
630.643 85.8356 16.9226
610.553 85.5752 17.1463
610.288 84.5124 17.0518
614.533 86.6252 17.7315
601.436 86.7324 17.925
600.181 87.1127 18.2211
586.613 86.4663 18.0833
576.511 85.8372 18.4173
593.65 87.4737 18.8322
570.298 85.8037 18.5582
557.864 82.7216 18.1002
572.35 85.8984 18.7991
564.795 87.5642 19.573
545.29 85.1515 18.9503
540.146 83.5323 18.8738
555.799 86.8051 19.7174
521.781 82.7018 19.2072
531.774 83.9731 19.5661
541.724 84.5328 19.6902
511.015 82.2965 19.3957
503.696 80.9455 19.3448
492.816 82.2997 19.8476
493.385 83.051 20.2972
496.116 82.8911 20.3166
505.375 83.5392 20.5642
464.1 80.4439 20.0702
473.082 82.0114 20.5802
461.258 79.9509 20.1794
449.642 77.5124 19.8543
448.114 78.7048 20.0593
463.583 80.3524 20.9532
448.604 80.3033 21.083
437.005 78.1196 20.7969
451.17 82.094 21.749
431.947 80.1085 21.4131
427.515 77.8154 21.2372
441.261 79.5791 21.6275
426.655 78.7706 21.5862
419.496 82.5346 22.9292
422.345 80.7407 22.5217
419.182 78.7993 22.1447
417.823 81.1766 22.8179
403.191 78.0984 22.5814
405.243 77.8403 22.3203
400.994 76.0898 21.96
388.847 77.0167 22.6322
394.354 78.3433 23.018
385.531 77.7593 23.2677
380.541 77.2957 23.2434
387.01 78.3348 23.8133
380.214 77.5516 23.5178
379.095 76.5257 23.448
364.801 76.1408 23.475
357.809 75.26 23.2611
362.251 78.224 24.6518
363.696 77.9825 24.4442
365.474 77.715 24.8271
355.001 77.586 24.8383
360.489 76.3974 24.8922
338.817 75.0074 24.4634
351.434 77.8074 25.2459
358.217 77.6013 25.7298
344.867 78.3078 26.1901
339.812 74.555 24.6813
340.878 75.733 25.6015
343.247 77.8684 26.1426
329.179 77.1745 26.4278
342.684 78.8806 27.1308
328.911 77.0151 26.6961
326.381 75.1343 26.3837
324.375 74.0104 25.9705
319.955 74.5857 26.3301
324.193 77.5305 27.7835
308.437 74.0154 26.839
296.325 70.6888 25.6127
299.952 74.3944 27.0684
303.024 73.1839 27.1421
291.937 70.5433 25.9246
304.276 74.9037 27.3721
286.387 72.779 27.5829
291.136 72.0206 27.0279
290 72.258 27.4649
283.171 72.5932 27.6869
282.476 73.0164 28.3833
281.091 71.0116 27.3486
293.156 76.4212 29.8581
279.626 70.9691 27.879
287.578 75.696 29.9241
271.647 69.5849 27.8042
265.634 70.8424 28.2643
261.469 69.0494 27.519
266.469 71.4504 28.9785
264.616 72.1715 29.4557
267.601 70.2566 28.966
263.092 72.4254 29.8832
264.944 72.7522 30.185
254.291 69.3048 28.9946
253.776 68.4188 28.6302
256.424 69.9401 29.37
247.307 67.1562 29.0093
246.905 70.1349 30.1384
238.975 67.7527 29.4851
246.88 69.4574 30.2955
245.314 68.2987 29.9569
245.325 69.3208 30.4247
235.406 69.6212 30.7141
233.627 67.9549 30.5794
236.268 67.9557 30.3033
235.164 67.8989 30.4789
224.789 67.8341 31.0653
232.993 68.8451 31.4832
236.055 66.6338 30.3989
225.318 67.3552 31.246
228.962 67.2715 31.1283
221.425 66.5061 30.9477
220.952 65.5246 30.9782
225.192 68.2453 32.163
222.705 67.8385 32.6987
225.048 67.5835 32.1834
208.62 65.4811 31.6927
220.659 68.0793 32.8059
212.366 65.8031 32.3004
216.277 67.2538 33.3393
213.612 67.1818 32.8368
204.635 63.4373 31.3715
200.476 64.1002 32.7552
211.373 65.1856 32.303
207.247 65.7946 32.9096
200.101 64.6167 32.7332
200.48 66.5554 34.1066
197.355 63.547 32.8428
195.826 65.3411 34.0791
195.079 63.6184 33.4486
194.484 65.0145 34.1645
200.711 64.4958 33.492
198.197 65.0945 34.2122
191.659 63.2297 33.6741
192.799 65.0485 34.6156
190.369 66.3466 35.6274
190.351 64.236 34.5206
177.7 61.3223 34.3428
188.252 65.1699 35.3589
179.115 61.6731 33.825
184.888 64.0149 35.8086
183.841 61.6515 33.5822
179.759 60.6243 34.1981
181.928 62.1629 34.4126
179.03 62.6324 35.6591
168.461 59.1976 33.546
175.56 64.3481 36.9686
172.748 62.653 35.4102
167.806 60.8396 35.3089
167.6 60.3558 34.944
174.435 62.8036 36.1421
172.673 62.7102 36.3705
166.174 61.0704 36.2697
169.593 61.7044 36.6054
168.589 63.3777 37.5826
168.808 59.3229 34.9613
160.264 60.2047 36.9164
162.192 62.4053 37.5944
157.441 61.4583 37.6167
161.488 61.604 37.4785
161.75 60.405 36.8358
161.034 61.5218 38.644
167.601 61.1214 37.5925
155.256 60.7639 37.8555
155.759 61.5289 38.3828
154.447 59.6134 37.8988
154.069 59.3247 37.6429
152.718 59.913 37.6877
147.421 57.0404 36.7451
147.368 57.4206 36.6153
152.658 60.5493 39.2189
143.036 58.0802 37.5756
146.588 59.1279 38.9081
146.072 57.5393 37.5377
148.63 58.2964 38.0404
146.268 58.1128 38.5846
143.782 55.651 37.6186
145.593 59.7131 39.7665
144.074 56.0705 37.433
141.13 57.3748 38.3994
133.205 55.434 38.2048
140.955 59.3345 40.4097
138.338 56.359 38.6767
142.785 57.439 39.42
146.988 59.2187 40.2817
139.054 58.2101 40.395
131.027 55.4828 38.6297
131.92 58.6469 41.4646
137.05 59.7627 41.6521
134.613 56.7618 40.3252
133.981 57.4415 40.5314
134.002 55.2293 39.1168
128.993 55.4005 39.9833
132.361 57.1671 41.4563
126.251 55.9793 40.5337
124.422 53.892 39.463
133.257 56.7043 41.3097
125.433 54.791 40.1882
124.387 56.1257 42.0091
125.035 55.4679 41.7598
125.008 54.6365 40.3815
128.557 55.8 41.8566
128.257 56.1103 41.5459
124.43 54.0215 41.6249
118.851 54.7364 41.3281
123.249 56.8333 42.8134
121.578 55.087 42.241
119.22 54.2189 41.4849
117.85 51.9173 40.3373
115.204 52.222 40.7578
122.102 56.8373 44.2852
117.036 53.7822 41.875
114.922 54.7922 42.4543
112.468 54.4323 43.6065
113.103 51.8693 41.2368
114.765 55.5081 43.7296
115.469 55.7769 44.6334
113.089 53.0359 42.6025
112.427 53.4385 43.7296
114.419 56.1148 45.2273
112.574 53.3986 43.4435
111.113 53.1293 43.7451
114.805 52.8525 43.182
107.006 51.7054 42.667
103.962 50.4441 42.2964
105.98 50.4204 41.4363
103.093 51.7801 43.3126
106.801 53.4964 44.6499
106.53 51.3332 43.0927
104.339 52.2543 43.9158
103.362 51.8815 44.5013
105.079 52.3368 45.3179
105.588 53.6745 45.438
104.474 50.7937 44.0986
101.303 49.2194 42.7093
108.895 53.7964 46.9817
101.735 51.2139 43.6534
100.329 51.1331 44.7674
104.472 51.0127 44.4527
96.4828 49.9672 44.1653
98.777 49.3571 43.6509
98.7373 51.4828 45.2127
96.1674 50.8166 45.6755
96.5353 50.0146 45.2405
96.5572 49.2165 44.4472
96.5984 50.3026 45.4314
94.9049 50.4986 46.3539
96.0433 49.6247 44.7419
92.3524 49.3994 45.2018
94.2594 47.7016 44.0197
98.5476 50.2848 45.8012
94.3559 51.3784 47.9053
90.3547 48.2169 44.3055
91.4854 48.9008 46.1988
90.8784 47.7119 44.7996
91.6385 48.0333 45.1183
91.8859 50.0198 47.6255
91.4289 48.7423 46.0724
91.2693 49.2748 47.1441
91.372 48.7538 46.406
90.6878 49.4311 47.889
91.4059 49.0469 46.8602
92.2986 50.9829 48.9651
88.9181 46.0053 43.6761
85.7215 45.942 44.7891
85.0474 45.3236 44.6523
89.5053 49.8244 48.4683
89.703 49.4979 48.0491
85.8428 47.0812 47.1264
86.104 48.1779 48.4902
88.3173 48.046 47.5717
85.689 48.4892 49.2076
83.7502 47.3847 47.2102
85.8204 46.089 46.5146
85.6731 47.5898 48.5891
83.6412 47.9675 48.7288
85.082 47.8916 48.4525
82.9561 46.1262 46.4621
79.871 45.8295 47.3049
81.4729 45.8383 47.5724
80.3185 45.9559 46.5808
78.8585 45.844 48.3001
82.2532 44.8967 46.7038
80.4689 45.6617 47.176
80.9108 45.5045 47.1344
78.4609 45.449 48.2892
80.2505 45.7232 48.3119
77.3257 44.9213 47.9317
81.2939 46.2534 48.9421
78.1506 46.3908 49.5655
77.8088 44.7467 48.283
77.7858 45.942 48.6567
74.2209 43.9965 47.8398
76.8998 43.8549 48.0051
75.7525 44.8481 48.7585
76.8566 46.4525 49.6705
74.716 45.6327 50.3818
77.7267 46.797 51.1464
72.4869 45.2945 50.175
72.8875 43.1618 47.5796
73.7195 43.3615 48.4881
72.6356 43.6979 49.4884
74.5994 45.4061 49.8297
71.4311 43.7613 49.8263
72.7784 46.4679 52.4058
70.3811 43.8696 49.6084
70.408 42.9424 48.9819
71.5482 44.3634 51.1624
70.0297 43.2091 48.836
70.0089 43.8971 50.5861
69.6193 43.3641 49.3136
70.3692 42.205 49.005
68.7915 42.6205 48.8881
67.9128 42.9292 50.8774
69.7256 44.0689 51.1054
67.7801 42.1847 49.0852
68.6129 43.2711 51.654
68.5574 42.9402 50.5986
70.3663 44.2462 51.2106
66.4132 41.506 50.0791
69.0488 44.4729 52.6856
66.9265 43.0419 51.5363
68.8665 42.8154 51.0789
67.1076 44.2371 52.4884
66.3037 41.2167 50.2861
68.6906 42.0002 51.0401
66.6865 43.2313 51.7335
65.5919 42.7348 52.8049
64.883 42.094 52.3422
63.0989 41.1661 50.2506
61.8849 39.4811 48.4252
63.1989 42.1154 50.9649
63.4028 42.5898 52.6722
60.782 39.5242 50.0486
62.0159 41.0534 50.4439
61.2873 40.4545 50.2533
64.8145 43.6101 54.8708
62.1485 41.9061 51.9658
62.0527 41.5706 52.8401
61.9811 41.1149 51.0471
59.6149 39.5291 51.8734
61.8336 39.2918 49.8135
60.893 42.1327 53.3707
58.2323 37.6093 49.0075
60.7259 40.0868 51.0799
60.9633 40.5513 52.295
59.5648 39.8797 52.4791
61.5296 41.2755 52.1039
60.624 40.6036 52.7681
58.5964 39.5461 52.5487
59.6096 40.3411 52.1035
57.4437 39.183 51.8917
56.8313 39.1333 52.0191
58.5819 38.5757 50.8854
60.6315 39.3548 51.7891
58.1547 39.3659 53.3431
58.5472 39.6681 52.1143
57.3334 39.5851 53.2566
56.3387 41.0427 55.0882
56.4418 38.8225 51.7159
55.8738 39.6032 54.4035
56.236 39.2271 52.331
55.588 37.5045 51.9522
56.1599 39.2682 53.0806
55.6762 39.3395 54.1153
54.4244 38.294 53.9505
56.6491 39.7792 54.794
54.4181 38.0528 53.2832
53.7441 37.6919 50.8313
54.0715 37.1161 52.5295
56.672 41.6034 56.4912
55.2074 38.8417 54.0481
52.8616 36.3545 51.7385
55.6113 39.2973 54.1421
53.0078 39.0944 54.9627
53.4655 36.2229 51.3695
54.0843 38.7072 56.3258
52.2445 36.4738 52.4673
54.3268 38.554 54.12
53.493 37.5046 53.3342
51.9016 37.481 53.1938
52.3456 37.7789 54.677
51.2473 35.6505 52.4468
51.7835 36.1913 52.6406
51.9791 38.0519 54.9264
50.8464 36.4487 53.0453
50.512 37.3554 54.3177
50.3443 36.9847 54.1252
49.468 36.5555 55.3122
52.4651 36.9412 54.6244
50.2805 36.5478 52.9824
49.1659 35.3033 53.6797
51.4224 37.8087 55.0676
50.8333 36.7292 55.5847
49.7442 36.7852 55.3829
50.4923 37.2258 54.0327
46.4795 35.2749 53.7572
49.2842 36.2733 55.2436
49.5464 34.8461 51.8634
47.4981 35.5106 54.8992
48.0529 35.0408 52.9972
48.3549 37.0809 55.9928
48.9322 36.5841 55.9292
47.4466 35.4567 54.7145
47.4271 34.4542 52.4673
48.2288 36.2854 55.8564
47.1614 35.8099 56.2068
48.1926 35.3761 53.8551
45.0929 33.5331 53.0982
47.1627 35.894 54.9663
46.4979 36.516 55.6114
47.2248 35.0368 54.894
46.1681 36.9567 58.0191
45.4539 34.0077 55.1985
45.3026 35.9991 56.518
44.9823 34.3676 54.0986
46.2736 34.6728 55.6019
46.4742 36.1325 57.5155
45.7802 34.3467 54.4222
45.8831 35.6832 57.0023
43.6544 35.615 57.1381
44.0339 33.8505 53.765
44.9036 34.4525 55.4295
43.3419 34.2438 55.7099
44.2385 32.9054 54.6217
45.18 34.5384 55.676
45.3389 35.0591 57.6334
43.1619 32.5745 52.7514
43.7391 33.8484 55.9309
45.0881 34.8715 55.7759
43.9609 34.0672 57.6167
44.4745 33.8966 55.4689
44.5707 35.2032 57.5708
42.7177 33.1797 54.7479
44.2436 34.0883 57.0658
43.3416 33.7098 56.7667
43.2096 34.5886 58.0221
42.9937 33.4417 56.5001
43.3961 33.578 56.0949
42.4368 33.2324 55.916
40.9529 33.1031 57.6954
43.1058 34.3239 56.7618
40.317 32.2927 56.3774
42.3411 33.5711 56.1053
40.6866 32.1166 56.0028
41.6851 34.2736 58.564
41.0824 32.7696 56.2885
40.3044 33.8535 57.2057
40.7545 33.4496 58.0452
41.4936 31.9453 54.886
40.7398 32.5544 57.2893
39.8325 32.8787 55.7161
40.1433 32.124 56.3496
39.4907 31.5046 56.0902
39.6956 32.2317 56.2285
38.714 31.7377 55.3262
39.5888 32.7507 56.6644
39.4288 32.9531 57.9028
39.7434 31.9085 57.9491
39.6932 32.5115 56.5803
38.8713 32.0765 57.9132
38.512 31.5263 56.0328
40.0519 32.691 58.8901
38.672 31.9867 56.9393
39.8054 32.2357 56.8058
37.817 31.3202 56.5189
38.7029 31.9671 57.6767
39.2428 31.9472 58.4996
39.0336 32.851 58.5594
37.6222 31.4506 57.4864
37.8999 31.0282 56.411
36.8892 29.4308 54.5357
35.6057 30.5139 56.9908
38.7041 31.6178 57.7923
37.2052 30.796 55.0374
37.1862 31.4378 58.1764
36.7842 31.7544 58.9134
37.5305 30.6522 56.5715
36.6121 30.1789 57.3586
37.6584 31.2552 57.2371
36.1009 30.8772 57.5443
36.3049 29.5535 54.4941
35.4417 29.5585 55.6898
37.1569 29.8275 56.378
35.1776 30.8039 58.6595
36.8252 31.9258 59.1296
35.2641 30.198 57.6686
35.8752 29.7006 56.0219
34.3527 29.1982 56.5709
35.8723 30.3253 57.2229
36.8009 31.1184 59.5875
35.2609 30.3236 56.4343
34.462 29.1394 55.559
35.2992 30.2717 57.8509
34.0725 29.1509 58.0728
35.0338 30.8477 58.5243
34.935 28.1083 54.3839
34.5103 30.1448 59.4145
35.5669 30.7188 58.693
34.9693 29.5341 57.7504
33.8874 28.6177 56.2884
35.0128 28.9572 56.0659
32.86 29.6699 58.2858
34.5306 30.5599 59.4542
32.8747 29.3417 58.097
33.3185 29.8203 59.156
34.9803 29.1828 55.7755
33.3233 28.6653 57.8502
34.5716 29.2902 59.7601
34.7425 30.399 58.8754
34.0095 28.5655 57.9251
32.9994 27.5532 55.948
32.6059 27.7755 55.0761
33.3186 29.0532 57.3842
31.8638 28.6561 57.4893
32.587 28.3983 58.7312
33.2819 28.5792 56.3443
32.626 27.6874 56.5211
31.6006 28.4231 58.1925
32.6136 27.8384 55.5581
32.644 29.1736 59.8978
32.2704 27.1405 55.9292
32.594 28.1826 57.0393
33.1777 29.0403 58.8441
32.0113 28.5645 57.9998
32.4514 28.8081 58.8881
30.9457 27.1112 57.1122
32.352 27.4233 57.5077
33.3938 27.4465 54.4952
30.7546 27.2964 57.9051
32.2929 28.2719 58.5021
30.8192 27.8074 57.5223
31.2981 28.3308 61.1625
30.7104 27.1805 56.232
30.6419 27.0797 57.7602
31.2848 28.5522 57.4442
30.2311 27.2531 57.9393
31.362 27.9572 59.0597
30.4797 27.1388 57.6071
31.1192 27.6084 58.7394
31.5336 27.7428 59.1333
30.3867 27.9728 58.4789
29.9764 26.5197 58.0353
30.9516 27.5543 58.1986
29.8845 28.3647 60.4775
29.5176 27.5063 59.9223
30.781 27.932 58.3191
29.6095 27.4351 62.1826
30.1935 27.3162 59.0497
30.3278 27.104 58.7407
29.9487 27.2172 59.4779
30.1418 27.3269 57.6988
29.5012 26.5092 57.2383
29.3264 26.0563 56.6706
28.8826 26.6843 57.0438
29.9531 26.9816 60.9698
28.5873 26.0377 56.5103
29.1469 26.0403 56.4668
27.6409 25.6669 58.5055
28.668 26.4417 58.7782
30.0386 25.2068 56.0435
28.6214 25.01 56.0995
28.7525 25.7918 59.1362
29.6051 27.2328 59.6672
28.6152 25.9435 55.7779
27.7245 25.2402 57.8125
28.6768 25.3874 56.9042
28.3894 26.6637 58.0356
27.601 25.2267 57.6984
28.0623 25.9362 58.743
27.957 26.1129 59.3068
27.9354 26.0225 57.8773
27.9458 26.22 58.7981
28.3398 25.8869 59.4514
27.165 25.6812 58.4505
27.6941 25.1984 58.0376
28.1975 24.3007 55.4275
27.7822 25.4728 58.1031
28.6012 25.9463 60.0754
27.485 25.4258 58.005
27.1383 26.4521 59.7512
27.6331 24.5003 57.172
28.6129 25.5979 59.0924
27.5169 25.4301 56.726
27.0924 24.4299 57.2813
27.3467 25.2763 59.0983
26.7983 25.8256 59.3587
27.1042 24.7743 57.6612
27.167 24.7125 57.7227
26.9298 24.369 57.4033
26.4426 24.5589 57.8333
25.9535 24.8364 59.0373
26.2601 24.5037 58.7543
26.9802 25.9149 59.5889
25.5459 24.5122 58.5152
26.0768 25.3848 57.0396
26.2034 24.1642 57.2793
26.2766 24.998 59.8405
26.2033 23.7353 58.0821
26.7091 25.0456 59.9272
27.2468 26.035 59.4118
25.4332 23.3766 54.7354
25.7355 24.1365 59.9694
26.0525 24.2641 57.7111
25.8425 24.4484 59.3294
25.3023 24.01 58.2975
25.5614 23.7737 58.0201
26.2076 23.5155 56.648
25.015 23.2961 56.4249
25.7563 24.6412 61.3573
25.8452 23.6661 55.9206
25.8566 24.4319 59.4095
25.0244 23.89 58.6276
25.6213 23.9472 57.9675
24.6104 23.7084 57.7982
24.4468 23.4868 57.7609
25.2931 22.9592 56.7727
24.8579 23.6411 58.4501
25.1544 24.0316 58.8443
25.4306 23.8442 58.5494
25.0619 22.9799 56.8558
24.6167 23.2169 56.4834
24.4092 23.7252 59.0717
24.2523 23.8002 58.2528
