# pn-170911/CsIIF-72-WTZR-1280-1959.psd
# Power spectrum* (dif=0,1,2) (really just |FT|^2)
# NOTE: only the first half! (symmetric)
# weeks: 1280-1959
# 6 clock-days, 0 excluded
# PSD: 1441
4860.88 0.324159 0.0100355
285481 10.9176 0.00865091
286436 5.57403 0.00812793
505226 16.4432 0.00991233
315517 21.7069 0.00813885
75025.1 5.13785 0.00883403
194595 34.492 0.0212575
32830.5 6.50416 0.0138906
34867.1 9.41429 0.00812227
42650.8 18.2004 0.0184281
62004.4 18.8397 0.019955
43416.9 20.0992 0.0199413
28045.5 13.4431 0.014644
52995.2 32.2515 0.0320717
19310.4 8.84275 0.0232325
18563.7 16.5414 0.0304244
24440.1 27.5181 0.0423208
8116.15 9.96205 0.0176099
16360.5 24.506 0.0431883
5844.05 5.71549 0.0239241
14326.7 21.1078 0.0552937
14562.5 22.2462 0.0629871
8540.13 9.83584 0.0385917
7437.56 19.4137 0.0560451
5744.35 10.2399 0.0314372
3676.05 13.2747 0.0530577
7745.95 14.4193 0.0552338
6587.18 13.7698 0.0315088
9599.76 25.405 0.119258
6579.73 13.7889 0.0677392
3633.48 8.89251 0.0423624
4691.29 14.5558 0.102702
4766.47 22.2825 0.106655
9092.89 28.6634 0.171554
3960.88 14.9474 0.105764
3787.57 17.022 0.103104
1511.33 10.3304 0.0725378
4733.81 19.2679 0.129482
4126.15 19.3074 0.154209
2369.6 16.5739 0.149735
2473.64 9.99587 0.110868
1823.72 8.70257 0.0839205
1710.96 10.6987 0.128737
3453.8 18.7947 0.179006
3116.72 12.3791 0.133146
941.686 5.77517 0.0704719
3406.92 40.9337 0.403077
2627.89 19.9246 0.177827
4270.69 36.0888 0.40049
2231.94 20.9198 0.294609
1082.55 9.29563 0.116371
2634.35 21.5224 0.285952
623.327 6.41284 0.0904103
1226.1 13.1261 0.229425
1279.69 16.3022 0.223775
1094.19 14.3779 0.187212
2533.79 25.3598 0.432785
1255.59 15.4312 0.271701
1372.54 14.6123 0.246317
1291.71 19.9289 0.290855
1157.72 17.8623 0.296606
2229.75 33.0248 0.575875
1487.65 15.7945 0.287883
1160.7 14.2897 0.246966
1021.72 10.081 0.237396
2020.9 28.6668 0.636934
1368.95 17.8894 0.40152
773.66 14.6556 0.281321
579.512 9.87269 0.176921
1317.74 20.9218 0.517883
732.642 20.0845 0.449404
1380.98 38.9591 1.03209
1017.02 17.359 0.418383
680.271 18.7032 0.413445
590.243 9.88816 0.254865
829.86 20.1352 0.519351
226.631 4.5913 0.117357
547.85 10.0547 0.247256
435.217 8.85417 0.271983
977.721 20.411 0.651619
571.184 16.2472 0.467167
505.296 17.0277 0.526959
917.133 14.7657 0.42755
774.39 16.1355 0.529621
711.044 16.8986 0.538113
660.136 22.971 0.863609
771.677 18.8086 0.749549
274.52 4.8633 0.162486
525.398 13.3312 0.529803
170.993 6.05028 0.222356
418.53 10.8349 0.402521
284.576 10.7958 0.36188
325.318 12.41 0.438292
498.033 19.334 0.816739
535.731 20.8227 0.802446
459.81 15.0295 0.701553
339.748 8.85594 0.40123
364.705 13.4818 0.591299
610.843 19.438 0.98923
353.836 19.0999 0.844806
647.065 36.9602 1.65516
404.167 11.7666 0.541965
181.793 11.7811 0.584647
674.281 25.6668 1.20532
274.571 3.70188 0.202251
663.932 20.9828 1.07598
449.903 17.2146 1.01768
273.142 12.0934 0.736853
736.121 27.7204 1.38257
348 20.7899 1.1452
295.85 15.489 0.829791
258.372 14.3106 0.827321
314.552 11.4542 0.705346
170.817 10.4104 0.71612
193.637 6.55901 0.341374
564.506 27.7095 1.77441
303.227 18.0537 1.14494
440.863 17.8994 1.19466
299.455 18.6487 1.24536
355.754 25.374 1.80509
698.872 35.283 2.3768
224.194 14.3903 1.01009
302.259 18.2538 1.35063
105.277 8.28802 0.613939
449.454 16.9226 1.16012
144.741 7.57902 0.615534
475.251 25.3595 1.91506
226.5 12.1919 0.995178
290.062 14.5052 1.15406
192.661 9.56004 0.681206
282.81 28.1586 2.40612
157.037 5.18416 0.304924
250.681 16.7343 1.35008
163.706 11.1242 0.912671
152.739 8.74704 0.742065
262.105 19.3241 1.71599
248.142 22.4294 1.92887
391.074 30.4932 3.19142
263.843 21.0106 1.63948
206.272 7.1111 0.65004
402.556 23.2792 1.86757
158.124 8.08996 0.725947
252.981 17.3125 1.60837
166.47 10.0415 0.992328
262.511 27.6275 2.7464
272.98 18.3911 1.72509
180.758 15.5869 1.854
130.646 12.6071 1.18975
183.742 19.9768 2.07363
147.667 10.7004 1.07001
264.02 29.3867 3.17138
178.533 9.862 0.976829
150.35 9.92301 1.15951
223.045 12.5708 1.34177
208.707 16.337 1.87543
116.174 9.31897 0.944686
135.673 19.633 2.20537
164.829 12.061 1.61331
191.367 12.6959 1.31948
71.204 6.53831 0.883909
232.261 19.4937 2.32748
112.434 13.6184 1.66623
340.567 34.209 4.15618
63.2533 6.99785 0.885278
148.625 20.8945 2.66026
176.442 14.8566 1.87706
120.738 16.0014 2.14655
321.104 28.6926 3.76277
138.955 16.9804 2.19004
161.362 18.9785 2.80721
97.0498 12.0487 1.7371
90.0128 11.641 1.49213
138.487 11.2402 1.63919
49.3543 9.63421 1.60015
109.223 17.6227 2.52777
112.063 13.2749 2.02975
87.2922 12.8358 2.08477
95.8836 13.683 1.84194
153.604 17.938 2.66125
205.524 29.7283 4.53505
265.757 38.3584 5.97433
161.641 13.4231 1.67342
219.26 21.2944 3.20434
129.726 14.2091 2.46274
114.233 16.3226 2.53685
132.076 13.2449 1.99034
113.869 18.6505 3.38709
97.927 9.67423 1.46347
147.304 12.0738 2.17377
85.8903 12.6851 2.06454
157.984 23.6481 4.1295
101.989 8.31746 1.34914
132.641 15.865 2.89344
206.481 23.6899 3.94133
89.4358 13.6137 2.37242
77.2117 12.547 2.25788
132.165 17.1432 3.3288
90.3696 10.8011 1.97294
110.842 18.7286 3.20667
127.299 19.1771 3.77928
73.4809 6.71652 1.30363
65.1412 8.00689 1.3203
116.132 25.7626 5.18462
156.787 17.7284 3.08361
97.5941 11.4688 2.43284
110.945 21.2409 4.49692
72.2508 15.5424 3.06558
142.826 20.2074 4.50953
192.309 29.1215 5.44609
113.062 19.5372 4.17515
60.0285 10.8547 2.41254
86.8811 11.9194 2.08944
155.84 20.5529 4.06949
49.3756 11.3013 2.52244
83.0209 12.7817 2.56939
50.3989 12.8884 3.1761
140.96 20.525 4.45874
120.003 23.3931 5.00356
92.8263 19.3923 4.57603
116.581 11.0338 2.13115
87.842 11.7903 2.63551
82.1454 16.4003 4.02305
120.203 18.8517 4.14402
77.6881 15.2807 3.19756
117.064 29.1616 7.25822
90.0256 8.85863 2.19227
65.9278 13.1174 2.84917
92.1913 19.7276 4.56328
49.9267 7.7809 1.89423
101.058 13.1883 3.15548
106.452 14.7777 3.6559
86.783 20.4114 5.81132
57.6179 14.3126 4.29933
60.6719 12.9692 2.78008
79.7316 15.7225 5.009
141.844 29.5505 6.04685
131.183 27.7626 6.92047
79.1385 16.6697 4.60611
72.3703 23.6817 6.10195
73.2446 13.5384 3.70973
77.7093 14.9915 4.4192
84.0687 14.2595 3.57901
51.9628 12.4298 3.97422
111.336 25.1348 6.82879
56.663 6.54166 1.76718
85.9902 13.9732 3.55257
71.6961 15.6644 4.86869
136.688 22.0098 5.76651
122.172 22.3406 6.16597
41.9447 10.9876 3.71823
50.9308 13.4544 3.76424
49.515 7.48214 1.90171
41.4487 10.1995 2.89547
66.5947 20.3371 6.85548
53.0979 14.6681 3.97243
48.1154 11.6359 4.05304
51.3785 15.7255 4.89434
78.4494 16.9259 4.78249
87.307 21.0504 6.2778
37.6546 17.1666 5.54065
58.3936 10.4884 2.61282
48.9997 9.97891 2.88595
77.6823 21.146 7.0654
56.7654 9.11961 3.16885
34.3839 13.7853 4.90981
56.3686 16.6232 7.03882
142.888 31.3645 8.83971
58.4879 13.7329 4.76987
90.8674 24.1786 7.77067
47.8271 14.467 4.56856
44.6038 7.47522 2.56753
65.9985 17.2682 5.55406
44.2881 11.6062 4.39079
61.9728 14.915 5.42234
28.0469 7.69521 2.51905
89.087 19.1546 6.17016
46.541 13.7066 5.39366
60.4396 20.869 7.70217
112.269 29.8923 8.33649
78.0256 28.823 10.6087
91.1695 36.4526 13.3377
33.8538 8.83169 3.52005
50.8501 17.6199 7.50811
33.7713 8.20991 2.81965
49.2317 9.31021 3.48085
62.3015 11.9265 4.11228
41.4745 11.5875 4.74892
76.9255 20.8013 8.49625
64.743 18.7201 7.08511
29.9283 12.7947 4.91162
34.3957 10.488 3.75232
34.9845 8.78205 3.45641
29.1827 13.7572 5.98659
61.1802 18.8855 8.53633
95.6036 19.5354 6.38657
46.9004 16.9829 6.36211
64.4606 12.6835 3.93245
43.2809 14.111 6.80315
73.2767 20.4202 6.98215
51.0799 16.8786 8.26271
35.2567 10.4082 3.91823
32.1582 10.4416 4.86693
76.2797 22.233 8.85768
34.6285 12.1761 5.15097
74.95 26.33 11.5161
80.1516 22.6033 8.95154
66.0902 16.2276 7.76313
55.3329 22.9289 8.95964
35.447 15.156 6.94992
95.3109 26.5012 11.48
18.5547 11.5266 5.47465
53.1497 12.9554 5.19782
44.5568 19.1954 9.03256
66.8566 14.1404 5.54572
29.9075 7.00806 3.69898
54.4449 17.0174 7.38264
31.1282 13.9351 6.74102
44.8388 19.6554 9.09415
14.9811 4.23633 3.02786
19.364 14.2838 6.48598
43.4122 16.0386 6.84231
19.1489 10.1074 6.22134
31.1197 12.9662 6.54393
65.1195 16.3916 7.46363
50.9886 20.2224 9.21766
61.5897 15.8613 7.73374
22.5864 9.23748 4.814
40.3567 13.4095 5.723
67.3305 21.6105 11.3379
41.8658 24.915 15.2995
66.1375 26.5647 11.667
42.0043 25.542 12.61
18.837 9.49093 5.67692
41.173 18.845 9.71179
38.403 17.7747 9.02658
71.3861 17.565 7.72975
55.6314 13.2477 6.51411
92.9369 37.1689 18.0609
43.6182 17.6784 8.12528
31.8487 11.311 7.81891
37.1128 18.8125 9.27673
23.162 9.48199 4.92924
11.0139 6.04681 4.02192
51.4618 27.9186 15.4836
24.8223 5.26407 2.76335
45.2394 13.5627 8.04988
41.234 17.9262 8.49406
41.9616 24.8017 13.1545
33.1778 13.6971 7.77687
39.3822 13.659 8.32023
30.4167 17.3326 11.6294
27.4608 4.80933 1.85974
50.1257 24.543 11.3132
35.2003 17.9915 11.2441
48.4481 18.5959 10.356
42.2901 20.85 10.047
37.8871 13.0725 7.92255
24.3154 8.40941 5.69246
18.9431 6.47875 3.18111
9.8783 8.93905 7.04465
26.8843 11.3516 6.2879
43.7396 21.7511 10.8527
33.9373 14.7092 8.02566
8.66712 10.459 6.94528
33.3915 29.6403 19.8467
75.3808 22.6429 10.0408
34.9592 14.8908 9.75928
44.8501 19.58 14.0424
43.029 21.4739 13.455
36.3094 18.1418 10.2636
41.2172 22.0458 15.7988
36.1084 18.0064 10.0077
21.7297 17.0121 12.3285
41.0275 11.5381 5.90422
25.6032 16.1167 10.6519
32.7607 12.3722 7.742
42.8588 17.6242 9.47831
33.045 25.3377 17.162
30.5157 20.7459 13.6289
39.0417 21.3383 11.9796
40.144 20.7229 13.9255
26.8296 14.3673 10.4184
70.4872 35.3258 23.5471
21.2958 7.64876 6.77096
40.647 23.4482 16.507
18.8288 17.2657 11.1441
27.1701 16.7895 11.4262
42.9366 25.2734 16.7471
22.3763 5.51554 4.63135
57.6726 21.5585 13.9302
25.0814 17.5838 11.6732
25.3261 14.9182 10.6593
19.983 7.28552 6.13817
40.3515 22.9573 14.9665
28.8018 18.1862 12.9616
34.7068 13.5059 9.1355
22.9095 15.5865 11.3925
24.931 12.7447 9.86487
36.8859 27.5198 23.8734
41.814 14.5907 5.444
47.1439 22.7909 15.0475
25.7442 13.8152 8.36813
21.706 12.6662 9.86401
22.0439 9.8394 8.3394
41.7486 29.552 21.2532
22.418 14.4675 10.0584
23.7161 13.2457 11.8032
49.5981 17.3571 8.18955
25.061 18.5902 15.4394
29.5819 16.8923 12.0169
29.1952 16.4969 13.2773
30.5174 20.9717 16.004
23.2328 19.057 16.2027
20.4128 8.8317 6.69064
18.9618 13.0158 8.94389
32.0492 22.2784 18.5643
16.5087 3.70624 3.86167
35.8339 19.708 13.7047
18.4064 15.3659 14.8061
25.6735 8.07788 6.4978
12.4219 7.39509 7.31175
34.8182 22.9142 16.6693
61.9211 31.771 21.3481
23.1875 14.5606 12.6758
16.3759 6.85082 6.97483
35.2081 23.3064 17.8265
31.6815 27.3249 20.9941
17.7345 13.0654 11.6838
28.664 12.0035 8.41687
50.1486 32.447 23.7245
21.5682 8.70372 5.88491
23.3333 14.0401 12.6097
16.6421 8.16015 8.99961
38.2794 31.8399 26.4842
22.1504 11.5963 11.32
32.1212 22.6476 18.2582
17.8636 10.8534 9.04622
16.5089 12.9826 13.6386
30.6263 15.946 10.4973
29.3478 13.5497 13.1048
31.7759 23.0552 18.9683
49.3756 27.5793 19.8381
14.7817 13.3418 12.1546
7.31636 6.22033 8.95231
49.5573 19.8181 12.3035
16.9923 6.77049 7.14824
22.6455 16.8338 14.1735
14.8487 6.13869 5.93047
34.2448 25.3745 20.4432
25.4597 16.1941 12.4581
23.7364 11.9892 11.6034
10.62 12.2593 9.73087
25.9035 17.5701 20.1583
18.691 14.8537 14.427
24.5856 13.4958 11.4282
20.6897 7.42259 6.65689
28.4124 14.3608 10.8743
17.2866 21.2491 20.6181
17.8682 12.1628 10.9042
11.5983 9.99959 10.033
21.5649 9.78789 8.96934
15.5332 6.9421 8.2108
23.367 12.4724 8.7677
20.7449 12.1073 12.0356
21.6248 10.3035 8.51515
20.9812 20.6633 22.4998
19.0977 11.9449 11.9111
19.3824 18.2875 19.1636
33.3042 20.3622 21.6424
24.108 15.6421 15.1535
32.5781 15.7326 12.667
27.3433 12.7879 10.9716
23.9009 19.5909 19.3766
16.6807 18.6319 17.8526
48.1022 45.3271 41.8375
26.2037 12.7147 12.2409
25.2658 13.5451 13.1355
21.6695 18.938 17.0221
14.9815 13.2317 15.063
16.5002 14.0586 16.766
37.7273 26.4801 25.2612
25.7578 25.4665 25.0111
14.3502 15.0295 9.90776
20.58 24.63 25.4261
21.7868 18.1796 18.9056
22.018 16.7905 19.0179
17.7964 12.5313 12.1228
15.4278 10.048 12.2361
10.901 16.8809 19.3075
20.2662 12.1069 11.0351
29.8825 30.0079 28.8082
9.95023 19.113 22.3563
14.7 10.1136 14.9351
38.14 23.3295 20.4845
13.4421 8.74466 11.5806
33.2304 17.8257 13.0724
25.0713 21.6506 30.5739
33.6157 27.5296 25.426
22.7794 23.0511 21.6445
13.1636 13.142 16.0286
28.9038 24.207 27.7808
22.6861 16.4189 16.1609
19.639 16.5061 22.3446
21.1587 23.8746 27.1808
20.9532 16.1663 16.8069
23.584 12.8715 10.7113
18.7355 14.6258 18.1365
12.5069 18.7682 22.701
21.3931 20.5878 20.9876
10.942 6.06419 8.21457
11.5891 17.3437 27.19
38.3984 30.1993 23.3908
12.0522 14.0331 16.9744
16.7776 17.7641 25.2924
32.0311 25.0694 24.7386
17.5227 19.7634 21.9555
13.0461 11.486 9.21621
14.4149 14.7378 18.7029
23.9191 17.7365 23.6546
19.1268 15.8633 12.6051
14.7896 11.3427 16.4387
13.8199 10.5472 12.4636
22.1625 29.3486 33.3766
10.8597 15.9294 21.0909
15.3668 9.85102 13.3831
23.039 24.1214 21.5402
11.77 18.8221 27.6686
25.8312 18.8229 16.6793
14.4575 18.8713 30.104
22.1969 12.6935 13.9442
5.2433 11.451 13.4343
16.2128 23.1245 28.6952
21.4503 13.3904 14.1586
16.8405 12.8775 18.3843
19.6538 21.1275 28.9576
19.8669 16.3969 17.6425
24.0292 18.3291 24.7747
17.6484 18.7406 17.7983
12.5723 10.0382 18.6045
36.0004 29.3483 26.4443
14.4782 16.2428 18.91
15.6723 13.45 16.6191
15.4095 18.0436 23.7225
9.34527 6.01338 10.9006
17.6845 15.2589 20.399
26.2759 18.8148 22.8426
20.3923 14.9723 14.8166
22.7014 18.9955 21.4912
13.2287 6.06606 7.96121
21.9641 18.776 25.7857
14.6417 20.4453 29.2682
24.2747 25.3644 35.4072
13.4396 19.0732 22.1419
21.9408 26.716 33.7972
9.19473 14.919 16.7964
11.7249 16.9362 27.9635
22.2778 11.4774 12.7827
10.2494 11.0408 19.5624
25.5717 18.3165 21.2255
17.2269 21.8618 33.4281
30.2376 20.7705 22.2241
21.6527 20.7896 26.0284
12.0066 10.2247 12.1412
17.8601 16.1657 17.962
16.2015 15.1976 17.1716
7.76361 11.2726 18.5225
30.0706 41.7613 53.3679
8.57334 7.36282 15.9598
18.9893 8.81636 7.15892
32.6418 31.3076 39.7276
21.004 21.3029 29.4546
8.8475 15.9755 18.7084
8.20726 7.47328 13.9205
19.109 27.8937 38.0428
16.9398 8.23111 14.1395
10.9729 21.3206 27.991
10.2076 5.4565 6.61894
14.8017 20.8131 27.174
10.7393 14.2612 24.4932
20.0122 22.355 32.6515
25.4855 15.3727 14.5811
8.49966 14.7304 22.7114
11.2216 8.79686 12.3569
12.2733 11.8601 18.2161
18.648 16.0935 19.2108
19.6413 17.7745 22.0404
7.9206 7.83952 13.6229
18.2403 15.6548 29.1395
12.2161 15.8966 18.8144
14.9609 19.5769 24.9813
21.6621 27.8867 36.4884
19.5931 16.2479 23.8274
12.1071 13.0734 20.3978
11.3548 7.79134 10.4669
8.86151 12.277 19.7934
18.1946 24.4461 40.839
12.5389 11.9036 17.5251
18.6204 13.9345 22.5167
9.10554 8.73094 11.1533
15.2452 28.839 34.5782
5.99257 10.3772 25.1952
20.5005 14.9058 21.8495
30.4467 24.642 28.1161
17.2993 16.7302 19.3054
8.90145 8.88743 15.1775
26.3669 32.6086 53.7079
8.187 5.75768 14.0203
18.5141 21.3611 28.062
11.4884 16.3119 26.7749
5.28039 5.5747 17.3511
19.5411 30.5144 41.6082
9.0745 9.57127 14.8218
7.91747 12.5885 18.2817
9.65236 18.0658 19.7309
6.75544 6.8082 16.8791
19.0007 18.2901 22.8689
5.19032 12.1767 23.1764
13.3542 9.37276 13.241
13.7773 27.4163 55.0334
22.3783 28.6451 33.6184
14.5433 24.3583 33.98
13.4326 12.9922 24.1299
14.3635 12.5299 16.1966
16.3253 18.4498 29.089
15.5657 12.3126 19.0011
7.52453 16.3088 34.4878
11.5698 18.0734 26.7514
12.603 14.5991 17.7004
11.543 13.5018 17.3593
12.4349 14.4958 21.4353
8.43551 17.1319 29.2068
16.1753 11.8702 19.9727
5.03641 9.52917 20.7316
19.153 15.6983 23.8101
11.9662 28.7266 40.8639
18.0145 22.4792 34.6276
13.0905 19.8842 33.2394
14.464 17.9 33.0338
12.7937 16.3258 33.0143
6.02496 5.3079 14.2084
8.55656 6.44593 15.6062
11.6225 8.73075 16.4411
17.472 22.91 25.9352
4.74778 11.4223 24.6502
13.4466 15.2465 26.4091
16.788 13.7781 17.4819
10.0063 22.3002 49.9889
21.6891 25.815 41.5624
21.3477 29.7274 49.494
10.4796 14.2516 17.3842
14.1795 23.8813 36.6512
5.93712 17.2897 32.1659
17.3172 17.7629 26.24
9.71756 11.4558 20.1201
5.66567 7.91515 21.3275
18.7706 24.5922 39.5807
12.4213 11.7242 20.3185
2.50235 6.92059 18.2934
7.76504 7.50894 24.2875
18.0072 18.6263 22.7878
14.9279 19.6381 26.9733
5.86305 5.04203 13.6869
9.85077 6.43017 16.9044
21.0198 25.2788 32.1604
19.4835 28.6177 45.6116
9.85375 14.494 39.2602
9.86377 13.6857 19.1985
9.04082 9.42954 12.4422
8.00326 13.5051 34.4303
8.80496 8.269 17.6027
9.78653 12.7391 19.1321
9.70195 12.8501 14.162
7.58068 14.0146 30.584
11.8472 10.5687 18.8336
15.3874 18.5714 32.2796
6.97507 8.6142 21.4242
13.3463 8.436 13.8678
8.96496 13.6569 27.9147
11.9556 9.43836 12.4936
10.3031 6.72834 9.76376
18.1479 21.7702 25.0418
12.7955 19.4445 36.6256
7.07969 16.4294 35.6452
9.98144 14.32 38.5397
14.5718 13.8042 23.0629
12.4648 19.0263 34.2927
18.3372 19.8675 30.6062
10.0045 7.74884 11.3362
11.7877 19.8737 47.4448
9.28179 7.56899 7.49131
9.70483 11.6415 17.0169
8.97537 11.9386 12.5468
9.26183 16.88 33.201
5.53849 9.66309 34.8771
25.4619 30.7951 47.2926
13.1382 22.8239 40.0112
6.35158 13.9497 29.1247
16.8034 22.9304 35.8023
5.91733 9.5603 24.4935
15.6662 15.4155 25.757
12.6843 17.0512 31.2724
7.12185 11.9053 31.6927
9.22101 13.3852 25.4665
9.39701 12.5564 19.4839
6.83123 9.19319 19.3248
8.85921 16.2506 32.1278
15.5305 18.3767 26.6354
5.18972 12.8811 34.7565
15.753 17.3834 28.7858
6.72754 13.076 29.5141
16.2003 18.4669 36.8897
12.4672 29.0343 61.5802
20.2495 23.8675 38.8489
13.3013 17.9305 34.1786
6.76438 10.4686 32.2381
12.8601 21.3743 39.3589
9.17669 21.0489 35.1237
4.16275 14.645 35.4594
5.40808 14.5468 39.1142
17.8091 23.9464 35.446
9.82384 18.7984 52.3309
17.565 22.4335 23.9856
11.3375 26.4174 56.0346
16.2226 23.5871 55.0699
9.6565 20.0227 33.0504
4.78992 22.4319 55.9199
6.26221 7.67944 22.4625
13.0285 29.3981 65.7303
11.0651 10.67 23.7129
11.4831 15.935 42.5337
9.71038 13.9932 39.2827
14.2297 23.2054 44.2748
16.214 16.8542 30.0934
19.6236 27.752 47.1908
16.5514 16.1018 21.3358
14.7476 23.6033 42.2624
13.6199 16.6458 23.4174
7.62984 17.6808 39.3793
11.6059 16.7078 34.2001
11.5142 15.3152 24.1206
13.1987 22.9592 57.7982
6.98914 10.5889 14.9177
3.26806 12.3606 35.386
8.82127 8.57921 18.4601
5.99481 10.7466 14.8931
4.66132 9.10756 29.8735
11.228 20.4553 48.6759
7.98497 13.9743 24.4925
8.13986 9.71567 12.0639
2.28295 12.2275 23.1565
8.71488 11.2009 25.9331
8.32972 11.7533 28.6584
7.07111 9.27972 24.2789
5.46397 8.42829 20.6424
9.21199 8.79701 22.5938
8.50243 14.4703 27.3689
10.1335 14.0626 43.6178
9.05968 10.5836 17.0919
7.41859 13.0303 22.6184
5.93907 15.1175 23.8943
6.16117 23.8792 62.7824
12.5955 11.8503 22.0114
2.4337 7.67936 27.9247
15.4099 32.7639 43.3676
5.40544 14.0231 42.6977
17.0197 23.7743 53.6143
9.21905 16.1721 34.7869
8.23045 18.4185 34.7363
8.08248 23.7188 60.2311
12.7385 13.0144 25.7876
9.0597 17.1596 35.0418
8.54909 14.3716 41.7116
8.59035 11.2204 18.0237
9.05183 13.3138 37.2982
12.6738 20.5971 40.8979
11.0753 19.3577 71.3791
21.9547 28.2841 30.6114
6.03597 17.5842 31.6157
5.05693 8.69877 36.1972
12.2343 10.8456 14.7825
14.3005 25.9539 61.2943
9.43781 12.8486 23.8541
5.92725 5.03886 13.2637
6.89923 14.8259 24.0114
4.38714 23.2823 75.4683
15.5438 17.0766 31.6055
9.41997 18.9629 37.8014
9.44592 14.573 31.1986
6.11604 14.9201 42.8279
15.2309 26.9678 44.4911
5.85542 11.6548 47.3212
11.4813 19.5051 32.7497
2.38184 8.30076 28.385
5.18701 12.3746 33.9346
9.7099 19.8986 36.2528
7.15535 13.8321 36.0011
7.44347 10.5428 27.663
5.06743 4.81539 13.1652
9.52135 30.548 67.9625
9.86259 10.7084 24.5304
6.86704 22.367 57.1703
10.7959 10.7618 22.5824
5.26166 8.09929 17.0461
9.80256 17.1158 47.9697
11.5794 20.3785 37.8651
11.1086 23.4328 57.7127
7.4248 12.9794 44.6621
11.0155 18.2367 50.8758
15.2116 29.9182 55.4952
9.47017 19.7438 44.3896
7.66639 14.5363 46.5901
11.7364 17.7361 29.3642
5.55242 21.7129 51.3839
10.8157 19.0968 71.2517
14.8537 29.8727 46.0291
7.72029 14.5774 36.3134
4.53188 27.2275 66.9761
10.4096 13.8244 30.4175
7.51872 23.9575 78.7797
20.1088 27.3877 48.8628
3.34463 10.1803 48.4687
17.604 28.7668 48.4488
3.51351 9.61564 29.5992
6.82001 16.3807 39.4991
10.9266 16.2576 46.5489
7.10549 17.3638 40.1935
9.94307 18.5157 37.2333
7.1465 17.8464 61.1174
5.67526 5.53141 9.90425
5.3114 9.93747 47.8102
11.0836 16.9367 29.6964
