# pn-170911/CsIIA-32-CsIIF-1280-1959.psd
# Power spectrum* (dif=0,1,2) (really just |FT|^2)
# NOTE: only the first half! (symmetric)
# weeks: 1280-1959
# 6 clock-days, 71 excluded
# PSD: 1441
423184 1.943 0.0341493
7.36801e+06 50.4822 0.111304
4.86538e+07 1217.41 0.198159
4.15806e+06 200.481 0.228733
1.78893e+07 1581.19 0.191581
2.89137e+06 254.83 0.195847
1.09571e+06 98.8175 0.0989903
1.19352e+06 183.21 0.336173
312450 126.325 0.248614
423092 111.697 0.0784131
205174 101.476 0.159703
209880 62.1286 0.221476
274532 159.391 0.258722
239113 106.881 0.253502
188868 128.063 0.183818
258281 159.095 0.365968
157707 173.198 0.269665
146151 119.309 0.249132
104076 85.6002 0.429355
178281 176.086 0.254978
123530 150.142 0.386935
28833.5 47.9934 0.259857
48372.1 60.4911 0.235834
105976 291.264 0.848331
61785.9 146.077 0.625288
64508.7 213.603 0.614019
65291.7 200.376 0.512953
51604.6 114.497 0.387602
38916.8 75.6988 0.296629
101436 219.166 1.38891
24006.5 133.017 0.567695
27775.3 88.3329 0.661355
42171.5 149.229 0.545824
54284.8 214.588 1.03582
26141.4 91.7975 0.894936
34971.9 166.087 0.957087
11850.7 94.0804 0.585575
20285.7 106.428 1.07637
42087.3 173.692 1.14419
37718.4 331.708 2.36949
32492.8 134.067 1.37102
28532.5 168.901 1.62172
16406.5 105.521 1.15025
12635 108.77 1.20989
12922.7 76.846 0.763921
16732.5 94.3471 1.18474
16744.4 98.2476 0.992767
12979.3 81.5398 0.876848
17322.3 170.801 2.36207
13942.1 117.498 1.57854
24660.9 192.946 2.64484
22476.3 176.236 2.47283
11453.1 155.234 2.38126
12861.4 124.745 1.80547
21591.5 227.823 3.87958
9976.56 133.029 2.5067
9246.64 144.826 2.15628
8439.27 130.659 2.40691
17337 195.086 3.03578
12846.9 160.124 3.01705
9183.36 117.712 2.24399
6445.92 105.011 2.28215
12208.3 160.451 2.44377
8633.72 110.175 2.16279
7080.6 84.6938 2.34732
5451.09 55.3715 1.56288
8401.77 129.837 2.83213
12227.7 155.07 3.1043
10949.4 186.37 4.47726
5532.51 76.0926 2.06409
6892.72 97.4749 2.56587
4895.57 87.1947 1.59069
5310.16 82.2694 1.8819
8830.19 263.377 5.37578
4283.64 134.059 3.27008
7070.53 73.6957 2.09015
4586.23 107.292 3.09905
4812.97 72.1411 2.4307
2264.3 36.0456 1.47365
7939.09 176.162 4.99673
10070.5 192.005 6.15075
3467.19 80.9974 2.36121
1822.99 53.5546 1.61033
4399.61 120.911 3.29571
3313.6 51.7537 1.12093
5288.23 62.728 2.54331
2020.33 37.4214 1.6744
1977.91 40.9887 1.10757
2951.87 43.9314 1.35813
3453.27 108.901 3.84308
4516.05 135.942 5.41833
4050.3 73.5157 3.13013
2888.38 106.852 4.09632
5535.28 176.162 6.8424
3783.12 125.08 4.8614
3818.31 130.485 4.98221
2710.14 60.2759 2.8751
3167.16 74.1204 2.97783
2265.36 81.4804 4.04104
2296.92 76.8907 4.11027
1799.13 65.1372 2.98821
2881.71 46.2185 2.86242
1281.16 45.309 2.74466
2374.61 72.9982 3.17389
2253.74 66.7784 3.20218
2845.98 80.9013 4.3005
2318.14 57.5083 3.07486
2678.97 68.5994 3.33406
2126.71 32.0335 2.02103
3467.65 105.864 5.71123
2010.38 58.6568 3.51151
4055.17 104.126 6.64413
1473.57 48.9506 2.81927
2376.78 116.959 7.02581
652.838 53.376 3.19
1617.08 61.5618 4.52425
1170.3 49.5127 2.86453
2510.65 88.5595 5.9287
1843.99 61.2182 4.0872
2153.43 70.6829 4.42017
1949.47 50.5265 3.22059
1431.71 62.579 3.81521
1158.98 22.2416 1.82764
2372.16 84.1685 5.60874
971.67 41.8372 2.66401
1139.25 74.9667 4.99537
1490.82 104.736 6.28854
2409.21 99.6712 6.96736
1958.54 89.8634 7.76065
2032.63 39.635 3.92387
1466.66 87.4665 6.35117
1777.84 111.231 8.43734
992.383 42.546 3.26749
2064.01 71.4938 6.27416
2078.43 81.9767 7.50175
1183.5 75.7964 5.76063
573.035 45.1784 3.85452
1234.62 43.6952 4.18728
1134.84 72.9358 5.49408
1062.76 57.5422 5.07871
975.338 66.7712 5.85684
1309.36 57.343 4.56935
1520.87 67.1428 6.52752
1367.91 77.3275 7.10257
2524.7 73.8651 7.86612
1594.78 111.296 11.0763
738.303 48.5349 4.89423
225.995 49.2435 4.61834
1390.58 80.0901 8.20296
1130.09 61.7152 5.52877
935.343 71.2807 7.12851
889.976 82.4688 8.51009
682.502 51.9015 5.59786
1143.06 62.3865 6.37419
535.946 34.5937 3.51901
589.278 30.2096 3.22873
1416.81 80.0325 9.51333
885.697 50.2034 4.86204
1765.14 35.8783 5.00223
1060.34 64.0926 7.05094
1237.23 53.8191 6.43255
1024.69 37.5275 4.28852
763.784 77.1495 8.53877
916.169 69.6128 7.4815
971.445 77.8106 8.36553
997.854 76.7981 9.94631
728.737 38.5881 4.78146
879.367 45.8504 6.66216
660.742 37.3598 4.93368
923.664 28.1754 3.77821
556.292 38.6853 4.74625
540.491 44.6843 5.97411
929.151 38.2573 5.8643
940.826 15.1743 1.86944
726.147 21.3806 2.91435
622.935 21.6644 3.51845
1022.86 52.3331 6.82953
1263.88 83.2706 13.2062
831.752 34.9775 4.99531
683.081 45.7376 6.24274
805.441 67.5393 10.0105
886.151 61.4697 8.40294
906.406 42.7267 6.74621
1019.01 58.543 8.7479
796.464 34.7189 5.85371
719.017 38.9874 4.91226
946.579 29.1649 5.23454
1160.49 38.9677 6.56057
700.71 61.5464 9.63438
554.908 56.9469 8.59385
401.307 26.0923 4.36598
336.018 29.377 4.56074
892.304 39.2225 7.27424
481.158 32.9939 5.4164
419.643 19.6124 3.85209
740.157 23.8197 4.27926
499.803 29.8778 5.34459
840.425 35.36 6.53849
677.216 29.4246 6.51819
569.846 45.8661 8.49867
518.958 22.6357 4.7727
421.641 26.5999 3.85371
848.641 45.5643 9.61787
553.441 49.1849 9.62615
538.933 33.6237 6.97771
1034.23 30.5851 5.09574
339.463 23.7106 5.60494
847.658 40.1962 6.32297
1193.56 41.0541 7.41614
197.045 9.60959 1.69983
914.407 40.6687 8.27854
701.208 23.2935 5.10955
568.508 41.2465 9.0178
653.814 43.8118 8.57542
309.694 10.9406 3.10019
475.922 13.5839 3.11604
947.8 21.2278 3.85715
536.073 19.2084 4.18779
997.062 58.7391 12.042
559.898 25.4144 6.96671
815.507 78.3984 18.0219
795.206 27.5365 4.84527
535.841 43.9475 9.59386
864.95 86.3231 19.9199
418.738 13.5729 3.74991
443.154 29.2703 6.13836
597.676 35.2824 9.23587
538.046 60.879 14.9442
490.868 45.0028 10.7009
554.172 21.3036 5.41557
516.205 64.1861 13.8365
627.882 52.2006 14.6072
426.191 14.9505 3.51206
518.032 37.7472 9.33443
617.522 24.155 6.86624
622.361 26.7842 6.18757
427.243 39.5435 12.0984
752.731 36.8655 8.24661
320.327 37.7001 9.4131
848.224 26.9627 7.58246
319.554 44.422 13.505
720.183 49.3248 12.2148
698.315 37.0663 11.0054
307.996 57.435 14.5001
793.285 39.0323 11.4077
639.88 21.4604 6.56048
688.039 40.5829 10.1957
366.933 41.3584 11.6989
406.171 31.3863 9.97474
693.812 13.8588 4.2054
593.463 61.142 17.3106
296.484 31.1292 9.987
266.569 51.8518 15.3634
853.372 58.5505 17.584
298.998 30.5676 11.2906
551.808 22.9226 5.35585
219.192 30.3757 10.657
417.502 29.2557 9.13592
585.724 21.9654 6.73766
438.821 26.7184 8.70113
361.886 34.4639 11.0227
307.863 33.4942 8.95328
312.344 19.2383 6.17261
313.371 42.5474 12.3698
359.845 12.646 3.39052
344.36 22.1675 7.78797
320.964 10.4986 3.92353
368.434 23.3695 7.44989
721.726 26.7874 8.06349
316.844 24.1501 8.27662
439.687 25.7406 8.87483
346.058 39.905 14.2844
511.003 23.6419 8.02693
608.967 51.4059 17.2226
249.634 19.54 7.71003
366.25 18.6302 5.04284
382.565 19.0051 6.80899
467.801 37.41 13.9571
472.439 18.926 7.99821
198.2 39.5773 11.3034
474.962 21.9002 8.15649
446.072 29.979 10.5436
337.209 28.0774 10.6939
486.677 35.5398 13.0709
476.563 35.1461 13.1301
318.709 17.5762 6.01759
321.578 38.088 12.4403
232.957 30.0329 12.3097
462.269 28.2093 10.2004
811.318 34.2453 13.5872
197.269 24.806 9.736
578.303 38.224 14.1945
267.148 31.6168 10.5033
475.719 22.5991 9.59738
493.697 31.744 10.3941
331.174 19.5277 7.27258
331.276 27.1196 11.217
572.86 33.7115 14.707
523.494 23.3624 11.091
340.897 22.9667 8.47607
283.226 17.5659 6.29732
374.76 28.1281 11.6872
607.558 48.0432 20.108
381.117 55.7216 21.4494
474.652 28.4655 13.6056
561.43 16.0698 6.04641
257.283 23.3353 9.92691
474.827 19.4444 8.086
281.687 24.6727 11.4936
417.129 26.9053 9.8031
291.393 48.4809 22.9067
260.429 15.7677 7.11544
494.64 21.5714 10.4506
345.528 15.9452 7.00485
301.613 21.0856 11.9862
610.273 44.5094 16.8304
362.716 22.4567 8.60291
473.175 22.1057 9.42081
445.229 30.6797 15.9393
128.561 22.844 9.33133
460.771 16.1445 7.11613
345.07 29.1226 13.5302
297.582 27.4907 12.9064
279.5 23.2261 8.9604
188.277 26.0174 13.9941
409.796 40.5668 21.0367
465.625 28.0671 11.4692
262.104 10.7178 5.38805
320.944 34.6111 16.7825
278.697 31.6981 15.2479
330.825 13.0637 7.74151
355.499 13.431 5.87477
302.697 32.8823 15.924
251.398 16.7151 10.8003
242.803 33.998 17.1097
405.532 16.0142 8.39063
643.162 55.9612 27.3581
190.268 13.3242 7.14361
209.464 20.9278 10.8829
480.353 39.3713 18.0422
289.474 24.2945 12.3162
254.113 27.1394 15.9117
100.952 26.4605 12.8879
132.125 31.1382 16.8836
409.168 19.38 10.9172
379.28 17.1203 7.68289
281.336 40.3195 22.7488
107.652 14.5758 8.66256
349.011 13.1307 6.69512
313.119 22.4478 12.7179
467.476 34.3363 18.8109
214.8 39.0178 20.3528
217.186 15.8858 9.49843
335.733 11.6472 6.85405
415.155 9.74242 9.6789
362.241 34.2724 16.344
271.74 34.2617 18.1311
255.231 26.4029 16.7106
403.352 22.5985 13.3412
561.116 31.6682 17.1209
205.414 15.1393 10.7191
374.665 20.0876 12.1245
532.005 52.0261 30.8742
333.525 21.2465 13.0226
335.47 24.688 13.2631
310.11 28.0058 17.7196
353.969 27.225 17.6695
497.729 32.104 20.2522
359.815 21.498 14.9471
238.78 18.2386 11.9228
415.857 19.2014 10.4954
178.3 41.7536 26.0099
412.216 33.5245 20.8024
388.112 52.5179 27.1413
284.962 8.39318 8.42998
425.176 43.0323 29.2026
79.7651 23.4529 13.2705
508.597 23.8542 12.6928
414.727 37.7955 26.4698
228.193 20.0521 17.5073
521.04 22.3666 16.0397
244.336 28.5373 19.5901
378.456 11.8617 7.48517
304.072 34.9263 20.328
249.526 21.4829 13.4747
276.548 29.7357 17.4901
319.141 10.0341 8.82631
189.23 10.586 4.6813
366.065 17.3763 14.6961
395.712 53.693 38.1375
415.564 34.5491 18.4657
428.328 26.664 17.4424
128.426 9.03264 7.5699
323.358 14.3958 7.77033
150.869 23.7663 20.1718
378.104 35.7694 21.7564
264.548 21.3345 16.1321
183.71 36.0337 24.4742
313.826 25.5747 14.9128
167.914 15.3434 13.6764
289.801 15.5293 8.72123
236.875 12.5562 11.3927
273.516 24.1075 16.2841
287.228 19.1398 13.627
315.065 23.3593 22.0644
249.529 28.4296 23.3065
224.981 16.5209 8.28294
199.407 34.4693 27.6126
252.865 44.9455 29.1716
350.005 21.7302 19.4735
245.609 39.7659 26.7356
202.602 19.2235 15.605
183.316 19.5029 12.1291
272.861 20.4906 13.059
150.855 25.4305 21.1363
97.6116 14.9735 9.20973
216.68 16.8643 14.5693
329.089 18.0011 11.9107
286.964 11.0654 9.40956
193.77 10.6759 7.8918
193.084 24.4769 18.5427
226.411 19.9212 24.4544
481.865 14.3038 7.59924
188.941 30.9379 21.8808
284.586 30.6345 24.4281
241.642 31.3619 25.4751
299.654 14.4132 11.3764
372.189 25.988 24.1463
135.025 30.23 19.7534
208.008 20.2524 19.0813
180.864 6.64008 6.21363
306.006 18.6325 15.0051
365.394 23.0597 17.8589
105.492 12.8739 10.1872
351.849 21.6819 17.889
306.42 8.79769 8.57745
410.879 23.2653 19.5612
340.071 20.8222 19.2126
180.895 13.6453 8.31724
303.083 13.7836 10.6167
393.691 43.3406 37.4187
297.552 18.2333 14.0307
256.891 13.1649 14.0844
245.781 14.2531 8.19407
242.019 17.3857 16.7449
489.107 15.3231 15.2892
140.204 19.0478 17.6917
182.034 17.9694 12.0326
191.605 10.4248 8.82154
313.42 25.264 24.2304
454.708 13.6546 9.08054
212.281 22.7598 25.0581
148.36 24.334 23.1758
529.105 38.6379 31.732
304.907 23.4291 21.948
393.598 9.83185 6.51298
360.014 27.623 24.328
85.7401 11.4396 12.4389
338.077 13.6847 9.83724
321.99 26.2708 25.4705
291.682 18.379 15.1671
280.239 25.7958 28.5783
167.987 12.2836 7.13806
480.749 35.5884 35.606
292.918 21.9006 16.9345
181.435 18.1563 22.3804
210.967 29.8813 30.2766
272.827 21.1804 19.1701
238.133 17.9819 18.984
271.421 22.5928 20.7589
140.046 25.3534 21.723
205.952 23.6981 25.3248
325.136 19.8403 18.2152
189.454 28.6237 25.6218
326.44 12.5294 13.9711
84.3256 8.81343 11.2171
125.731 11.9168 14.798
373.663 28.9303 24.3195
187.475 15.6393 13.453
180.756 18.2933 18.3505
80.8122 8.25406 12.3638
243.917 19.3868 17.0667
194.084 15.1135 15.6071
188.428 16.908 19.852
190.425 20.2339 19.0273
137.708 11.4299 14.946
313.337 21.5611 17.7675
176.21 15.985 15.0889
124.241 24.0673 22.6381
204.031 17.6362 20.3471
206.748 9.82812 11.3568
241.342 11.7992 12.3211
198.187 19.2709 26.2723
90.3346 24.8129 21.4343
180.916 22.7046 21.4462
244.075 21.3642 24.6932
158.078 20.414 25.1976
317.432 27.4527 32.4803
112.768 28.5875 28.5638
314.676 27.9423 28.3694
332.346 18.6321 17.0927
140.892 13.3663 15.1432
267.043 15.3613 17.1432
210.673 33.9399 32.2396
212.251 13.3355 25.022
301.536 37.1966 34.2532
145.075 8.15244 12.3032
210.927 23.7115 25.8282
286.232 15.8595 19.4442
219.076 33.2028 33.6084
292.723 8.55073 8.97164
134.05 13.0185 12.7252
235.947 19.2866 22.1727
339.63 13.7803 15.7119
152.976 16.1832 17.1628
270.032 26.5583 21.6321
119.057 33.2574 33.5291
280.25 18.4383 25.7471
330.102 20.9476 21.6329
197.057 18.2842 29.3416
130.212 18.6333 19.5419
232.11 11.8183 15.7392
364.688 14.9645 11.6779
227.137 25.8081 29.4322
297.565 22.1659 28.0754
144.719 25.8401 29.5384
327.83 21.5862 29.7093
275.391 12.8098 14.1422
228.182 21.5845 29.1151
305.762 22.5899 31.7456
154.012 25.1583 30.7581
336.44 12.5021 12.0685
257.293 17.5788 21.5448
199.719 13.1273 14.2651
229.364 22.5218 29.4702
121.441 18.8764 18.3516
328 17.8683 22.2835
241.654 17.3486 24.3757
175.114 21.6309 19.1222
170.136 15.9015 18.3633
247.011 39.3057 47.7979
292.251 27.3444 36.9645
208.369 21.9735 37.0436
115.73 20.9277 20.9784
174.513 22.4323 20.0934
200.436 27.1163 39.575
206.012 20.4308 23.232
192.631 13.0696 16.1079
42.6524 9.96743 15.4639
208.382 15.4298 17.1809
253.163 27.7191 35.4739
185.968 12.7745 16.3125
135.534 29.9376 35.534
154.881 17.8438 38.8267
131.298 23.2402 18.6697
200.353 28.0611 38.4992
80.2288 13.3455 20.4482
98.5248 15.4175 14.1249
163.058 17.8921 23.9136
151.676 19.8187 22.7277
252.028 36.3467 48.7241
55.5823 13.5598 23.4107
140.576 13.0464 17.783
182.51 13.1512 19.1079
247.023 26.3082 28.561
167.068 20.0857 27.7111
22.8724 13.5706 17.4898
221.282 18.6285 23.3784
112.259 14.2338 23.7864
205.244 18.6166 22.307
116.747 20.1956 25.7115
83.2709 14.7713 22.132
282.457 30.6334 38.4793
248.328 37.5747 60.6964
192.094 13.7994 21.1547
130.374 21.313 34.4377
117.674 10.8774 11.0972
199.481 29.0728 39.8592
288.277 21.8316 33.9129
148.633 13.2665 19.3847
196.701 20.7579 22.3456
177.587 36.0987 41.3764
220.314 34.6495 59.3867
225.174 12.4322 18.3531
81.8502 12.4917 13.9462
159.765 19.5978 18.0417
227.607 7.18224 13.1082
155.31 11.9364 15.601
292.761 28.3061 42.5451
118.172 22.4411 38.9233
220.444 28.5428 29.2689
325.587 9.70399 12.0409
197.069 11.6368 18.702
183.427 7.01013 13.5569
235.755 16.4339 23.9399
146.471 28.9533 40.1769
301.024 9.29131 21.201
192.742 19.7996 30.0401
162.994 18.5937 14.8635
246.023 19.0323 29.4858
233.377 18.8133 33.2261
256.137 34.2742 47.9841
227.812 27.0783 24.2685
150.955 23.4513 40.5002
186.327 11.4407 25.7854
263.753 28.1813 32.9169
128.878 24.6889 45.4157
209.002 19.1719 21.4127
153.448 13.9044 35.8954
211.449 25.8329 36.9959
222.93 17.7775 24.0025
107.525 26.5955 34.1088
230.85 25.3807 44.3926
141.225 19.7303 29.8866
168.971 21.9335 42.0591
253.822 26.2421 36.2806
91.5786 22.7685 34.1461
254.765 18.0033 36.3
181.434 30.6764 41.2474
195.201 17.3208 30.3269
113.545 13.0428 11.7576
99.4099 11.586 20.6033
244.055 23.741 37.9023
166.277 19.6363 23.6545
143.369 10.1722 26.4914
75.2133 14.8518 12.5736
124.822 24.8316 46.9081
165.933 15.3558 31.3138
252.269 16.9598 28.9035
86.2658 18.1465 26.1171
167.749 25.0292 38.5303
156.452 20.7641 25.0555
122.864 15.1495 35.685
212.653 14.1702 20.5189
49.2545 14.0945 19.7209
101.595 19.4439 33.7186
189.942 13.418 21.0793
135.126 47.8847 75.986
129.643 12.0041 22.8349
74.5033 22.4045 34.9289
129.386 10.9007 15.665
221.316 20.1243 36.6759
118.865 19.5491 39.0357
98.5074 29.0632 44.9448
129.412 28.2304 37.4027
167.314 27.915 46.2539
211.171 8.99798 23.1843
101.721 25.0775 43.4203
84.7905 13.9866 14.9548
69.2345 15.6535 28.6645
224.7 8.84083 15.5479
206.662 13.414 23.7698
70.0807 14.9903 24.9774
165.161 19.8436 28.7192
136.383 28.3816 42.3206
241.955 21.6245 35.7787
186.54 9.10502 19.7903
148.108 44.9126 90.4307
132.609 14.7794 12.9198
198.287 15.0713 30.1816
223.609 13.0121 31.9104
141.906 11.7881 22.3623
135.683 19.9778 36.2532
130.678 15.8265 24.4323
331.036 36.5153 50.3446
132.8 14.4229 33.1418
155.677 12.16 12.5922
183.047 12.0603 20.3267
139.927 19.9845 42.8497
350.27 17.5036 27.072
118.79 7.28153 15.0319
128.551 19.8521 40.7598
222.037 20.6868 23.3924
202.004 30.5819 58.8305
268.52 14.6264 37.1719
127.929 17.2603 24.4123
99.8507 12.6826 16.661
240.682 9.90086 11.3203
215.91 24.9088 52.7393
161.728 15.7079 28.6318
199.601 9.23554 19.8186
97.13 11.3166 26.8154
212.118 17.4204 39.8302
212.047 43.2757 65.622
94.3337 9.91977 19.5014
199.97 14.3805 31.225
143.646 18.3829 46.8509
223.457 13.8938 24.7248
188.006 19.2741 33.0154
85.2373 9.81284 20.8484
142.187 18.2567 20.2635
199.12 8.29144 22.4946
131.897 12.801 18.0582
172.503 12.5667 25.3068
107.912 18.3052 28.6906
117.909 18.2629 37.8877
204.211 13.6619 28.9244
129.408 22.4928 46.9508
108.773 42.691 78.5341
75.7378 6.4364 13.7972
157.487 8.65888 14.8447
122.743 11.9155 21.8568
87.5644 18.6349 35.7518
115.924 13.6074 32.8778
82.8629 24.3448 39.4541
149.076 11.8862 23.3988
128.724 31.1511 50.8114
100.89 7.14279 29.3699
80.4236 8.80579 16.9322
112.42 12.304 22.3108
145.996 16.1607 44.7099
64.5246 23.8511 40.4154
88.3462 16.6305 28.5617
71.8304 14.5005 37.4882
160.116 17.668 33.6894
83.7988 18.4602 35.5383
139.267 27.2327 49.7946
105.676 18.2231 35.1833
84.3835 17.3254 25.7993
188.943 11.148 28.3935
68.076 21.8159 49.0813
134.153 28.6102 73.7649
98.0759 37.79 49.3395
144.711 11.1029 24.0782
171.315 26.1385 35.8987
70.0783 20.1296 36.3802
100.372 9.08 16.6583
141.061 24.931 47.6098
197.036 19.1988 41.0471
128.239 21.6902 45.7779
75.114 23.1454 55.8324
86.4862 15.3417 38.6374
141.828 15.4102 29.7025
132.966 9.22215 26.554
167.584 24.201 35.9327
90.7769 19.4344 43.2023
134.996 14.9169 38.8041
186.24 26.1471 47.282
130.658 7.0033 13.9652
143.909 12.1968 35.1822
125.38 22.5214 39.9572
161.258 12.1303 38.5727
229.295 15.4886 28.575
117.382 12.2527 29.0267
105.153 17.5888 47.694
191.504 14.7202 28.3779
187.477 12.7453 31.6704
207.721 22.3929 31.6161
168.649 20.7321 42.2717
88.1531 20.098 49.1298
234.57 11.1739 26.2041
128.991 19.796 28.3301
160.709 18.6257 37.5836
138.653 9.4596 19.4216
78.5376 16.3125 40.8744
302.287 21.5274 37.4838
90.1711 16.5695 61.8666
105.75 21.6481 36.8035
113.173 15.5454 50.0498
104.449 27.8548 51.6707
203.851 22.4957 33.5009
142.32 18.5249 46.2789
80.9457 24.8277 52.3076
138.548 29.7668 63.4856
204.815 16.0344 43.3891
103.981 15.6954 28.2469
162.006 14.176 15.3215
60.3652 29.3573 86.2148
172.456 22.6027 29.4766
183.703 9.50673 24.5766
76.963 17.8331 40.8107
111.065 14.5905 24.5055
53.7014 14.5918 41.3785
96.9546 15.0237 30.3892
127.415 14.1286 42.5451
57.6844 27.1436 57.4788
59.6951 27.1513 64.299
104.482 17.2777 21.8048
101.889 13.1132 50.8778
124.753 16.9088 35.4945
54.9558 19.3725 30.2241
50.4594 8.30421 25.1233
106.908 14.4021 24.779
124.302 15.2558 42.3183
135.22 15.2694 33.7886
32.2278 22.0786 42.0615
90.1026 22.3354 50.0109
88.184 20.8133 54.7942
120.641 10.3665 32.2524
84.1619 21.1833 58.5219
16.6777 14.2158 18.7849
107.286 29.8226 78.2798
76.8277 11.5823 31.4435
79.4376 20.4162 45.2968
71.7274 16.9271 47.0933
66.775 23.1422 55.7731
162.923 19.8281 30.0234
102.839 31.5599 51.0075
77.1676 20.8753 50.9801
79.1399 16.8081 42.4132
137.042 10.6827 31.5375
75.9153 19.4783 39.8353
194.785 7.94074 24.5902
33.4787 12.9327 48.6433
82.8831 28.0124 52.814
154.403 8.53185 34.5469
77.037 15.9337 29.2397
150.937 18.1167 40.4438
53.8475 17.2537 45.0679
131.881 8.99839 25.0882
149.713 17.4594 34.821
146.821 25.8926 62.4584
106.688 20.1599 54.066
100.028 20.7087 49.1703
140.296 13.1161 31.5498
157.743 13.7736 52.5006
125.121 24.9135 37.2401
74.4221 5.11727 25.0887
148.9 12.0953 33.3011
114.357 10.0673 28.896
193.321 26.6324 30.6707
105.013 11.9544 23.8537
72.2448 15.2212 40.7575
176.662 13.8192 53.2811
116.331 24.9378 49.5131
148.554 13.5343 35.3073
127.524 14.705 57.5179
119.255 22.9058 66.7615
162.78 22.8238 51.7028
149.563 10.9464 37.2716
106.168 11.538 29.2391
127.249 14.4795 25.2836
96.4508 18.0019 36.4826
176.755 33.6471 60.3913
