# pn-170911/CsIIA-33-KOKB-1280-1959.psd
# Power spectrum* (dif=0,1,2) (really just |FT|^2)
# NOTE: only the first half! (symmetric)
# weeks: 1280-1959
# 3 clock-days, 3 excluded
# PSD: 1441
41635.7 0.111383 0.0119076
2.10497e+06 10.0609 0.0021791
1.09482e+07 246.371 0.00772431
551936 46.3902 0.00538573
436606 36.6195 0.0039401
74675.1 15.7388 0.00360085
537702 94.2245 0.0193503
534962 82.4107 0.0246208
118367 53.8797 0.0205638
196745 61.2266 0.0293575
50599.2 25.4727 0.00767453
17034.1 16.3346 0.00888211
25976.6 24.9157 0.0238446
26252.9 7.72535 0.0103782
36206.6 52.3471 0.0444441
16427.7 17.2476 0.0260348
42864.7 44.2474 0.0454132
26773.1 34.3889 0.0431974
22712.9 21.9701 0.0255934
18153.8 29.8969 0.0568751
24854.3 46.8271 0.0997378
13823.1 43.386 0.100972
4539.57 12.8519 0.020815
7715.89 25.1735 0.0473721
20758.7 49.4845 0.123033
33872.9 75.437 0.215994
50318 116.168 0.401369
17854 80.171 0.257672
14616.7 45.1711 0.161528
14156.4 67.0505 0.268147
4462.51 35.136 0.141753
9017.42 33.5902 0.157273
11295.2 60.4901 0.311326
10086.9 56.8101 0.343832
4157.47 29.9986 0.13613
10090.9 57.1195 0.378521
11971.3 70.6846 0.497603
5668.12 39.07 0.21871
5066.19 53.6401 0.349508
14304.5 78.9847 0.58528
10495.2 78.2604 0.664912
3142.32 21.0427 0.131776
5185.53 51.533 0.39221
5695.06 35.868 0.297002
10288.4 66.2103 0.654924
6035.41 58.3862 0.531328
11843.1 124.937 1.22636
3949.84 38.5461 0.414925
4683.92 43.3511 0.521689
3469.27 23.1808 0.265964
1940.57 19.5333 0.240425
6797.37 54.2395 0.694435
7690.92 73.1662 1.03271
2681.58 40.3749 0.514122
2791.07 57.523 0.849845
7215.6 106.443 1.38329
4738.07 69.3176 1.07219
7610.61 85.3796 1.21089
5647.37 88.4612 1.41022
1315.2 31.3884 0.48925
6614.41 106.099 1.88478
2272.72 35.5864 0.65436
3279.9 40.5666 0.719705
2652.8 51.8951 0.949868
851.691 9.14904 0.19486
2646.76 56.0669 1.14429
3847.02 51.819 1.07076
1299.38 19.1037 0.412236
924.695 20.1273 0.481104
5249.85 77.5658 1.68825
1146.31 11.8615 0.274231
4462.35 74.2581 1.84306
933.558 31.3794 0.747278
1210.93 18.4442 0.468041
5745.55 132.751 3.56199
1462.66 22.9013 0.652047
899.051 25.2701 0.712387
1727.09 40.9548 1.17741
5717.95 117.878 3.66988
852.43 31.1045 0.777297
2057.23 64.8668 2.12363
1547.92 42.6867 1.45327
2947.45 84.4701 2.69264
741.238 21.0645 0.609135
476.16 34.3279 1.0333
900.607 32.4376 1.05462
1645.73 71.0919 2.32605
395.482 8.84696 0.298702
225.485 9.99752 0.364772
1707.33 96.2267 3.7538
3536.74 125.663 4.65708
1615.65 85.9262 3.39246
1269.78 45.7616 1.83896
2107.07 82.3774 3.4289
1945.61 71.585 2.72032
2382.02 125.146 5.57175
652.398 46.648 1.92504
946.762 55.296 2.53173
1967.22 69.5403 2.96755
532.467 31.0271 1.63361
721.283 29.1081 1.3225
1735.45 82.7953 3.94894
787.372 28.9866 1.63135
1523.62 54.8099 2.62014
458.969 15.8627 0.888016
808.568 37.2657 2.01673
1367.02 59.1969 3.15655
1474.2 79.37 4.30299
1159.7 35.4827 2.2204
1414.51 90.1776 4.5806
931.98 68.0395 3.73226
765.281 48.3365 2.92633
560.149 23.3667 1.37614
580.291 41.4143 2.46089
342.87 17.6159 1.05365
1138.87 79.8422 5.21579
1163.67 47.9961 2.91313
244.704 14.2699 0.837889
988.264 98.2299 6.59486
739.424 36.4702 2.43714
272.829 14.8759 0.8826
1053.06 48.2807 3.62158
637.716 78.1115 5.32221
314.173 14.5397 1.25531
1009.23 78.149 5.34535
1231.58 81.7488 6.1769
865.511 57.9204 4.77379
935.694 71.9244 4.73585
399.391 52.1574 4.32082
632.484 44.941 3.51793
633.666 65.5401 5.07761
432.413 18.1295 1.32785
110.794 4.97081 0.552904
472.257 39.9546 3.09697
259.367 33.5996 2.98841
590.942 56.8106 4.4044
683.612 82.2513 7.73781
209.497 11.2058 0.989415
622.217 56.4567 5.35267
587.608 23.5953 1.94311
263.279 23.176 2.09548
341.57 19.27 1.81488
580.617 56.2689 5.354
716.136 69.1224 6.8739
349.424 20.1533 1.9307
342.626 24.0461 2.77169
192.967 17.5871 1.80503
225.546 48.5529 5.57697
597.941 60.2816 5.77467
962.357 74.2372 7.48182
591.173 43.0789 4.81557
612.746 55.9552 5.55163
147.689 28.6896 2.76265
403.137 66.0536 7.3491
441.303 52.4196 5.48638
433.868 49.2993 6.03148
286.032 36.5616 4.81653
798.579 62.53 6.1899
599.098 62.1455 7.17839
665.037 92.774 11.4556
185.755 35.4734 4.45064
182.295 15.366 1.45735
713.597 98.4335 12.9685
367.737 44.5039 5.98643
629.835 41.7549 4.56473
215.224 14.7787 1.94759
581.16 66.0726 8.76865
578.805 49.6703 6.59505
231.678 44.9874 6.3088
424.428 34.9675 4.58088
111.932 30.1891 4.35033
552.11 49.2714 5.84522
451 76.3239 11.0844
600.523 71.8253 9.51744
483.076 57.1743 8.41129
530.561 79.6147 11.4203
206.078 39.2735 6.61037
171.667 27.7721 3.8068
879.892 92.2544 12.5112
287.071 23.046 3.55573
546.43 70.28 11.8242
439.231 54.8289 9.01663
796.458 143.522 21.0942
123.77 37.4813 7.04746
730.974 104.693 14.5511
365.531 69.3056 11.6586
355.061 37.7429 6.36328
146.488 33.986 5.72191
165.317 17.5992 2.9229
580.825 80.4351 13.8382
169.499 36.8551 6.64967
406.064 67.471 12.0218
189.299 43.3087 7.71309
51.8122 16.4746 3.55741
179.95 19.722 2.86142
238.614 30.2579 5.70865
608.951 117.412 19.9634
118.39 7.59321 1.87687
386.317 61.2803 11.0827
250.645 35.2191 6.02519
166.81 25.9719 5.05254
277.926 64.2062 12.4965
157.796 25.2721 4.81612
257.387 33.9416 5.54128
141.701 29.0407 6.09562
416.874 96.1777 21.5297
553.91 64.9908 11.4181
513.976 66.5071 12.0218
324.445 58.4685 10.4284
533.05 88.07 17.0958
395.602 59.5944 13.149
240.208 43.8558 11.9877
299.599 54.385 11.2493
680.179 153.576 30.2435
236.333 91.5191 23.1443
303.727 39.8229 7.94673
263.75 45.3345 10.1983
567.563 129.375 28.2198
319.701 43.2452 10.3248
128.781 43.7579 9.21894
323.894 50.6544 8.81967
277.483 80.0238 18.69
146.561 28.3283 6.11477
247.463 36.0196 8.19669
109.377 17.1069 4.38821
169.643 26.1491 7.2295
228.007 53.6176 11.322
39.7861 15.6787 4.75565
261.472 66.1426 16.1573
292.961 57.3777 13.6452
95.233 22.1992 6.93567
152.942 21.5722 3.99237
241.136 40.8606 10.2217
118.283 13.7933 3.05013
162.952 38.8037 10.272
258.233 43.1796 11.1843
110.008 17.0897 4.09969
189.088 28.565 8.13015
103.204 22.9573 5.59611
54.6749 19.4356 5.77792
148.868 46.2615 11.3612
181.324 34.0085 10.7937
107.133 41.6681 13.7807
457.295 114.25 27.4318
146.202 44.3758 15.183
102.12 10.5819 2.20654
116.879 25.9506 8.04657
323.813 58.1887 14.0499
351.219 88.3978 26.2822
130.938 37.72 10.9891
37.2977 20.939 8.53193
130.146 16.0853 4.09831
293.038 58.2185 14.8139
45.958 12.7792 5.04672
346.831 65.9553 18.9632
111.081 25.992 8.03894
148.014 36.3258 10.0156
148.738 49.4876 14.3515
95.2635 32.5391 9.57777
203.367 41.9395 11.7951
258.894 66.7822 20.3303
70.7568 23.6033 8.76716
136.593 58.5112 18.7033
155.357 42.1149 11.9401
63.7634 20.2444 6.83241
286.243 67.4836 21.718
187.492 67.2783 20.8793
150.421 78.146 30.2208
214.393 52.0003 16.3165
100.918 31.3282 14.2066
254.875 51.0045 15.1751
56.6704 24.4753 10.7326
124.52 24.1192 6.60035
36.6575 17.4114 6.70847
160.069 35.3433 9.4301
188.018 64.4328 25.6876
63.764 17.6986 8.17385
105.653 31.1466 11.6652
113.692 39.3159 12.0741
136.928 58.4876 21.0588
142.417 39.0654 12.4312
170.296 54.1338 21.2163
192.614 73.8188 24.3622
93.3273 44.0514 16.6675
243.668 64.1509 24.9669
62.1765 14.2781 5.19066
106.606 32.8772 15.2536
168.121 67.2215 20.9523
69.6446 69.1084 31.3455
144.541 25.8335 7.99511
107.928 40.5568 15.6236
213.889 64.0982 22.3469
86.9899 23.8438 12.7467
98.3412 53.6773 23.6246
153.746 28.7098 11.0231
113.163 26.8025 11.3422
70.4646 29.4663 8.69648
93.1388 50.8377 22.2655
126.486 57.5137 21.3398
122.205 54.0985 21.7763
78.4349 20.934 8.92321
80.5386 16.0639 5.04853
121.009 65.6573 30.1774
88.4535 25.6856 10.205
271.22 85.1028 33.6563
141.642 38.8018 17.6221
59.0928 19.2182 6.51824
118.277 41.4404 20.3527
116.511 38.9232 21.7493
241.306 80.1396 28.444
88.5502 16.8275 7.05068
261.163 91.1154 37.1189
124.363 62.8662 34.0977
45.3833 32.7039 18.3726
166.458 68.0789 26.898
173.039 65.2724 28.3758
73.5911 33.2228 13.1172
73.7813 32.3823 17.154
63.1299 23.8361 9.53452
46.2991 15.8059 7.46638
51.3215 45.6189 20.2084
164.651 82.6316 38.8537
15.3206 9.71676 10.253
78.8659 34.1091 14.9214
175.015 79.7494 31.2403
44.5264 19.9584 10.9629
120.102 38.0375 15.7584
150.289 76.7469 41.0284
37.0174 20.8979 13.4036
58.7352 15.9698 13.5468
152.385 61.182 22.0095
98.5329 71.7884 38.598
41.0011 9.73814 5.90767
195.973 81.815 37.1523
177.03 56.8257 27.7011
95.0918 58.6436 33.2756
100.818 43.3675 24.3499
107.055 32.7346 16.8739
106.541 55.9889 29.1371
67.7227 43.1242 19.6558
80.7178 41.8869 22.5325
100.882 40.3102 21.2
48.5031 40.9321 24.4838
270.909 109.325 60.0778
48.4844 32.8823 17.5158
68.5867 42.8951 30.8953
152.807 63.5365 24.0499
59.6793 38.3747 25.5085
154.391 110.197 54.209
171.21 68.7153 35.0797
117.966 47.2718 29.8742
116.244 70.0721 40.3803
57.2239 29.8542 25.3356
102.435 50.8862 22.1262
111.227 79.0895 36.9989
25.4592 42.5871 32.1562
155.205 44.6663 19.2032
67.2789 45.4125 30.6805
60.8945 66.2756 49.912
118.959 26.9448 9.90216
135.74 48.9417 23.4537
77.0592 41.6202 26.2431
18.9729 12.5999 10.3113
33.1825 14.6351 12.1964
85.9444 29.8094 14.1986
67.526 45.2794 21.78
28.3971 29.0729 22.6397
73.9711 27.5047 21.6122
121.661 73.5818 40.8102
77.0208 48.7466 30.7463
72.4233 38.664 21.0311
58.4757 30.687 16.0036
3.90714 5.56305 6.45693
34.8967 20.5151 15.3322
61.3099 29.8728 23.1659
161.969 55.748 24.8071
39.3623 12.5918 9.95098
133.992 61.83 44.3853
63.4015 27.4195 14.8308
53.4471 23.2236 9.58527
72.0069 51.381 35.8537
177.782 76.6259 41.8104
27.7343 28.4886 16.9015
34.3109 33.3292 23.2631
87.9379 32.1696 26.6353
161.83 103.49 55.6213
39.2527 53.7252 44.0468
108.344 54.236 32.7179
132.05 58.7583 39.9199
78.0182 31.1055 19.4948
53.1459 54.4136 42.3437
9.34868 6.17402 10.3257
112.126 57.4205 30.5241
74.1003 39.9356 28.4382
66.474 29.1985 24.0586
20.2717 22.3445 20.8454
35.8883 23.8171 13.3061
59.1548 28.2137 20.0506
75.7807 35.027 26.8411
47.7603 31.2807 24.4891
57.5127 49.4349 36.0589
116.498 77.0051 51.5027
59.8647 30.3467 17.2189
47.1355 72.3372 60.9008
78.7292 44.1002 29.3139
55.3406 39.4915 32.6262
70.3186 29.3376 17.7237
65.7894 21.6618 15.1981
67.1959 40.9974 28.7156
41.0237 25.802 20.7585
106.149 40.4182 23.8724
12.7752 9.27581 11.7808
106.081 46.7982 31.6227
47.417 33.7316 30.1323
152.319 76.8458 49.6086
95.4121 68.5466 59.9444
110.505 90.307 74.0971
39.2285 34.0428 31.8422
102.036 66.2028 44.0596
19.228 6.63498 8.70767
72.042 68.4868 53.7913
98.032 69.8637 53.2233
25.6337 29.7995 33.0429
58.1093 36.582 33.7542
63.1405 39.1224 21.2803
77.2797 50.8948 38.0924
58.4666 44.5169 44.5709
129.425 87.1413 55.0485
48.2791 25.8121 29.5615
134.308 84.255 62.5327
37.2453 31.3477 34.7527
93.0352 64.336 41.536
91.8546 60.3847 54.067
28.7285 14.8866 8.53957
82.3182 40.833 30.916
59.9296 39.4777 28.9381
88.6884 59.1262 51.7697
46.9859 44.7697 46.0343
78.8394 77.0171 56.0673
98.8448 48.346 38.1296
82.2086 67.5086 57.0842
32.0432 20.9737 19.377
61.5242 41.85 37.5663
102.912 56.2641 45.9583
93.6366 74.5446 67.9468
39.821 23.1067 32.2283
21.6455 14.74 9.2939
65.8845 62.5564 55.2504
42.8511 21.5621 15.9056
78.2477 58.0912 45.6203
18.9732 35.2725 33.0365
101.235 67.5497 59.105
42.5927 50.5444 56.3922
112.477 110.46 113.779
97.2199 72.4597 49.7937
40.318 35.7656 32.3157
57.3767 50.0858 38.6995
28.728 50.7324 47.1887
53.1124 38.4993 48.6124
9.26743 7.71636 30.3366
60.5128 55.6061 28.9893
20.6789 30.6337 46.435
130.091 95.0661 71.2195
18.104 10.8657 4.27348
49.8296 50.077 44.795
34.8903 18.5265 16.567
80.3684 77.9111 85.1492
58.8684 61.4642 58.1896
45.8493 19.6548 26.2382
45.6211 46.3499 31.3816
23.7183 34.9899 35.2802
59.1764 35.8364 28.3373
88.7435 72.498 63.8224
50.2974 38.5215 37.1144
44.9908 52.039 52.8236
59.4978 56.6087 68.1919
74.8118 49.8394 52.6016
10.1104 10.0233 6.6424
41.5597 57.8101 37.4461
60.068 95.3942 120.989
65.6767 42.3565 35.9394
63.7406 35.6698 33.069
73.3199 64.4314 47.8878
15.8064 10.002 19.791
67.9817 93.7845 82.0194
62.9005 81.2425 94.263
30.7801 31.476 65.5955
115.974 93.9714 54.1974
11.5847 31.2276 37.4071
87.8711 83.9022 88.2544
40.5067 20.8583 21.3329
19.0542 16.8994 14.5292
20.7119 15.2992 18.9031
12.5972 7.34715 6.15362
42.6171 60.2221 62.3161
34.3392 33.7271 34.0649
54.9768 56.8944 65.876
41.0688 55.062 55.4456
66.7996 56.6028 63.8512
27.037 12.4408 10.3762
35.0869 44.0121 39.2098
38.2888 62.6759 82.7002
62.5913 48.5813 56.9646
42.9578 37.9635 43.1184
141.628 95.8695 87.7098
40.6685 61.4289 64.617
63.2069 39.8459 37.1497
23.8496 22.6972 23.1951
23.5665 29.785 31.685
29.6329 38.2253 40.1381
44.7797 52.4198 67.069
19.0079 25.4283 26.736
58.7031 53.9996 64.4979
7.43454 12.3722 14.5763
22.8906 43.8466 58.3529
84.3959 79.8079 73.5313
22.8453 43.7543 65.6644
29.0824 28.0721 61.5268
140.209 95.149 73.8155
15.5577 17.4022 19.4946
10.8582 24.8778 43.5812
64.1362 34.0358 30.9365
25.3401 39.9283 52.0656
51.5699 49.7435 52.0933
50.4187 44.1428 48.3445
24.2032 19.2397 29.2336
42.9562 25.1242 25.2191
91.1295 85.8689 92.3503
32.0586 33.9987 73.3055
74.0678 87.3581 93.9494
46.6465 37.7252 29.1302
27.0162 37.9058 67.1917
97.2692 109.05 133.379
23.0636 24.9492 36.7364
19.5319 30.3439 22.7963
24.9861 37.6415 28.5458
13.0705 35.8656 49.1807
36.9721 19.0488 17.6879
16.6328 25.7253 45.5451
44.5581 33.0896 29.3262
22.1058 41.7114 49.6424
20.3411 33.7039 35.1862
29.2026 33.8636 38.6495
40.0688 53.6588 62.9221
35.0614 31.754 34.205
10.2462 9.90088 26.1364
49.1574 91.8581 116.172
59.6453 68.1425 78.4253
23.0853 7.82581 5.15864
24.0539 27.6202 34.1727
22.142 35.078 66.623
35.2641 38.2442 38.4453
14.5363 15.5828 19.0717
8.99074 38.8845 53.5263
22.4582 24.9468 43.6976
23.0479 20.2063 35.9063
38.4893 38.6652 59.3854
19.9917 15.3043 28.793
37.1899 40.9217 55.6928
30.683 49.2807 63.2764
30.1177 23.0078 25.7235
58.7178 65.3336 83.9114
42.1286 64.8434 87.2529
23.2602 8.47911 10.1588
24.0818 44.3379 90.6496
112.494 99.9325 113.697
41.0484 46.7077 57.4018
19.1064 24.0911 44.2983
25.1328 21.1626 20.962
8.99738 10.1922 26.7042
53.6803 46.6376 78.3033
37.5475 13.8915 19.6573
92.5202 87.3025 71.1112
46.4721 46.4454 63.7852
22.524 31.6128 78.3596
73.3782 91.2902 96.279
8.77336 17.513 31.3046
57.3729 77.204 87.5818
17.0318 10.6025 23.3235
59.3116 59.1634 74.2878
17.5931 27.6278 43.0848
28.0257 22.5654 38.4303
46.2744 27.3449 30.5218
27.9942 23.4963 19.8747
34.1373 49.9838 41.5647
20.3958 52.3772 92.9036
37.8078 20.1431 23.5721
51.0551 66.0917 102.569
67.4886 86.0984 117.687
36.2509 43.6805 66.1351
7.95656 26.6233 87.9172
76.871 87.0248 97.312
15.4163 50.9582 78.9775
34.8827 36.4054 66.3009
41.2698 52.4666 52.8594
26.4854 30.556 41.3916
27.1969 46.4352 58.8569
64.8203 60.4707 73.1028
37.9122 67.6787 103.797
24.4762 63.8203 116.694
35.3473 31.4033 34.2895
4.35009 18.5654 32.169
17.358 7.69102 6.14086
8.64057 28.2788 51.75
23.5893 56.1534 93.8715
64.0024 78.9025 123.634
46.3278 21.3805 12.6663
39.9285 74.7326 167.323
71.2871 110.332 126.812
14.4612 15.2018 34.1077
32.7236 29.2858 48.0061
69.6859 125.331 180.924
30.5339 27.7849 44.3687
43.849 45.5533 65.3626
12.2512 28.5441 61.3969
29.0464 19.8332 31.9069
45.9239 53.0658 83.1049
41.573 34.7696 41.0234
49.2016 51.8408 65.0966
8.3263 15.8487 32.2913
13.3096 20.5046 24.466
27.582 21.8278 31.6365
34.0099 54.7636 70.9744
34.912 61.5102 115.231
27.9403 36.6384 50.186
12.2989 25.6319 72.3892
23.4159 23.8709 40.9565
17.3122 22.3507 82.1228
70.8665 93.3803 102.411
23.3462 48.7464 68.8101
25.7262 81.8469 140.277
20.0566 13.2583 42.1592
27.4155 19.4245 16.218
24.8712 27.213 31.2748
16.4582 14.2993 37.7347
74.3562 110.53 137.584
20.1404 50.458 77.1549
12.527 12.2293 25.2906
15.489 13.264 30.5663
24.9553 72.3923 112.415
20.0026 36.2135 106.853
49.33 45.3255 58.6717
37.142 48.4834 88.2384
23.2888 19.2389 23.7952
28.8539 38.7122 59.252
14.0803 45.9401 88.7074
26.662 35.9379 41.3094
7.49159 26.9424 58.0501
31.0435 24.6262 37.7032
25.5608 14.6831 26.8688
70.5932 109.639 128.326
26.3059 95.3095 251.027
36.2748 37.2118 58.4651
23.0871 8.09797 14.9285
37.1 63.3895 99.4106
43.3983 53.7648 69.188
36.923 50.7053 83.5866
21.5144 54.7918 90.4407
42.5975 73.7909 124.37
41.6349 45.3531 82.6033
17.2452 24.7032 35.3684
4.74442 9.64798 14.7709
23.4192 39.9555 90.8211
31.455 52.9545 87.0436
13.3013 26.3799 61.0862
23.9511 10.6807 26.9725
40.7893 75.7828 104.816
19.1156 26.9628 76.4823
72.5377 85.9673 107.957
22.1949 36.6147 75.9271
13.9246 23.6264 53.1068
32.2584 61.2519 97.1155
33.869 27.8366 37.1098
6.58322 11.5928 28.4338
21.7694 31.896 66.6799
12.9334 6.79786 6.2603
23.0689 36.4339 71.436
11.1319 16.7332 15.669
11.087 40.1683 85.4489
22.1642 31.0174 35.1219
10.289 12.8418 37.5098
6.84409 8.61172 27.9958
27.2465 63.8631 130.239
54.2505 60.333 85.9222
20.1217 19.9069 49.0228
5.10544 7.03423 6.0306
3.5796 8.35246 19.3874
11.5524 19.3694 29.0869
10.1227 13.6453 41.2585
22.9815 30.8683 59.1196
20.6459 15.0993 24.0667
21.4034 28.0869 51.5594
30.3485 57.409 125.869
22.5402 55.8171 62.8469
7.29389 31.8386 84.9209
31.3761 50.119 131.325
50.9068 55.1137 85.2135
16.1438 18.4197 23.2604
13.8791 62.5379 179.492
72.845 65.1041 58.9102
28.818 36.4658 48.8461
13.4978 27.3186 69.5398
18.3153 25.2383 62.6656
9.99942 32.2299 102.992
34.1454 58.3137 68.0808
12.1353 24.8988 64.9954
45.664 48.357 66.9344
18.2564 27.7473 54.8666
22.555 42.9076 71.7417
5.06232 7.99869 19.2168
4.53186 21.3833 69.3231
27.6779 50.0125 85.5354
13.8382 21.9263 84.6719
23.4122 35.2513 42.2518
10.2496 13.8474 53.488
20.1112 37.5935 72.4033
25.1738 44.8522 88.8636
32.9228 65.3833 139.093
20.7247 32.3035 37.0824
13.4815 34.6668 86.9308
24.5454 31.018 46.8051
27.3735 43.9992 90.3736
13.0416 26.4568 65.6233
29.2829 64.9631 117.144
35.9936 42.6756 52.1412
12.6239 29.9433 58.7948
13.9403 36.914 75.8591
10.7924 15.4509 65.5477
31.0735 84.9512 146.256
28.1782 46.2778 81.8143
6.85363 29.0643 70.7885
25.1565 18.5846 33.2008
11.6041 20.3455 42.4228
27.1029 43.2171 89.5887
18.4707 17.2081 37.3204
6.3586 7.5943 8.16963
5.96244 14.2019 57.2057
34.8409 35.6966 38.5176
24.1493 68.2892 134.798
28.8669 47.721 96.4448
9.88301 9.7979 27.2979
23.1548 42.0906 80.095
18.5676 50.3252 122.01
13.0785 14.1828 38.8498
11.4186 24.8059 51.268
2.79391 4.8283 26.7155
20.2183 27.5649 65.5822
22.6897 40.684 101.336
15.9396 13.166 10.8665
5.93672 22.8242 38.3407
15.002 23.5708 50.8255
10.1327 11.4146 12.7654
4.17413 10.5178 33.1403
7.11535 20.7986 43.3133
19.3017 48.9951 88.4349
20.526 31.6867 79.0137
9.17998 11.7659 19.9639
7.73995 20.9675 90.7596
29.9569 73.1438 113.201
13.1558 25.7104 42.3137
6.94969 11.2349 69.2249
40.1389 57.4337 89.6135
20.4593 31.7366 41.0624
6.55121 3.26257 10.8123
27.7408 63.0873 159.653
11.4623 18.5319 46.317
27.6529 75.8028 143.877
22.5902 28.3805 68.5415
10.2502 24.5721 63.9018
18.1322 16.7435 30.2664
9.72834 12.729 35.1498
29.0323 80.0781 187.117
20.2461 20.0879 71.1307
11.2806 21.0399 38.0588
10.9762 31.2069 55.1981
4.59656 8.83944 29.5589
17.0122 20.6746 26.8596
10.0945 19.0883 28.6765
6.39234 29.5752 80.1049
10.6626 16.7676 59.9156
10.65 24.5839 37.7111
8.41091 29.8692 111.067
32.6531 49.9219 101.765
22.9019 27.4102 75.8846
21.648 35.0942 93.1327
17.1936 38.5442 83.8245
39.4777 68.001 86.3796
8.02694 49.8592 172.051
17.899 13.0847 17.1927
15.8081 47.2902 103.996
8.00662 21.0978 60.8689
18.278 17.0285 30.3467
5.58694 19.3453 48.8695
17.5048 19.3965 53.4751
17.0843 16.6444 27.3195
7.70843 21.2994 85.1725
20.2811 27.764 40.929
19.5912 45.8902 83.7628
12.6043 16.6414 28.9363
14.2829 30.8415 71.2524
6.10239 5.43888 32.6382
28.3286 34.2543 32.9884
9.65879 24.6393 58.1865
3.53438 16.6363 72.3737
10.5862 53.3039 153.915
26.2097 32.0777 81.9687
12.3195 28.2186 44.4181
5.42464 15.8012 67.1389
24.7142 35.4253 30.0911
5.87481 45.0517 167.525
29.1382 33.627 82.7623
14.7057 33.79 38.9372
5.0461 19.4056 109.457
29.2121 47.4186 44.7743
5.48724 12.4459 30.1481
7.95907 13.3496 24.7872
9.45215 18.9496 62.2655
9.93346 6.64096 41.4216
38.6459 70.69 94.9951
7.73551 55.6519 169.608
23.7462 26.6527 43.6915
6.97598 12.2512 63.4946
17.7238 36.4088 71.0797
10.6824 16.6233 37.3152
6.39499 21.3538 48.6798
14.7236 31.571 103.703
26.7476 44.0529 81.0657
5.92125 14.9771 51.1074
16.4941 18.9946 50.362
14.4482 35.0724 94.5613
6.09065 3.67535 66.1644
28.2836 61.9492 139.75
8.18175 30.3896 82.9323
