# pn-170911/CsIIA-25-USN3-1280-1959.psd
# Power spectrum* (dif=0,1,2) (really just |FT|^2)
# NOTE: only the first half! (symmetric)
# weeks: 1280-1959
# 415 clock-days, 106 excluded
# PSD: 1441
33232.9 1.11222 0.0355778
1.26692e+06 28.8279 0.0185815
4.07323e+06 77.722 0.0209357
1.70701e+06 59.9999 0.0216176
980485 65.7095 0.0247294
609036 63.2965 0.0260251
412159 58.0448 0.0278531
290914 56.068 0.033009
223417 56.6138 0.0331988
186523 58.8478 0.0414942
138382 57.4375 0.0470615
115127 56.353 0.0475943
95678.6 53.1892 0.055532
86898.6 57.0977 0.0663907
69578.1 53.815 0.0693412
62955.1 58.1435 0.0793529
55071.5 53.8898 0.0844638
48160.7 55.5139 0.0942626
41091.8 52.264 0.0996932
40656 57.0125 0.115351
37051.9 59.7891 0.135375
33636.4 57.1816 0.13471
29472.7 59.5606 0.153764
26695 59.0114 0.165874
25454.3 58.6663 0.179828
23044.9 56.6216 0.192959
20652.4 56.4005 0.204086
21973.5 65.3332 0.235728
19796 61.6393 0.244044
16816.6 55.4594 0.239508
15921.1 59.2277 0.270576
14288.6 53.7486 0.259065
15023.7 60.6125 0.311852
12983.1 53.0112 0.29697
12121.2 55.6885 0.328483
10848.7 52.3946 0.32357
11565.5 55.7723 0.362479
10101.1 52.218 0.356911
9572.14 54.0647 0.38679
9424.41 56.0934 0.431838
10427.7 63.4056 0.491007
8862.81 58.8868 0.491454
8118.68 58.2715 0.514654
7030.65 52.6437 0.480858
7415.21 56.5388 0.531169
7279.59 58.2436 0.589763
6522.84 54.3859 0.55991
5959 51.0942 0.554479
5987.02 55.4384 0.622535
6093.71 60.1374 0.700107
6060.63 62.1302 0.762234
5391.59 54.8164 0.685272
5061.71 51.7636 0.679199
5153.91 55.0794 0.737308
4870.06 56.6333 0.82015
4239.55 51.5645 0.774319
4416.22 55.7333 0.851644
4412.84 58.513 0.939015
4613.2 59.2841 0.95389
4356.96 59.3052 0.988436
3897.43 54.7299 0.968664
3575.77 54.84 0.994195
3766.39 58.3563 1.08455
3308.09 52.4349 1.01172
3419.79 54.2406 1.05972
3311.65 55.2175 1.11886
3463.7 57.7978 1.21991
3463.38 61.6354 1.34218
3266.1 58.8193 1.29566
3027.22 56.8908 1.29991
2849.17 57.6565 1.37149
2877.7 54.7649 1.31155
2946.72 57.7257 1.42891
2681.42 55.1052 1.41334
2486 52.2255 1.37605
2512.87 56.5938 1.53381
2516.55 58.9215 1.61164
2287.27 51.0748 1.46336
2302.08 53.2892 1.56299
2368.66 56.5932 1.70553
2220.5 53.962 1.65648
2224.03 57.5461 1.79259
1956.07 51.5501 1.65588
2057.28 53.1094 1.75497
2020.7 54.5043 1.82522
1938.13 57.3191 1.96169
1762.15 50.4339 1.79322
1903.39 57.8645 2.08296
1810.25 54.2579 2.05476
1673.27 51.553 1.94143
1705.1 52.5117 2.0238
1845.85 60.6709 2.39304
1433.81 51.5787 2.08737
1719.74 57.3603 2.34748
1491.98 53.0056 2.23987
1643.34 53.6015 2.29696
1594.05 58.5666 2.5969
1488.09 54.8347 2.43415
1448.17 54.3111 2.50442
1454.28 55.8883 2.60866
1360.68 53.9405 2.5668
1305.28 55.8622 2.70525
1266 49.851 2.4691
1280.39 53.4892 2.73495
1322.68 56.9225 2.93718
1444.17 60.5014 3.12674
1187.65 52.3031 2.84585
1225.78 54.118 2.95582
1240.95 59.666 3.30821
1112.39 52.8254 3.00217
1167.64 56.1847 3.25748
1129.09 52.28 3.05173
1225.46 58.4151 3.46068
1226.92 62.1231 3.79405
1135.04 56.9821 3.52332
1107.35 56.6302 3.50173
975.558 51.179 3.33447
985.834 53.7501 3.52782
1051.18 56.7385 3.80839
1023.41 55.3533 3.68448
1050.15 60.6265 4.16823
983.103 57.7564 4.04406
894.772 51.6209 3.67721
896.771 54.8973 3.97026
907.325 54.4236 3.90392
951.768 55.1824 4.08878
902.333 53.7875 3.98157
885.308 55.5089 4.27609
891.093 57.6703 4.50374
785.074 52.5139 4.1342
819.629 49.9508 3.98489
742.525 50.3502 4.14418
757.168 50.4217 4.15648
755.463 51.6726 4.31218
759.183 53.9861 4.63499
787.784 54.7565 4.7225
742.443 53.0503 4.65046
713.958 53.7219 4.72832
739.788 54.6507 4.9245
678.401 50.7467 4.63858
665.345 49.1376 4.60039
709.334 55.5305 5.23565
634.166 50.7011 4.805
628.091 49.784 4.92363
630.778 52.1213 5.03757
607.223 48.3812 4.8759
643.428 49.3753 4.90824
612.981 48.9448 5.04225
582.715 49.873 5.09567
637.269 55.6796 5.79152
612.051 52.2986 5.60897
551.662 50.0169 5.41378
632.734 55.4865 6.07323
572.08 52.391 5.84352
579.346 52.9127 5.8876
539.921 51.7594 5.82542
536.826 50.9692 5.92563
521.541 49.8761 5.75425
557.49 52.9091 6.27162
505.816 49.5482 5.93143
538.529 51.9555 6.23981
503.282 50.3762 6.17163
543.222 56.0085 6.89699
494.588 50.3546 6.32365
529.38 56.2681 7.08891
501.471 51.195 6.6329
521.236 54.5077 6.99983
448.727 48.968 6.53737
477.944 48.5567 6.39509
436.914 46.7092 6.27153
465.582 50.9959 6.92819
443.951 49.636 6.81574
455.752 52.5985 7.39632
412.326 46.6131 6.60014
406.32 49.0769 7.1536
450.973 49.2857 7.05173
417.675 48.7761 7.0825
436 51.5553 7.57427
408.345 51.9892 7.695
397.18 51.45 7.91839
432.824 52.7316 7.98479
394.829 45.5626 7.02674
383.883 49.4379 7.82675
441.724 55.0975 8.59245
377.74 50.53 8.15776
365.841 48.5331 7.76813
370.07 52.2816 8.45076
382.241 50.1453 8.17717
374.44 50.6072 8.33937
341.081 47.322 8.03654
359.29 49.2624 8.29861
353.729 47.6923 8.17435
353.394 50.3431 8.82863
342.442 49.2303 8.56202
346.631 48.4864 8.62658
357.685 51.3485 9.08196
342.88 46.9981 8.48805
304.577 44.9539 8.24628
314.136 48.037 8.85786
318.404 48.2477 8.99723
308.949 45.8651 8.55164
353.334 54.9454 10.4224
300.509 46.0663 8.7772
317.048 50.6825 9.673
298.459 44.9796 8.80061
309.506 50.5078 9.83397
314.159 49.9551 9.97854
296.063 49.5413 9.95955
303.715 46.7321 9.42167
285.09 49.3057 10.0679
295.137 48.9242 10.0618
310.908 50.3466 10.3005
303.596 50.9962 10.7558
264.762 46.4605 9.9117
273.89 47.241 10.2171
272.24 47.4162 10.3381
261.219 45.0276 9.75979
255.633 42.6435 9.43714
262.608 46.8104 10.4205
259.962 45.9578 10.3088
244.714 47.201 10.657
261.208 49.1185 11.2315
237.398 41.2413 9.43837
226.699 41.5674 9.72704
243.28 45.3805 10.5168
241.917 45.3484 10.8154
261.883 50.4374 11.8563
227.799 45.6439 11.0743
222.819 44.2414 10.7446
244.264 46.6967 11.4639
229.632 46.2658 11.5621
253.02 49.7923 12.3079
212.808 41.9806 10.5297
227.49 46.5739 11.7748
232.747 46.1766 11.859
225.337 45.9161 11.8499
224.927 47.9242 12.4795
224.696 45.4922 11.7716
209.738 44.4998 11.7352
220.225 47.1677 12.6378
217.748 46.3091 12.477
209.092 43.0115 11.5008
207.192 44.4576 12.1614
197.787 41.8999 11.4113
209.939 46.1992 12.7571
191.524 40.2954 11.4693
212.606 49.4559 13.7856
223.88 50.4696 14.2689
191.158 45.1069 12.9319
208.426 46.2363 13.1642
194.982 42.557 12.3205
185.54 41.5525 12.1326
194.547 44.7312 13.1481
189.107 43.1276 12.808
188.664 44.6295 13.3207
184.691 43.7407 13.2774
178.891 44.9164 13.5371
178.354 40.861 12.5941
187.161 45.0951 13.6688
180.656 44.6394 14.0681
169.076 41.7522 13.289
175.531 43.2393 13.8611
171.288 42.6421 13.3502
169.264 42.5525 13.77
169.026 45.4849 15.0145
170.892 42.6956 13.9393
158.441 42.8555 14.036
176.237 43.7437 14.0678
174.812 45.2258 14.9893
164.269 42.5107 14.2479
162.505 44.0041 15.094
172.12 43.5365 14.2904
154.919 43.056 14.9001
157.657 39.765 13.7323
142.404 40.7398 14.1334
152.62 41.1968 14.3038
144.721 39.7132 14.2313
149.345 42.6037 15.1942
147.882 41.2988 14.4686
145.009 40.6936 14.6741
143.975 43.0414 15.433
149.289 41.595 15.1554
147.979 43.2921 16.093
131.71 38.9742 14.7292
148.138 42.7579 15.5531
136.892 39.805 15.2826
148.987 43.9175 16.305
134.731 42.1167 16.1304
141.452 41.9679 16.0211
138.327 41.8549 15.5728
132.405 39.3424 15.5128
136.491 40.6397 16.1742
127.123 38.4367 14.9454
134.927 39.4705 15.3429
135.149 42.0583 16.7721
135.01 41.4179 16.5422
131.966 38.8031 15.3528
124.95 39.0343 16.2764
134.574 43.0004 17.2104
129.736 39.2741 16.0536
122.204 38.0604 15.7415
121.998 39.5379 16.6526
133.652 43.4283 17.9716
136.355 43.8694 17.9108
120.374 40.6688 17.832
128.633 43.1559 18.218
118.887 36.9686 15.906
127.217 42.7973 19.046
114.039 37.5081 16.0761
116.091 40.0019 17.2634
110.281 37.4871 17.1648
115.488 39.062 17.0253
115.289 40.1637 18.2391
108.247 36.9412 16.4341
108.948 37.2302 16.6427
107.989 36.3542 16.2067
116.014 40.2936 18.7126
106.621 38.0486 17.6878
105.133 40.0015 18.8772
121.191 40.8364 18.6786
108.096 38.3823 17.6995
108.338 39.9611 18.7551
112.761 40.7585 19.2669
99.4382 36.9513 17.9339
115.233 42.3788 19.9189
102.716 39.2769 19.5719
99.0116 34.7184 16.4931
101.249 38.2657 18.6987
104.639 39.8239 19.5873
97.0709 36.5605 17.8796
96.0901 35.8917 18.1544
100.704 39.7945 19.3804
91.4115 35.0309 17.9184
104.951 39.4698 20.0697
94.0899 34.5022 17.5541
93.023 37.1804 19.0861
99.1567 37.8605 19.6571
96.7404 37.646 19.1792
92.0948 35.0024 18.4426
99.929 39.2261 20.5418
102.828 39.987 21.1613
90.8053 38.6109 19.8651
87.09 34.6228 18.4754
88.4209 35.1051 18.777
91.6359 37.4332 20.0465
87.8878 35.6397 19.0979
88.2043 34.9677 19.0016
88.1398 36.772 20.221
90.5089 34.7012 19.05
96.5212 40.5553 22.4381
91.3111 37.7546 21.1582
91.6895 38.9249 21.8196
89.4164 40.5841 22.7738
82.6699 36.6185 20.9553
82.2302 34.9601 19.88
84.2213 34.5216 19.7246
82.7413 34.3835 19.2849
80.2884 36.4264 21.0918
87.6889 37.2743 21.6582
74.3091 32.5635 19.2936
73.8061 33.7967 20.177
77.9472 32.3676 19.1009
84.628 36.7362 21.1834
75.9458 37.3237 22.7803
75.3965 32.3817 19.511
82.0049 37.124 22.2293
78.1977 36.0549 21.3741
74.5597 33.6482 20.6101
77.4486 35.5379 21.5779
74.608 32.8847 19.9292
74.967 35.7798 21.6874
74.1819 34.8067 21.5638
76.2157 34.7794 21.8789
75.2149 35.6236 21.7374
64.0222 29.6271 19.2063
74.5526 37.5825 23.6948
65.742 31.5415 20.2684
70.0523 32.8811 21.1943
71.9847 34.5876 21.989
70.6144 34.2864 21.9966
68.3167 32.1304 20.6059
72.9951 34.6382 23.1906
73.9088 35.8408 23.8261
71.1718 34.082 22.7968
66.8519 32.9054 21.7416
71.9228 34.7331 22.9571
75.1149 35.4024 22.8781
57.3508 28.118 19.1558
73.7153 35.505 23.5843
72.6123 36.5088 24.4219
64.6526 33.4064 22.7866
62.6781 31.2509 21.5117
64.3434 33.7326 23.4362
59.4217 29.8117 20.6073
65.9562 34.529 24.2207
67.2626 34.7774 24.2834
61.2739 31.9555 22.6855
61.1573 31.7248 22.4555
61.447 31.0097 22.3435
66.1822 35.1589 24.2422
60.1532 30.9558 22.4475
66.3763 33.7831 24.3326
64.2227 33.8918 24.458
63.0469 33.1604 23.6046
63.8329 33.3743 25.049
61.3122 30.5738 22.0604
61.1375 33.9472 24.853
64.4101 34.1621 25.3476
60.3975 33.8415 25.1165
55.6403 31.8168 23.7194
55.8353 30.6408 23.3543
59.5724 32.1333 23.503
58.1009 32.7444 24.7941
53.6056 29.8187 22.6433
59.0357 33.7522 25.0708
55.212 30.5632 22.9291
49.6599 27.9725 22.2015
56.6966 31.0904 23.9229
51.5333 29.6071 23.3494
54.0939 31.0757 23.8866
56.8312 29.6408 23.2618
49.7926 28.8476 22.516
50.5333 27.8726 22.6215
50.6761 29.3515 22.6676
52.8052 30.4826 24.5373
50.9895 30.6646 24.7397
53.7937 29.878 24.0964
55.5904 31.0259 24.5722
47.9136 29.8627 25.1297
50.613 29.2852 24.0859
49.598 29.8368 24.5431
49.3175 29.4772 23.0399
47.4241 29.9397 25.7308
56.0055 34.0816 28.4267
53.0686 31.0774 24.972
50.1703 30.1317 25.3625
49.7092 30.8308 25.9986
49.1668 28.994 24.2423
49.2585 30.6096 26.1332
47.9121 28.4328 23.4419
50.2905 29.8839 24.9855
48.3767 30.5701 26.6013
48.902 31.4991 27.4652
48.8893 30.3535 26.1083
44.973 27.8507 24.4284
46.6479 30.607 26.3994
46.7382 30.644 27.1245
42.7453 26.3553 22.9285
46.4539 30.7868 27.2999
43.4147 25.9559 22.7337
40.7822 28.0289 24.8606
48.7449 29.7672 26.259
45.2972 28.9972 25.5406
42.7321 29.1749 27.1814
46.4665 30.8717 27.2291
42.601 28.2962 25.6952
45.3909 28.8999 26.1096
41.7057 27.223 25.6651
44.184 27.9522 25.2622
41.2909 26.8828 25.3599
45.1806 30.9373 28.8957
41.1187 27.7844 25.6804
43.2612 28.7093 25.5595
41.8843 28.4837 26.7059
42.5884 29.0436 27.5536
42.4792 29.1453 28.4541
43.5242 27.8841 26.4434
41.2629 27.152 25.3293
39.9047 25.871 25.577
44.2869 27.3609 26.1403
44.9211 28.7029 26.5812
37.4386 27.423 26.1379
41.3267 30.1182 29.5572
39.9342 27.4178 26.7316
41.1851 27.7456 27.3927
39.6014 27.3657 27.1024
39.8716 27.9086 26.6321
39.168 25.5747 25.3691
38.424 26.0675 25.6098
35.5112 24.7251 25.1615
39.8247 26.4813 27.4938
39.8819 27.0885 26.8915
36.9084 25.5615 24.4132
38.7808 26.6635 26.7786
34.7055 26.3641 28.1228
37.8563 26.1382 26.3097
37.3101 25.5281 26.5917
35.8977 25.7885 26.6844
36.1841 25.9424 26.3828
36.0401 24.3762 25.2429
36.7635 27.3753 27.9771
36.7387 25.6983 26.3923
33.6847 23.7901 25.3058
35.9814 24.9419 25.1799
35.4288 26.9454 29.6279
38.7387 30.0598 31.5356
36.0318 26.1953 27.3877
34.0161 25.8191 27.3034
33.714 25.7898 27.5963
34.0036 24.5061 25.8381
35.1538 25.231 27.7237
33.2241 25.3653 28.1499
35.7717 25.0646 26.2185
33.3412 23.9652 26.0083
32.9742 24.6616 27.1409
35.1796 25.7944 27.5726
33.3744 25.5932 28.8895
34.2677 25.7811 28.3864
33.1199 25.9918 28.5864
35.7536 25.8004 28.1835
31.0095 25.4572 29.1244
34.7481 26.4635 29.3393
32.548 24.8409 28.6068
33.1694 25.7455 27.8551
31.0884 24.7854 28.4942
32.7845 26.0049 29.0085
29.8882 24.5849 27.8419
34.0113 26.0353 29.3723
31.385 23.414 27.1533
31.1146 23.1707 25.6926
31.9999 23.4332 27.8592
29.9353 25.0085 29.3335
32.7008 25.22 30.0224
32.3782 26.1043 30.2113
31.523 24.8922 28.7834
32.442 26.1255 30.0136
29.2861 23.2088 27.9074
29.1349 23.4766 28.5887
30.726 23.2841 27.0435
29.5627 23.8193 29.2006
30.4767 24.2997 28.5812
29.5413 24.0007 28.3164
30.0407 25.6463 31.594
29.4803 22.5098 27.4029
27.4583 22.2184 25.8077
29.599 24.3908 29.5637
29.8664 22.1612 27.2376
27.8714 23.6708 28.7454
29.4583 25.2549 30.5737
29.2053 25.5549 31.7222
28.6678 23.4946 28.724
25.5054 21.8344 26.9863
25.6695 22.1472 29.1162
27.7001 23.4096 29.9298
28.962 24.4851 29.8537
26.5045 22.4955 29.4481
28.0798 24.1514 29.584
28.1094 21.6456 26.4326
28.7768 24.1278 30.6187
26.9764 22.252 28.6787
26.1053 22.1111 27.427
23.9637 23.0804 30.0487
27.6839 23.9743 30.2089
25.2958 22.3662 29.5289
28.0654 23.4538 29.6688
25.1441 22.4353 29.5624
25.7205 22.9054 29.5959
27.5225 22.2073 28.2704
26.1007 24.5677 31.6416
24.2037 22.1779 29.9007
26.3421 22.0112 29.6355
25.4577 21.6785 28.0794
25.376 20.8256 27.3339
25.163 23.5217 32.4559
26.288 23.777 30.509
25.9422 23.6743 31.9518
26.6928 23.543 30.8805
24.5628 21.5704 29.0745
24.5244 22.2237 29.8921
26.2467 23.0114 31.1998
26.6356 22.4314 29.8213
25.0505 22.3045 30.0785
25.4173 21.8083 30.8126
24.2168 20.5899 28.3913
25.2624 22.1147 28.6027
21.6658 19.4832 28.0164
24.0954 22.9073 31.5169
24.7786 21.3576 29.8406
23.8265 23.4031 32.6044
23.9656 21.4948 30.4998
23.1262 22.0313 30.4103
22.582 20.4774 28.667
23.1679 21.372 30.7297
24.4713 22.5702 31.3576
23.3789 21.9302 30.5614
22.9882 21.032 29.9049
23.4535 21.6263 29.1951
22.3832 20.5867 29.0746
22.2492 20.8568 30.6594
22.5752 20.2187 28.927
21.5634 21.4742 32.5464
24.8638 22.0906 30.9614
22.0201 19.2937 28.2746
21.6569 19.3982 28.5852
21.4165 19.9272 29.103
21.5948 21.2705 31.6739
20.8282 19.8955 30.3325
23.0362 20.7852 28.3662
20.9766 19.9674 30.2332
21.5931 19.2672 27.9104
20.3271 21.5432 31.6303
22.3385 21.0957 30.769
19.4824 17.863 27.2682
21.2608 21.1558 32.3232
22.3651 19.6421 30.5393
21.6159 20.921 29.5166
21.077 20.9874 32.8628
21.1058 19.5074 29.3326
21.6594 21.3112 32.6882
20.9965 20.6983 31.7054
22.8703 21.6609 32.1564
21.0746 19.4743 30.1598
23.127 22.874 34.2832
20.4745 18.995 30.0097
20.0882 19.6801 30.4823
22.9428 21.8549 33.7092
21.5783 20.064 30.8151
21.4692 20.8413 32.7273
19.4133 19.7237 31.3851
19.7286 19.4713 30.792
20.6935 21.2566 32.788
19.2474 18.2003 28.8589
20.7283 18.9936 29.3994
19.5579 19.2315 31.267
20.4818 20.3683 31.5264
19.6 19.5724 30.0741
20.0868 19.2912 29.8202
19.2557 19.4691 30.9399
18.1946 18.7173 30.6743
20.1842 19.6087 31.6525
18.4087 19.4776 31.4584
19.3406 19.7514 31.1432
19.308 19.5819 30.5616
18.6498 18.9174 32.1746
18.5291 19.6642 31.7843
19.2352 19.7316 30.42
17.6852 18.1748 30.9118
17.7333 18.1401 30.3544
19.5948 19.3608 31.0096
17.7897 17.6223 29.2578
18.2602 18.5024 31.4063
16.9516 17.8419 31.457
18.4155 20.5275 32.022
17.7653 18.1808 30.6115
18.5445 17.4135 28.4508
17.7643 18.7052 30.6765
18.3021 19.3813 34.0532
19.4158 18.1397 28.8358
16.9405 17.9107 31.777
17.7256 16.9814 29.4066
17.7585 18.1391 29.7306
17.4992 18.1967 30.2874
17.3713 17.1349 28.9407
17.5866 17.8668 31.0501
17.5579 18.4734 31.2154
17.2308 18.3706 32.8701
18.0442 17.2023 27.6228
16.4178 17.3704 31.5565
17.0012 17.4237 30.9147
17.4384 17.694 29.8327
16.8808 18.5204 32.2934
17.3002 18.2465 31.6094
16.2752 18.4388 32.4915
18.9901 19.9429 34.8425
16.8079 17.5589 29.6265
15.9733 16.3774 29.6025
17.1698 17.0082 29.4181
16.8826 18.9305 34.0683
14.8907 18.2597 32.6755
16.7993 17.3568 31.2771
17.7451 19.4362 34.1375
16.6465 17.2668 31.5115
15.9766 17.0604 29.8522
17.1147 18.7838 31.6288
14.8359 16.6282 30.8482
14.996 16.7461 29.3741
16.2362 16.7093 30.6808
15.5564 17.2201 30.793
16.1625 17.7895 33.584
16.6355 18.9024 33.6451
16.4234 16.6856 30.9828
16.0671 15.7953 29.0908
14.1794 17.043 32.01
15.39 16.3514 28.7651
15.2563 17.2346 31.9981
16.5782 18.6516 34.172
15.1675 17.5667 32.7779
15.7141 16.3825 30.2153
14.6084 15.5879 29.3912
14.8103 16.2186 31.4774
15.6216 17.7615 32.414
15.9161 17.7823 31.7267
14.9799 17.1271 32.8021
13.8734 16.0087 30.591
14.2196 15.7149 29.8376
15.3726 16.7526 30.3975
14.3589 16.1793 32.433
16.0101 16.2834 30.877
15.1945 18.1108 33.2853
14.0834 16.211 32.247
14.8158 16.127 30.2162
14.4689 17.4699 34.5337
14.8603 15.4552 29.5502
16.5371 18.364 34.2733
14.3709 15.6107 29.9714
13.4007 13.978 27.956
15.68 16.3596 31.2554
14.1277 17.2151 32.9577
13.7322 16.1509 30.4299
13.3186 16.1343 31.3536
14.0364 16.6821 34.3195
14.7768 15.8873 29.6148
14.7502 16.9372 34.4901
14.4492 14.9228 28.8003
13.7122 16.1713 32.4754
13.554 15.9678 32.5178
14 16.5676 31.3423
13.5063 15.3493 30.7157
14.1764 15.9231 31.1591
13.6816 16.2599 30.9982
12.7864 15.1013 32.624
13.9405 14.8369 30.0036
14.5665 15.8816 32.2003
14.6616 16.5662 32.1512
13.8091 15.1997 31.8182
13.8161 15.5813 31.1367
13.3878 14.6934 29.6165
12.5227 14.7545 29.8977
13.14 15.2732 31.4539
13.899 16.7341 33.6008
13.5312 15.9598 32.7963
13.0698 15.8608 32.7475
14.0687 15.4453 32.8448
13.4176 15.6535 31.2435
12.7876 15.072 29.9136
12.9887 15.105 32.0362
13.5041 14.7802 30.3154
12.3998 15.5271 33.736
12.457 15.1712 30.8852
12.5831 15.1051 33.7676
13.8215 15.3508 29.2889
12.2085 15.546 34.2892
13.5355 14.9653 29.8073
12.3772 15.2651 31.5634
13.0001 15.0325 31.7734
12.4755 14.1368 30.7061
12.4941 14.5388 30.1977
11.8416 14.5064 29.6397
12.3622 14.4894 30.9327
11.9898 14.3239 31.0732
11.9681 13.7167 27.9747
13.3217 16.2548 33.8819
11.0805 12.9105 27.6909
11.2253 13.2376 29.5392
12.3764 16.4164 32.9263
12.1433 14.335 30.935
11.6358 14.2771 30.4754
11.8015 14.6665 32.291
11.5193 14.0786 30.6102
11.7532 14.9579 33.2934
12.5285 14.2395 30.6468
11.8133 13.5366 30.0524
11.3964 13.2827 29.3133
11.5226 14.3494 31.194
11.1901 13.5446 29.2244
11.2601 14.2787 32.3062
11.9996 15.481 33.9314
12.249 15.7786 34.7687
11.6159 13.3972 31.0574
12.9883 15.257 32.6632
12.1491 14.3608 30.207
11.3007 14.3116 33.6347
11.5282 13.1714 28.7969
11.7421 13.9882 30.0925
11.0916 13.8791 31.0216
11.4108 14.4394 33.742
12.6218 14.0752 30.5819
12.1102 13.3382 29.5986
11.0868 13.3637 29.3068
11.2054 13.6596 31.7087
11.7701 13.8808 29.5567
12.0383 14.1631 34.8714
12.6174 15.5836 32.9366
11.332 14.6811 31.9856
10.4668 12.6232 28.8541
10.7133 12.4821 29.4381
11.2016 13.7133 31.8864
10.2601 13.1074 31.6205
11.0738 13.8298 29.9427
11.0426 13.022 31.4271
11.2252 14.4047 34.6149
10.4564 12.9898 29.7927
10.346 14.1826 31.8903
11.1376 13.3448 31.1971
11.5195 14.1762 31.4696
11.5487 14.4268 32.5855
10.4782 12.88 30.7097
10.9954 13.006 30.4081
11.2381 13.7385 31.2829
10.6705 13.1325 30.5902
10.4343 12.2566 27.6802
10.2204 13.7433 32.9764
10.7683 13.0343 31.2393
10.772 12.5534 28.7503
10.1159 14.0271 33.9192
10.6474 13.8579 33.1649
11.1997 14.1235 33.5387
10.4324 12.3492 30.408
10.0798 13.3071 31.1767
10.2858 13.3973 31.5293
10.4268 13.2853 31.5952
9.91886 12.7703 31.5055
10.6911 13.811 32.1551
10.1303 12.7735 30.0568
9.95789 12.3431 30.74
10.3944 13.7847 33.9687
10.5188 13.8201 33.5201
10.1999 12.0841 27.6929
10.4175 13.3608 31.3479
10.3067 13.1679 31.2428
9.34448 12.7534 32.0817
10.8759 13.136 31.1296
9.8359 11.9743 31.1459
9.88361 12.2097 30.0317
9.94914 12.7687 30.6593
9.65414 13.1627 32.477
10.0382 12.9218 30.2662
10.0708 12.7432 32.7062
10.0362 12.2191 29.9476
9.82516 13.2964 32.9739
9.64764 12.3648 31.7262
9.76032 12.9575 31.3298
10.1095 12.7658 31.1588
