# pn-170911/CsIIA-33-TWTF-1280-1959.psd
# Power spectrum* (dif=0,1,2) (really just |FT|^2)
# NOTE: only the first half! (symmetric)
# weeks: 1280-1959
# 8 clock-days, 2 excluded
# PSD: 1441
16311.7 2.01881 0.043556
1.12704e+06 27.9931 0.0211658
3.94167e+06 72.2458 0.0235691
2.04217e+06 63.7579 0.0271531
1.12554e+06 66.3226 0.0328936
541698 50.56 0.0256779
230823 43.0924 0.0232317
274525 50.5062 0.0300753
235433 53.51 0.0394231
255371 75.0328 0.0698061
153644 74.0256 0.0779923
96495.9 39.9188 0.037981
81385.7 43.6044 0.0412916
62775.1 64.5242 0.0888653
56505.7 34.9421 0.0711677
56063.7 43.5651 0.0719103
56605.1 61.6179 0.122747
35112.6 42.9693 0.10471
34161.2 63.1 0.115157
41526.4 51.375 0.100854
35124.8 56.9999 0.165361
32167.4 52.199 0.11521
44647.5 92.4753 0.236213
22298.1 29.8217 0.111873
20879.7 50.132 0.125472
24655.3 60.8802 0.213551
29383.3 90.3247 0.272643
18272.9 61.7015 0.190551
17181.5 69.4624 0.227287
11341.1 36.9693 0.144158
11565.5 40.3431 0.223911
8246.33 30.5116 0.176527
13027.3 45.6472 0.215987
20575 93.1367 0.473327
13699.5 76.9596 0.438097
7618.96 56.8807 0.357669
6843.99 42.1742 0.256766
8011.37 40.7297 0.324389
8485.84 42.9387 0.370513
5726.36 31.5905 0.231242
11363.4 83.8717 0.632848
7946.55 52.8959 0.417536
9375.51 63.0108 0.442157
9858.67 90.4695 0.781436
11144.8 88.3074 0.86698
8707.64 73.2551 0.605169
5411.1 39.9267 0.37008
5801.24 54.6893 0.551482
5641.24 44.7053 0.56393
4792.35 49.8548 0.659598
8419.07 69.615 0.836513
5939.1 52.5596 0.652729
5113.97 69.5025 0.811472
5272.81 54.5358 0.775309
11037.7 96.4333 1.46649
5599.99 70.4652 0.921658
2376.21 46.936 0.7125
2116.15 18.6273 0.310531
3175.91 44.5831 0.76503
3309.42 34.0365 0.663686
4503.28 59.7752 1.08255
4686.76 66.59 1.10382
1594.71 33.7683 0.684337
3163.5 37.9543 0.712706
3307.61 52.696 1.0909
3818.55 54.5729 0.970252
2463.85 30.0198 0.630677
2179.31 30.1466 0.720616
2751.43 48.2333 0.986006
3773.73 58.0212 1.37236
2935.53 76.3765 1.89589
2248.49 38.5966 1.12822
2467.45 60.8136 1.5863
1977.38 49.0288 1.09178
1252.94 35.408 0.904705
1812.1 50.6571 1.26468
2012.78 38.9892 1.10472
1487.5 39.3125 1.21721
2600.24 54.6423 1.64203
1337.68 44.5266 1.37434
1767.63 59.3792 1.86754
1318.19 38.8652 1.18869
1146.19 34.9692 1.03253
1725.91 56.427 2.08207
1730.65 61.1822 2.04718
1609.17 48.2286 1.72276
2243.14 56.4061 2.05825
2115.42 65.793 2.11726
1505.12 34.5554 1.21854
1246.87 33.0576 1.19936
2037.33 59.1105 2.06593
940.79 19.4286 0.760214
1211.57 41.9042 1.74836
1326.74 57.3545 2.27312
2351.37 79.2508 3.43355
2638.01 99.0808 4.09386
1917.62 49.9493 2.16197
1140.32 34.611 1.62027
1107.75 56.3773 2.49849
1114.71 42.0258 1.94176
2000.81 62.3022 2.97011
1020.77 31.1117 1.43129
1082.4 40.0025 2.14245
1051.08 52.2464 2.65479
1236.66 73.8803 3.98269
1193.26 59.7198 2.97917
1486.79 59.1036 3.02978
1104.88 34.7488 1.85811
1164.3 49.5327 2.90558
680.896 31.0807 1.73082
1163.82 55.1942 3.085
729.013 23.7177 1.3047
1586.85 69.577 4.08756
704.374 29.7311 1.78114
1096.73 56.8941 3.48197
874.926 55.2307 3.39757
509.664 21.5924 1.35829
1138.98 79.1456 5.18308
660.976 49.5739 3.43911
1332.18 63.4133 4.03257
1138.77 63.3648 4.90763
672.514 31.7818 1.901
981.539 58.291 4.02808
905.74 84.8459 5.81303
617.101 38.5432 2.89101
957.643 58.2432 4.3726
962.946 51.6972 3.85535
988.202 77.8467 5.85273
571.838 27.63 2.05246
634.688 52.2497 4.33966
540.254 26.6317 2.18191
686.862 39.6786 3.22398
1171.24 54.7922 4.53707
454.494 24.6779 2.30878
704.055 64.2814 5.93935
642.712 39.4687 3.6583
812.592 59.5295 5.41233
1121.77 79.8852 7.06849
662.686 36.0342 3.16915
1275.57 85.9769 8.28221
503.757 45.2195 3.92161
430.904 27.2461 2.52808
727.903 56.9826 5.83131
432.562 34.6587 3.38569
667.338 46.1568 4.71921
528.465 39.0535 3.72657
881.859 58.4159 6.17737
418.348 46.7473 4.48309
425.991 51.3293 5.66149
575.072 52.1779 5.28569
692.782 58.7988 6.28407
517.968 43.8029 4.32604
668.168 50.1038 5.99734
512.179 55.0047 5.95778
542.416 54.8572 6.22744
659.097 53.318 6.41162
381.529 40.5829 4.5445
271.468 19.1817 2.23157
254.825 17.7504 2.09848
328.123 32.9693 3.82039
650.789 50.4596 5.94715
1083.11 117.538 14.1033
346.611 52.6442 6.58089
284.557 31.9352 3.72076
298.464 34.2027 4.29683
439.211 56.1215 7.85956
379.565 44.8606 5.70496
472.574 51.6965 6.78779
602.519 61.1082 7.8455
342.812 48.0281 6.27957
515.814 59.3763 8.0472
664.524 95.3753 13.1487
244.318 28.135 4.25795
259.456 22.0672 2.71436
176.621 32.1209 5.08674
282.902 24.3828 3.59408
345.103 33.9017 4.39637
486.087 35.4633 5.25728
257.538 45.363 6.9754
231.266 42.8049 7.48113
253.741 27.4778 4.10365
425.478 57.8432 8.83944
338.793 39.7768 6.30969
334.952 48.4934 7.22055
368.236 40.4463 6.30411
257.915 42.575 7.4587
204.393 22.4627 3.66131
340.862 44.8754 6.89692
163.272 27.2097 4.94483
575.988 70.508 11.9961
802.863 85.0672 14.4946
242.5 20.9232 4.37088
433.276 63.8369 11.3704
305.326 52.868 8.54645
482.599 82.0439 15.0975
603.12 71.3981 14.0936
434.516 64.1747 10.7673
226.765 38.1372 6.29348
264.702 56.5251 10.8673
331.225 41.9984 8.43805
281.363 51.1957 9.28242
183.406 35.8207 7.96059
412.786 60.1521 10.5375
245.456 42.2829 8.21546
248.556 39.9419 7.99914
212.751 44.3024 8.4547
245.364 19.8535 3.39839
327.51 67.1291 14.4846
264.645 46.0981 8.99921
390.287 45.6299 8.09793
278.603 38.9723 9.00395
251.18 40.6589 9.42394
489.335 76.0913 15.8768
181.646 40.2116 7.8372
136.545 28.7398 7.08667
222.906 27.6443 5.33064
258.318 61.6942 12.2172
158.791 24.8142 5.68611
358.161 91.7401 20.3317
256.421 50.0029 10.2465
214.9 51.9421 12.557
166.571 34.6718 7.80365
267.258 30.0704 6.43297
151.376 33.8882 8.64423
291.835 53.7422 12.7042
432.052 60.347 13.9589
261.182 49.4703 11.0826
230.315 42.4515 9.80387
158.43 40.5759 10.4058
210.112 41.7472 10.5629
302.456 57.8762 12.3528
320.662 62.0073 16.2017
196.163 37.4976 9.3213
123.872 33.0124 9.42582
177.574 28.0877 8.37022
186.317 38.2672 9.11743
155.425 30.8989 9.23719
256.458 63.3545 13.6429
107.538 26.9331 7.19811
155.68 37.2037 10.895
234.393 61.7647 16.2274
166.832 60.8929 17.1886
134.651 20.8369 5.89837
240.262 39.8095 11.3519
226.798 42.0637 10.3003
151.81 16.6036 4.39288
261.71 43.3919 10.8654
171.374 29.6208 9.00055
155.381 35.213 11.8128
138.936 43.0207 12.3754
165.181 28.0835 7.72814
203.586 45.5283 14.0657
205.394 43.9285 10.9372
199.335 36.3182 11.9561
142.917 49.6364 14.124
312.12 78.8449 22.7837
177.363 46.3147 14.9498
104.617 34.8383 11.0956
167.164 40.1558 11.5251
109.849 20.4306 6.64313
150.883 63.1327 20.2047
93.5417 31.8606 9.33484
117.899 47.4502 17.0513
330.727 70.9859 21.5309
194.232 33.8794 10.9639
94.018 17.9998 6.13842
90.9427 23.3018 7.73588
71.711 30.3175 9.6314
142.121 29.9497 10.6825
261.123 63.7885 21.6674
215.532 46.222 13.7885
87.9641 28.0676 11.6454
148.787 36.3996 12.7627
216.127 49.7466 15.7512
198.497 53.5989 17.3017
166.181 44.1353 14.5972
165.464 42.9648 15.4631
170.883 47.8591 15.214
161.033 38.8425 14.6984
319.837 98.2952 38.5317
137.99 37.0868 11.0441
139.437 41.9852 16.6252
131.391 60.3445 23.5421
82.8068 34.2796 13.167
162.942 40.0263 13.9097
65.751 16.6963 6.46177
137.179 34.8934 12.7639
57.5538 21.5757 8.76641
117.405 20.7969 8.53935
96.3061 33.3948 12.2093
126.292 59.1069 23.5192
273.07 66.5769 23.7596
166.039 48.5726 18.9092
87.3118 29.7638 11.9889
104.768 22.3596 9.68829
143.736 39.1395 15.1013
66.6835 20.6672 9.96392
103.509 21.54 8.39771
113.719 46.3558 20.8022
143.207 32.2971 11.8815
86.5778 14.2293 7.10047
92.8606 28.3756 11.341
80.1099 40.5018 17.1945
144.159 33.8598 14.4951
75.7276 26.4582 13.3596
75.4864 40.4924 17.0241
150.904 56.957 22.1684
103.995 43.2169 16.7672
64.4413 33.8138 15.3174
60.9737 15.8695 7.92409
127.074 38.8041 17.6177
68.2552 28.7516 15.7767
132.273 26.6662 10.4061
166.265 46.3197 16.3026
96.0014 23.5346 9.29117
166.467 57.4335 26.1148
84.5643 27.0566 12.4892
149.338 40.1295 17.7755
115.471 43.7294 21.0809
121.929 46.9534 25.7856
124.062 34.439 15.4648
55.1031 28.1961 16.6525
53.7337 21.3128 7.89204
101.767 30.6943 17.1293
113.766 50.0065 25.4449
73.0026 23.5667 10.2131
73.2568 32.1747 13.7227
65.5204 25.0931 13.5669
54.4229 17.9505 8.04666
129.748 51.6717 27.4484
104.377 43.8764 18.5496
99.6827 34.5328 16.1831
38.964 13.9951 8.70449
58.0602 25.2632 11.4604
91.6784 36.2512 20.4799
100.601 47.3009 21.6642
63.1682 39.802 25.0989
163.821 47.1726 18.5087
67.3334 41.1917 22.4191
107.921 47.1788 26.2764
116.99 58.3562 29.5352
132.61 58.2503 33.1195
128.929 58.1325 27.1608
59.7995 28.3696 16.3986
70.2551 35.3119 19.7775
68.641 28.0883 13.9071
90.0003 27.5371 14.1709
98.7996 35.8234 17.329
55.7476 41.4484 22.8527
48.7166 20.9766 13.3569
103.778 58.2204 28.1724
50.671 32.5938 19.4064
80.3213 37.3913 22.9527
60.0953 34.393 16.4081
36.0119 22.6372 13.5302
59.9543 26.3776 15.3097
70.1705 45.3465 28.3348
96.5252 37.3188 19.5717
80.8741 35.4231 19.0402
58.9786 35.3464 20.9641
50.4217 24.1195 18.7552
88.1077 43.5584 19.8922
73.4129 41.3873 26.1767
43.816 21.2876 11.4317
72.8996 31 16.8222
67.0715 62.899 39.1521
105.029 40.2748 26.1425
131.43 52.5358 30.1224
89.1496 39.3485 25.9518
55.0991 28.4457 20.585
60.3056 34.7832 17.7753
76.7494 35.9315 23.5607
66.6724 37.4016 24.2646
131.99 69.0164 43.6322
36.3318 19.1047 11.3054
59.1895 26.7645 21.3819
71.2599 35.1309 21.3398
58.5105 25.9118 15.6729
54.1669 25.6639 14.5717
77.7156 42.1008 31.3938
78.765 30.8497 14.6061
50.3649 25.0969 12.0768
23.4158 14.094 10.5952
56.9569 45.554 33.7869
78.4009 29.8287 17.1744
65.6841 52.3502 30.0963
94.4642 57.5186 37.5948
55.7018 44.668 32.0666
54.8858 39.7031 27.0245
109.046 56.2773 37.4933
32.1053 23.0856 20.3604
74.1423 34.771 25.6249
50.4697 34.2117 20.3261
38.1075 29.7823 27.1213
86.7712 43.8162 27.871
60.2243 32.0168 19.0626
62.636 42.73 33.0647
55.9013 39.3368 26.1347
62.3121 19.1925 11.164
54.4341 38.7277 31.9447
121.995 52.5455 29.0072
43.4093 17.3402 10.861
42.7007 30.9556 18.86
72.9663 53.0366 38.2517
46.6291 28.3405 21.7752
32.0629 19.7788 14.9947
35.283 23.0297 21.5031
36.9141 20.4513 18.4513
62.5846 37.8418 32.7559
70.7367 21.5115 12.4464
98.8674 51.8323 37.8698
50.2306 19.9039 14.4471
53.7216 23.1345 15.468
97.8845 48.6933 39.5732
30.33 22.4144 12.9772
45.0791 50.3115 39.5055
68.498 32.186 24.9145
52.9207 27.2517 23.7245
56.71 37.0691 27.8586
56.9431 27.6717 20.417
81.5279 34.1654 27.6961
74.1794 63.7849 54.2427
68.3356 29.8471 20.0819
74.8932 32.6057 22.2002
28.6878 12.0238 7.40881
63.7152 35.3514 25.9527
18.7983 14.5762 16.4701
35.6988 28.9569 21.8019
38.2906 23.9394 24.1494
32.2905 21.227 18.8532
52.6101 31.0794 24.7215
43.364 18.358 17.4873
52.0152 30.6647 23.2447
93.7008 39.0954 26.448
61.5245 30.5025 26.3561
53.0713 30.8272 26.7131
47.9217 36.1769 31.4916
37.8304 18.0409 18.5033
48.5268 31.042 27.576
82.2211 42.1775 28.7205
58.6226 30.724 29.1856
40.927 20.4201 17.9468
42.7533 22.29 23.9936
37.4964 28.2195 20.7657
38.9228 26.0135 16.9317
43.6117 27.21 24.5656
36.9304 27.6059 21.9902
33.9114 58.1656 49.4345
51.4541 28.5702 30.8079
62.5682 58.821 52.5519
59.4395 29.6713 21.8524
43.2569 34.0836 34.8722
24.5811 36.6023 40.1399
66.7467 33.4678 21.141
37.1332 28.3308 30.8392
73.5694 42.7926 32.5
37.72 28.3464 20.0383
29.1234 43.9159 44.9746
35.2998 24.3511 28.3252
46.8563 18.6498 19.8339
45.7579 21.3888 18.9143
46.964 39.1068 40.3949
35.1094 12.2238 15.5961
68.9088 52.3654 42.4051
65.8884 34.6626 25.1516
35.7578 43.0505 46.1454
68.4868 34.9934 29.0676
50.8532 30.0637 26.7177
41.4489 18.1477 18.2357
27.587 24.1754 21.3715
33.1711 29.9411 23.4358
31.0193 40.3367 45.73
53.2644 33.3395 33.96
34.6799 22.4504 18.9356
52.4926 30.6556 33.5364
37.7085 19.8963 19.248
35.0817 20.0469 21.3115
40.4741 21.4952 20.0735
30.1542 22.6679 23.166
39.7912 25.0235 18.072
36.4408 39.3104 48.6567
70.1589 37.863 39.2334
51.0484 33.2385 34.4193
69.8845 48.4678 41.3781
51.3943 41.2813 48.9062
36.8525 21.1957 17.7938
63.7777 35.4329 35.0937
14.6489 11.879 13.7906
19.5499 22.2768 28.2953
62.18 45.2465 37.2107
26.7762 12.9768 18.1267
37.6043 27.9799 27.4912
47.1394 40.1374 47.5574
40.5761 40.6831 37.2741
41.9102 28.5589 27.7185
38.036 34.8781 39.1818
26.5045 24.8888 25.7029
43.2828 25.2708 25.7799
25.8433 11.8251 11.085
30.7056 19.2568 29.6154
29.8377 28.5788 23.019
28.481 36.1982 35.6866
45.508 33.1385 49.0747
46.7039 38.5274 32.387
41.8397 46.455 57.0931
27.7387 28.5305 24.289
21.0813 28.8947 32.6734
21.0582 26.4463 36.9611
87.6935 68.9678 70.3461
37.0323 33.3906 49.2327
38.9155 20.2226 15.0114
46.6851 53.8242 53.4444
27.885 19.3277 30.8923
23.8843 17.4529 12.8385
27.2113 35.7439 42.4521
20.5998 16.5187 17.8653
31.5328 12.0748 9.90278
29.4338 28.5932 26.6605
28.112 24.5224 33.5057
16.7298 15.0316 20.2254
38.5655 34.6523 45.4977
24.9888 14.4925 10.4624
21.1429 16.1447 21.2933
34.6918 13.8811 12.8016
38.4803 33.0224 42.2483
26.6398 14.9455 26.2879
34.3396 20.6741 26.5747
29.1422 37.0703 44.2211
35.7289 33.3487 45.1887
50.2519 44.0572 32.0407
15.0329 19.7747 24.3033
19.1831 23.6273 25.0852
13.8722 13.9099 20.9503
21.8848 16.3653 23.0811
53.2893 40.1845 41.5955
43.9704 47.2117 52.5863
24.8202 22.5098 42.4792
40.9046 28.8137 33.4664
49.0564 57.6858 52.4266
26.4587 31.716 50.2034
17.4628 18.1085 24.5073
29.3752 20.7848 29.6276
33.8407 41.7614 48.2521
46.4518 36.7998 48.7117
37.7258 25.4364 32.8098
25.5528 33.6458 33.8682
19.3778 13.0586 16.1109
25.5233 26.2229 46.141
34.489 26.46 25.0414
18.0097 13.9013 21.5579
33.8508 30.583 33.1353
49.228 46.6244 49.7405
35.5386 32.6863 43.8344
13.7267 16.4739 32.624
14.0518 17.0903 32.9211
35.1908 42.9077 44.801
23.9073 12.7638 22.4057
36.6005 32.2079 36.4437
16.7524 18.2971 22.1491
17.3098 19.2022 25.9164
15.6334 18.1238 35.5174
47.3444 38.5544 46.6385
13.6623 33.2102 44.7199
50.8286 45.7936 46.9394
30.5207 30.2982 45.2935
22.3981 17.1707 19.7263
13.0618 22.4866 28.2871
33.0024 28.4275 43.8053
27.3158 24.8808 36.5796
26.3373 35.7524 45.4534
26.141 34.9087 57.6575
16.5052 9.89215 22.5453
59.6415 55.1918 62.3135
41.0026 50.5572 70.5141
25.1271 15.2958 21.8307
25.9541 20.3798 22.8401
53.4045 69.4693 87.7491
33.0856 30.0579 36.6343
22.2107 15.655 34.3761
37.0787 28.1278 28.8229
31.8619 55.8401 71.4268
29.3802 34.3934 56.5499
14.1031 14.9407 18.5777
25.0507 28.855 38.8011
16.3661 16.5592 34.262
41.2867 37.6139 51.8614
19.784 13.1137 17.9551
17.0252 13.3287 21.6129
24.0932 28.3582 45.3924
28.6388 28.3247 45.8412
36.2429 26.3046 28.3636
24.797 26.9746 32.3634
14.4544 26.3932 38.9305
16.6153 20.6507 26.5331
33.1413 37.0103 48.4431
7.45121 19.9027 45.5326
34.1089 43.607 57.417
14.8421 14.504 25.0103
20.5825 21.8721 35.1955
24.2153 28.6397 45.6077
24.2964 12.5444 30.3141
45.5553 46.8099 64.1851
19.2391 28.6289 47.8875
21.4749 26.9458 52.9942
35.329 32.5851 25.8841
19.9267 20.108 28.0768
23.6297 27.3739 44.1742
16.9388 23.9414 33.9572
23.3085 23.117 47.3886
42.3298 36.7714 51.632
31.9274 31.9767 32.5684
17.179 30.9731 51.3674
44.0603 53.092 74.4577
28.8275 26.3734 31.1037
10.5854 26.7959 51.9294
16.9025 24.183 52.7679
24.9529 15.9654 22.5141
28.4916 30.9105 50.0637
19.7142 6.29549 18.3049
19.8982 12.9485 10.125
21.2028 16.0401 17.8922
23.4107 27.042 50.1405
31.0807 35.6021 49.6472
12.9188 18.4177 44.6388
44.2807 55.2705 82.7206
22.5071 20.3799 32.9936
18.3875 21.9201 24.9405
14.6069 16.4362 28.7068
21.9938 33.8144 49.7153
30.7544 21.9105 37.9898
18.9249 28.6636 44.2076
18.8833 13.5232 21.6121
15.1799 12.9555 25.2598
8.67281 15.0854 22.6198
14.9126 20.1012 35.8428
20.7749 33.0261 45.0538
7.24858 13.7602 37.7459
30.203 22.781 25.5256
14.6993 14.8698 32.5246
17.8961 22.669 29.8534
14.9323 18.1373 39.3279
35.1035 36.6546 59.3298
20.5105 35.0599 44.0971
13.2622 8.91298 16.5887
16.3968 26.665 47.6877
22.6861 21.4594 36.1465
15.2894 15.3866 32.1203
19.2067 25.1813 60.0854
64.242 64.6197 77.8075
18.6481 13.9192 24.419
25.9677 28.01 48.6908
21.8863 34.7114 65.3195
21.4716 28.7731 43.3744
16.0872 17.8472 39.4824
23.0929 18.111 28.5179
13.735 30.2613 56.9483
20.9687 37.3394 86.3662
28.9857 26.739 40.4566
25.1089 22.6295 49.3974
20.6814 23.2005 31.4266
11.8121 18.3865 32.5089
22.4779 30.3287 55.692
32.347 32.5445 53.6584
19.131 19.84 27.2366
13.2912 25.491 48.6627
11.7864 9.3856 14.8561
5.77157 15.4686 32.0057
17.9638 10.7656 18.8334
18.3753 16.019 28.6942
12.4591 15.0718 30.3216
15.5634 19.3085 37.266
12.1695 12.8105 34.628
23.5887 20.7228 43.8011
26.0193 39.1571 65.1361
19.415 18.9166 26.0408
14.1429 12.3591 21.6726
11.8324 8.03088 19.2304
19.0379 22.4813 27.769
8.95901 13.2424 40.8818
15.4979 21.4194 41.8652
21.5564 13.2883 17.6716
22.3223 34.8673 53.3838
24.8986 19.6532 30.254
12.2853 12.3984 21.9916
11.7865 10.8047 26.7253
11.396 11.982 30.116
29.9726 40.8041 56.5208
15.0187 27.2466 46.6535
17.2404 20.835 45.7531
19.3939 19.1752 29.8691
12.6403 16.4182 37.4655
17.4472 13.6139 16.8192
14.1101 24.872 47.65
18.0769 14.8004 43.2551
25.2112 27.9002 33.7625
18.3634 16.3981 22.1671
11.2777 22.1928 55.0777
20.7921 20.4205 55.3229
11.9121 15.0478 29.5459
17.5237 23.4278 47.2986
28.5609 30.4639 35.9608
23.3807 27.6224 50.6127
12.6295 14.1908 32.485
19.5951 32.0234 51.0487
4.54074 14.6516 44.7798
27.175 32.6693 62.214
18.5276 12.1636 17.7081
7.43626 12.5216 33.1298
14.8311 18.4849 32.2552
14.1395 17.7371 49.1109
22.25 27.825 38.3141
24.0085 39.3357 55.4977
12.8677 15.3017 34.2618
18.629 17.9763 41.1714
19.2201 24.9395 46.4399
12.3072 19.5177 38.1917
8.72354 18.648 48.1556
20.9863 31.7888 53.2461
9.02931 17.3995 44.383
17.3364 18.4404 40.498
21.0394 16.845 25.3142
25.6199 31.0935 51.7356
12.7485 7.59184 37.9316
36.2947 54.012 78.6583
9.05591 10.2251 28.3298
30.0889 31.8072 71.3541
24.0659 35.2723 58.2795
13.7141 15.8598 34.683
13.8369 28.3383 50.3466
20.7143 32.2629 75.794
13.2926 15.4999 34.5363
6.90141 7.99174 24.9973
13.6941 15.5137 30.6566
15.4199 19.6124 36.743
13.3522 9.11601 22.7921
15.6608 22.8459 47.304
8.73494 13.987 29.3435
16.6153 23.2297 42.8574
20.7079 38.6985 81.5188
20.5823 28.9374 63.5747
16.4643 18.0382 44.7482
14.6957 23.0132 43.7308
10.2192 22.9762 45.6936
11.9799 6.62807 15.5887
9.96439 12.1169 30.4229
14.9557 12.0544 27.2646
21.0692 25.1439 53.2444
21.9924 29.3166 33.723
9.89896 16.1763 42.9959
8.12611 5.99959 21.9243
9.29416 9.63615 35.4943
18.9558 35.2921 60.0488
20.8593 22.5346 42.6118
9.78319 16.5742 49.8988
12.6693 14.3029 31.8412
9.82926 13.1805 36.3648
13.3759 27.514 37.7717
17.4005 30.4018 92.2176
10.9033 21.0547 30.575
14.4278 17.9985 28.2627
3.3741 14.5426 30.2996
8.192 9.66492 14.7029
11.2672 25.1975 81.1268
20.2457 27.7094 62.9053
16.6492 16.9877 28.8834
13.5384 27.4103 55.4665
8.51016 12.7282 48.6763
24.1708 23.1758 29.4757
12.4491 17.7589 41.5701
15.2755 25.8488 71.444
15.8616 18.4381 49.7672
12.7997 18.8287 42.2473
14.4105 20.0835 47.1182
9.77283 22.2762 41.9637
12.8809 35.9354 52.1213
6.95223 5.23347 8.57712
6.60016 19.7897 50.6632
11.2632 10.6997 23.7278
10.7269 17.166 58.2595
24.8111 32.5438 62.9243
19.2803 27.099 60.5482
19.9952 34.6185 76.6497
10.7462 25.8569 62.7138
9.58222 14.8878 39.6221
16.6476 26.2885 55.9927
14.4662 32.8526 74.8564
7.55397 6.42244 13.6401
8.71314 11.8411 22.8267
7.05292 10.2579 42.1247
15.3881 13.2006 29.6939
11.8957 30.2351 59.5161
13.0794 20.9875 69.6276
9.52409 20.1817 41.0964
14.0449 18.8262 22.8485
10.2194 24.9634 37.7715
5.96475 14.1461 25.9438
5.14747 9.3435 22.4834
9.38481 13.3519 42.5555
10.7073 12.7346 38.4437
15.5725 30.8788 56.8613
5.43575 23.2588 61.004
10.6819 19.9868 42.2406
13.9765 16.9891 71.6613
18.1041 39.0526 64.6129
11.847 24.2599 44.3297
11.5348 23.7885 62.6783
8.27205 7.25033 23.3267
8.40016 24.7141 61.9626
10.4528 7.73565 34.6997
17.8693 21.9282 53.231
16.2684 9.19689 27.2367
17.302 19.9718 28.8219
12.8291 17.7046 38.6617
11.652 8.84537 34.4282
18.2357 26.4024 32.248
10.3505 15.3339 28.5412
8.13195 23.4386 71.2244
8.83263 15.0008 61.4674
14.0907 18.3429 35.5817
11.352 21.3171 45.001
5.5976 9.0025 25.3846
8.55312 11.4548 27.3124
8.40368 7.04507 23.3387
12.1297 12.424 27.797
8.92149 14.4665 30.6652
9.58724 26.7262 53.9841
8.06923 9.44985 44.671
10.6932 14.3237 26.5199
9.66101 15.0283 50.0521
8.0199 16.6401 38.903
12.0198 43.8345 92.2134
14.0459 14.9776 29.1086
8.70005 20.5954 76.7304
