# pn-170911/CsIIA-25-CsII-1280-1959.psd
# Power spectrum* (dif=0,1,2) (really just |FT|^2)
# NOTE: only the first half! (symmetric)
# weeks: 1280-1959
# 437 clock-days, 112 excluded
# PSD: 1441
13487 1.15561 0.0556153
3.36588e+06 66.6338 0.0476017
1.56377e+07 311.479 0.0488508
3.69444e+06 149.479 0.0507402
2.67996e+06 184.466 0.0542083
1.29953e+06 133.862 0.0588836
1.01515e+06 144.371 0.0710421
760382 147.235 0.0747861
556826 138.266 0.0894707
426041 136.905 0.0936372
374384 149.819 0.110465
287172 136.848 0.114591
256609 140.295 0.148156
219792 145.504 0.161648
194671 142.568 0.187633
150135 136.099 0.192339
155603 146.476 0.226739
140154 151.211 0.255847
119033 129.142 0.252534
102100 139.117 0.281
99003.2 135.221 0.305179
77959 139.126 0.335015
77164.7 142.187 0.356516
69156.7 139.309 0.389708
69627.9 143.077 0.440121
59352.1 138.66 0.460117
59064.6 144.135 0.510603
51952.9 146.819 0.536883
52996.2 155.08 0.607862
44152.9 142.035 0.594997
41935 138.616 0.636164
36684.3 137.589 0.688028
38902.7 142.961 0.743627
33421.9 138.937 0.758146
31008.3 131.983 0.761411
27648.8 129.781 0.815296
28720.5 143.196 0.920228
25842.2 136.93 0.930086
24565.1 136.154 0.961714
23621.9 137.649 1.04468
25015.8 147.23 1.14161
22811.6 150.162 1.27407
20759.4 144.649 1.26897
18696.9 135.233 1.22978
18752.7 142.799 1.34836
19696.9 152.713 1.53252
16612.2 128.301 1.33683
14905.7 130.051 1.42973
15959.2 133.724 1.51237
14783.4 140.705 1.67335
14808 141.773 1.69284
13192.7 127.047 1.61224
13556.4 135.277 1.78279
12295.7 133.319 1.82047
11872.4 126.439 1.79819
11559.9 132.484 1.95373
11341 134.571 2.06744
11442.7 143.732 2.24988
11876 138.42 2.22657
10733.5 137.92 2.32762
10550.4 142.99 2.50642
10319.7 137.15 2.46328
10801.2 143.694 2.67419
9239.54 136.359 2.59261
9758 136.233 2.68358
8920.32 134.626 2.72248
9656.32 142.801 3.01357
8618.26 143.438 3.12579
8139.76 130.129 2.90513
7751.66 139.688 3.19453
7375.44 131.335 3.06381
7122.38 129.66 3.14601
7263.66 134.731 3.30858
6710.54 137.833 3.49778
6867.45 129.65 3.36219
5976.36 129.193 3.47748
5954.4 127.931 3.51203
5810.4 128.53 3.65826
6005.73 132.368 3.88308
5312.02 127.168 3.82646
5744.4 136.398 4.10476
5509.46 139.441 4.35177
4650.52 119.864 3.91082
4854.8 126.484 4.19187
4578.1 121.525 4.10979
4764.06 132.633 4.54447
4641.26 123.212 4.37877
4506.51 132.907 4.82075
4330.59 127.025 4.81511
4269.1 124.479 4.74059
4403.36 122.553 4.76743
3913.58 124.687 4.95092
3899.45 119.529 4.86597
4063.85 133.447 5.52378
4183.37 128.419 5.4389
3715.63 121.537 5.30163
3996.56 128.147 5.67447
3927.93 132.135 5.87458
3685.4 125.658 5.80418
3514.15 131.084 6.05647
3696.08 123.044 5.83971
3667.36 138.821 6.75372
3408.52 118.868 5.89115
3296.78 120.427 6.07126
3434.78 127.008 6.49493
3302.34 133.329 6.97207
3164.68 119.504 6.4298
2873.34 114.853 6.23056
3204.53 129.77 7.18738
2794.86 115.193 6.49518
3105.32 131.375 7.56071
2917.75 120.669 7.0634
2795.36 123.738 7.40775
2801.53 134.282 8.28242
2693.69 120.817 7.42635
2519.08 118.979 7.46412
2538.61 120.789 7.76024
2316.2 111.487 7.29685
2455.18 119.431 7.98808
2308.21 118.962 7.96257
2495.74 133.124 9.12656
2110.87 117.491 8.18695
2114.16 114.558 8.19142
2357.49 134.635 9.66052
2253.09 123.077 8.83642
2168.44 119.901 8.88811
2022.66 115.395 8.64332
2067.64 119.341 9.14627
1912.19 116.726 9.09581
1936.18 119.978 9.58436
1861.78 111.051 8.87017
1736.63 108.829 8.88504
1800.21 110.209 9.17635
1822.31 116.664 9.72897
1830.56 110.666 9.47223
1881.98 119.017 10.3103
1924.54 121.962 10.6507
1733.59 119.909 10.6702
1802.03 116.774 10.4761
1639.57 110.554 9.93531
1726.38 116.752 10.987
1635.28 115.293 10.8864
1777.25 115.859 10.919
1605.55 114.671 11.1982
1594.83 117.844 11.4526
1459.51 98.3138 9.78807
1643.64 114.409 11.4759
1513.92 105.265 10.699
1555.43 111.932 11.4198
1420.46 113.896 11.8973
1481.23 110.759 11.7657
1339.08 106.241 11.6285
1508.46 118.068 12.88
1411.37 115.877 12.8767
1347.61 112.011 12.6614
1295.59 110.913 12.5254
1399.92 113.266 12.8079
1165.44 105.228 12.2659
1295.2 122.361 14.6368
1330.32 119.986 14.2786
1184.62 104.994 12.7147
1230.58 113.164 13.8893
1097.06 110.027 13.6936
1162.37 106.801 13.3721
1096.87 109.66 13.9894
1096.68 102.314 13.2996
1153.22 113.416 14.439
1148.74 109.313 14.4832
978.173 98.3122 13.0433
1009.88 102.106 13.7167
990.102 99.9128 13.634
1024.65 102.485 13.9491
1037.98 106.88 14.8484
923.812 97.2548 13.708
956.718 99.711 14.4313
1114.08 110.923 15.8921
984.69 102.513 14.9309
1075.47 111.552 16.313
918.913 101.364 15.1343
961.157 104.87 16.0203
1028.86 105.741 16.0191
951.548 100.374 15.4833
902.207 95.6878 14.9048
943.598 107.859 16.889
922.247 102.251 16.3325
870.021 98.7301 15.8365
837.138 97.5316 15.9835
869.471 98.3067 16.2341
902.23 102.85 17.0337
822.543 98.538 16.798
919.007 108.75 18.1851
814.804 97.9134 16.9805
897.237 104.166 18.1573
729.876 96.5132 16.9909
826.538 93.2427 16.2965
782.206 101.47 18.0566
853.676 95.5152 17.0577
723.184 93.6511 17.1977
761.028 97.6618 17.7507
702.738 96.7371 18.1949
671.771 88.3142 16.5763
754.482 99.1511 18.6025
689.188 93.3298 17.787
684.093 99.4857 19.1486
621.017 86.8831 16.7739
668.938 95.7606 18.6227
700.682 100.694 20.1716
647.279 91.4733 18.4123
620.022 87.2927 17.6887
588.733 91.0313 18.7343
649.373 96.7802 19.6857
618.772 93.1015 19.1723
586.624 97.8653 20.886
560.979 90.4686 19.2442
597.074 87.9798 18.902
570.527 91.0038 19.3803
594.919 94.3653 20.3846
577.63 82.3903 18.1934
605.427 92.6832 20.4817
566.284 92.6584 20.9643
590.54 94.5411 21.4199
528.37 90.1471 20.2555
534.43 79.9618 18.2708
535.499 76.284 17.9503
586.432 90.9331 21.445
543.117 86.7876 20.4731
539.864 84.7979 20.2256
471.212 81.3633 19.7457
524.362 85.5151 20.6015
543.333 90.7234 22.4017
586.324 95.8908 23.5557
495.842 81.5564 20.3161
473.299 80.5761 20.5131
507.821 88.9721 22.4783
532.201 84.9735 21.7277
532.969 89.5363 22.9559
501.015 80.8341 20.9592
452.806 84.5152 21.7137
444.193 78.3715 20.8058
431.623 80.1224 21.5451
469.29 83.4481 22.299
435.174 81.4723 21.8549
450.779 84.1225 23.4765
449.047 87.1014 23.6303
459.15 85.3412 23.7868
416.069 83.2398 23.7854
448.105 91.5813 25.6232
450.364 95.0563 26.6908
412.096 83.9422 23.9719
452.305 86.8068 24.6735
407.081 78.5276 22.7643
376.17 77.8921 22.7836
371.888 78.3146 22.9063
349.162 73.4069 21.9548
378.6 78.6415 23.2085
387.664 85.6481 25.7321
397.244 80.2374 24.3769
375.526 77.6603 23.5066
380.912 81.8751 24.9703
332.082 72.2203 23.1574
398.812 86.1434 27.0815
372.488 79.721 25.2648
355.344 75.1245 23.8563
370.533 82.6966 27.0749
382.79 81.4421 26.1865
373.85 81.4333 26.3902
362.111 74.9605 24.3352
340.018 80.9342 26.3373
386.454 81.2384 26.9296
329.797 74.3242 24.9066
389.639 78.9701 27.0117
357.556 81.8186 27.4227
358.525 75.9127 25.9645
333.904 73.7668 25.5508
338.529 76.7324 26.7688
298.06 71.8106 25.0784
365.535 79.1055 27.8478
326.422 81.6883 29.3424
340.235 72.5269 25.7198
285.632 73.8021 26.2467
333.363 79.1696 28.542
305.925 76.139 27.2009
302.493 74.4469 27.7148
264.656 67.9915 25.1495
307.709 74.6357 27.7046
261.581 70.7966 26.7978
292.055 72.9663 27.4768
280.868 73.7999 27.93
293.507 79.0993 29.8716
248.84 70.7093 26.7008
245.204 67.9627 26.7763
277.815 68.5944 26.845
242.918 70.4494 27.6505
252.123 70.3523 27.5496
264.896 74.5603 29.8674
267.36 77.0888 30.8834
249.472 69.0309 27.3328
264.5 77.4648 31.6441
277.865 74.3246 30.2854
245.677 68.3834 27.9068
247.37 69.2523 29.036
236.157 67.2976 27.9851
250.202 67.6435 27.8103
235.114 70.8325 29.2525
244.081 71.9844 30.931
242.778 73.1642 31.2804
273.714 71.6939 31.2336
238.65 71.0437 31.2873
243.271 64.623 27.7275
230.477 70.7948 30.632
248.088 65.1159 28.9678
235.224 69.1228 30.6396
264.969 68.2281 30.8638
222.084 64.5508 28.7291
233.114 63.2847 28.1547
230.842 66.7471 30.1092
252.579 67.2033 31.0912
217.883 65.9888 30.5449
230.82 69.3328 32.0887
227.055 64.0503 29.7007
234.307 65.1699 29.7579
203.952 63.2633 29.9544
238.395 65.23 31.7739
220.064 64.515 30.4083
214.363 68.8693 32.7742
197.31 65.142 31.3787
206.173 58.9299 27.9935
201.995 68.7561 34.2017
202.082 66.6941 33.1756
186.84 62.187 30.1232
187.544 64.5318 32.6863
178.335 62.6353 30.9899
181.219 63.2013 31.7753
193.893 68.6073 34.8312
178.479 59.9555 30.0655
179.046 64.302 32.6372
181.519 64.1324 33.307
180.309 61.3567 31.7389
184.351 60.3516 30.8485
173.281 61.2662 32.1152
178.076 60.3329 32.3974
181.199 65.354 34.169
189.749 59.2298 30.9552
174.597 61.2696 32.337
193.832 59.5478 31.5633
172.749 58.4626 31.5939
176.7 56.9443 31.1011
181.85 64.2864 34.8298
199.52 60.8625 33.9322
183.411 64.3879 35.297
197.946 64.9986 36.4435
184.48 62.8327 35.5566
181.754 62.9782 35.0044
167.389 57.8729 32.7389
179.674 59.5069 34.1518
160.138 53.2413 30.8084
190.736 59.9843 33.7442
157.65 60.3054 35.3019
193.913 62.8979 36.4847
165.757 56.6845 33.091
155.656 52.2814 30.6786
152.226 55.767 33.1309
185.072 61.9423 35.756
150.367 57.9467 34.8737
164.979 56.8459 34.2564
159.403 59.7796 35.9392
153.405 55.272 33.8156
149.742 56.5849 34.0178
151.717 54.7938 33.4474
150.107 55.3287 32.5654
151.546 61.2647 37.7098
135.305 52.6069 32.407
138.61 52.446 33.1547
152.202 61.2879 37.2365
128.357 49.8485 32.0956
132.893 58.7984 37.074
132.853 49.2031 32.1082
135.978 55.8045 36.0567
131.134 56.1 35.3506
131.571 52.5129 34.3394
130.131 49.5157 32.0352
138.15 54.7485 36.021
152.818 59.5158 39.0355
131.023 53.3322 35.0672
146.289 53.9072 36.0977
146.517 57.2432 37.5174
154.706 60.0424 40.0112
133.364 49.0421 33.1983
150.875 55.3641 37.149
140.214 58.459 39.1965
141.06 55.529 38.1607
132.192 52.8483 36.8058
144.654 50.9908 35.6256
136.67 48.8623 33.6399
147.139 51.3352 35.2451
134.018 53.3998 37.6037
146.203 51.6506 36.5782
137.953 52.6312 36.8318
146.522 53.6925 37.7557
137.908 54.908 38.9627
131.987 50.9333 36.8489
134.244 53.7286 38.5557
142.523 53.4655 38.1968
121.747 50.9862 36.8568
141.923 53.1469 39.2053
128.25 49.4988 35.5073
123.157 54.3502 40.2371
124.147 52.6778 39.0277
134.048 52.5183 37.7414
119.725 53.1939 40.3702
115.819 49.2909 37.1143
119.122 50.1582 37.1267
105.25 47.0599 36.0306
104.786 46.1642 34.3265
126.962 54.6006 40.526
107.777 49.9948 38.1368
98.0588 46.8821 37.4209
114.466 50.4686 38.0138
100.717 44.6271 35.1527
102.094 49.5216 39.1
110.15 48.2935 38.4486
100.396 46.4649 35.9281
104.439 47.2301 37.7582
104.988 47.5405 37.2593
103.458 45.4921 36.4292
110.597 47.6857 37.68
101.167 43.0524 35.6073
108.063 47.565 37.5151
105.284 47.6732 40.07
97.6212 45.9823 38.4908
118.761 49.3549 39.3177
106.462 48.5181 39.0034
117.824 47.3589 41.2387
118.929 49.7801 40.806
115.76 48.9047 40.5057
109.374 47.1133 38.6392
106.313 46.2846 38.52
100.732 44.3183 36.7375
113.397 49.0877 41.8768
103.647 46.0475 38.3527
104.539 41.8843 35.5989
99.9225 46.9175 40.2667
109.57 50.4666 44.4341
105.235 48.386 41.4136
108.998 45.5674 40.1847
98.0525 47.6244 39.6676
101.075 47.7017 41.751
88.7136 38.2725 34.3455
101.369 45.879 41.081
88.7142 40.1188 35.1761
91.606 44.9855 40.3234
90.8797 45.8764 40.7292
92.0492 45.8194 40.3363
86.5652 44.4469 40.568
90.3077 45.6319 41.3126
88.8251 43.7211 39.7547
92.8843 48.3802 42.8785
78.6005 41.7345 39.1057
82.8332 42.9599 39.7619
86.0127 41.877 39.0405
90.5357 47.8626 44.226
84.4665 41.2157 37.5445
85.4463 45.1047 40.7298
85.1739 41.9602 39.5995
84.9772 43.581 41.7026
84.3414 44.9066 43.2919
87.0836 42.6706 40.3586
80.7945 40.3819 37.7719
87.6626 39.1637 39.3277
87.8894 41.6661 39.559
94.0606 44.3412 40.314
85.9404 45.1345 42.9973
93.0045 46.6223 45.2351
85.8084 43.2177 42.5801
90.1921 40.7928 39.6084
84.5952 41.0868 40.1418
89.2605 41.8172 40.8499
80.5031 39.6751 39.0571
96.1236 41.2815 40.6007
83.2272 39.5145 39.8047
97.1213 41.0815 42.9827
82.4589 38.7661 38.0605
99.3269 43.0454 42.2409
81.6855 42.2814 42.7871
88.5343 40.5766 42.0208
77.9601 40.8976 41.5824
82.8204 37.2397 38.9156
82.3245 41.0083 42.5477
84.0205 42.6026 42.836
76.5453 36.3154 37.9193
74.2989 40.3517 42.0018
76.2005 36.4152 36.4293
76.6672 36.2072 38.3639
77.5815 37.6606 38.5042
72.6825 37.9004 41.1969
71.0442 41.9144 45.0562
75.4824 40.7979 43.5101
71.5766 40.139 42.3293
68.4989 39.7368 41.2861
63.3295 37.0354 39.1481
69.2418 38.5683 41.598
64.9089 38.1796 41.068
70.6742 40.5613 43.1909
69.4194 36.8564 39.4728
64.5523 37.5655 42.9774
69.2204 39.0488 42.2351
67.6214 37.0799 41.9824
74.1194 40.1085 43.929
70.3088 36.9406 40.437
69.7884 38.1582 41.3417
71.2156 39.2972 45.2003
75.323 37.6475 41.3195
80.7029 40.0096 45.0926
70.0156 36.3862 41.0664
75.6932 38.5929 42.9448
66.2725 37.3397 41.2921
71.6306 34.4014 39.8173
74.9984 40.5598 45.0487
80.4242 35.3267 43.0165
72.6615 36.2993 40.6813
78.4563 35.8651 41.2841
66.4478 40.411 46.6113
78.1047 37.3816 43.75
62.5536 35.0868 41.3361
76.917 35.7189 41.5861
73.1908 35.3778 40.8084
70.8216 36.7297 43.5006
69.4773 34.731 41.5181
73.8335 33.8231 39.47
62.2194 36.767 44.4572
67.5009 34.114 40.6096
60.9284 35.4957 41.7195
66.1205 37.9247 46.6403
61.6268 33.4241 39.8348
66.3882 36.4937 43.2953
61.0212 35.5957 41.5117
60.1033 31.996 39.6734
57.4345 35.3184 44.2455
59.6884 36.6355 43.2602
54.2874 35.8782 44.0903
60.9102 34.0753 42.0995
56.9682 34.5116 43.6361
53.7691 33.8076 43.3959
52.4949 33.9249 42.9307
57.8232 35.4993 43.7354
55.1096 34.6589 44.4612
52.8255 33.626 41.6817
55.1031 33.728 40.3864
57.3896 35.8452 45.939
55.5093 33.9879 43.4686
61.8006 34.1022 42.3774
53.4026 33.3354 43.7386
59.1537 35.0182 43.8362
54.3655 33.2681 44.3003
62.2639 33.8123 43.1921
54.683 34.0958 43.428
59.013 32.6982 43.547
55.68 31.2037 40.6666
66.7794 33.7964 42.6516
55.6157 31.503 41.3282
59.2592 32.433 44.5132
59.5695 33.8805 42.9799
64.4204 31.691 42.4719
54.8396 32.9132 44.5666
67.2761 33.1524 43.445
55.7825 34.5049 47.6922
65.112 34.9657 45.3928
48.8002 30.2021 40.4157
62.3096 32.0906 43.2817
55.0574 31.9791 43.2659
62.8287 32.456 42.6881
52.4613 32.3084 44.2
55.9592 31.4374 44.0556
46.8939 29.9471 40.9695
59.4119 31.9128 41.7643
49.6191 29.4186 42.5362
51.3413 32.6009 43.8004
50.0923 31.5724 43.5228
46.5596 33.7388 47.5359
47.3201 30.6201 43.3753
44.6613 31.9314 43.9097
44.9203 31.5483 43.653
46.9341 30.1241 44.3391
46.6235 32.9962 45.381
44.5915 29.3754 42.2465
46.6909 32.4448 45.3648
46.206 33.0242 46.1234
45.7264 31.0266 42.564
45.3285 30.9476 45.0816
42.7508 28.1006 40.7479
47.5603 31.2244 45.076
44.0379 31.4719 45.0608
44.1466 28.7532 42.5509
44.6334 28.2226 41.9521
51.3269 30.169 44.0849
47.016 30.0276 44.5208
52.8343 29.3233 43.5827
46.5794 31.026 43.6715
47.0409 28.6544 43.6265
46.4872 29.3711 42.2777
52.0589 30.3341 44.7923
46.1837 30.5159 45.0446
51.4973 29.0987 43.9216
45.2701 28.8892 43.233
53.7969 27.6795 43.122
43.4135 28.3272 40.9647
55.5603 31.3976 47.093
45.1258 27.1991 40.7156
49.9781 30.5832 48.5076
41.8338 29.1127 44.1196
49.1666 28.7414 45.2444
45.8532 30.1956 44.3066
51.0902 31.0506 47.1442
43.4862 30.6516 47.169
46.9971 29.9302 45.4303
41.0469 29.6259 46.4843
45.0214 29.8292 45.6133
41.3226 27.1633 43.2955
41.4005 28.9991 45.1277
38.5023 29.2745 46.3309
40.5984 29.3116 46.2822
37.6661 26.0066 41.3368
38.3308 26.4006 41.5753
37.3329 27.8995 44.7403
38.0009 29.3294 45.251
34.7755 27.7673 43.3573
40.3221 28.7644 45.4011
37.9687 27.293 43.6014
37.7509 28.4968 45.7095
36.3092 27.8226 43.4077
35.6901 30.1564 47.6534
36.2499 27.9111 44.4593
37.4417 26.4591 42.5558
37.4505 28.0921 48.0487
41.8696 28.2902 45.1532
38.6697 27.324 43.0743
40.7936 27.0612 46.0205
37.1186 27.8261 47.6716
42.6353 27.9886 43.8722
38.8178 24.283 40.0368
43.5754 28.0549 45.6764
36.2801 28.4085 47.6078
43.2686 28.4735 47.8427
40.1047 28.0432 45.9246
42.87 27.3095 45.5466
38.8609 26.3866 44.4579
43.4907 27.1494 47.8434
40.0321 26.1834 41.9165
39.8216 25.7228 44.4129
41.9204 27.1558 46.4246
44.8955 26.0324 43.3919
38.6508 25.8659 44.1357
45.1395 25.9118 43.1839
35.7688 24.689 40.9383
38.854 25.3064 44.3219
37.7587 28.6586 50.6761
44.2796 26.0589 41.9853
34.0918 25.8871 45.3391
36.2051 24.1464 42.5141
31.8263 23.3557 40.4316
34.856 25.9796 44.7875
33.9182 24.6 44.6409
35.4701 26.6724 45.7778
35.3963 26.8549 48.9768
35.7218 26.7385 43.4119
35.0704 24.0965 41.3447
31.2609 23.3198 41.5822
32.6838 25.3671 45.5911
31.3452 25.8209 44.7094
31.8237 23.573 42.6914
33.131 26.5287 47.3213
33.6911 25.846 46.8596
31.4495 23.314 40.0731
32.4829 26.3916 46.2574
31.8268 23.7169 43.1893
33.0995 23.6876 42.5561
33.0386 23.2 42.9244
34.2952 23.9602 42.4519
33.5758 26.1832 49.0305
35.7355 25.0648 44.3629
37.8477 23.8452 43.6109
34.3874 22.3917 41.1452
36.5078 23.802 45.0955
33.9959 25.9781 45.7728
38.1415 23.7592 43.8206
38.1991 25.9929 47.2196
38.1425 25.357 48.4865
36.2344 22.8442 41.4327
38.377 23.893 44.9088
35.0659 23.8679 44.9475
40.605 25.1308 46.0236
34.8533 24.6768 45.4045
39.0473 22.8287 43.1282
34.6364 23.592 45.0819
36.2582 21.7796 40.7997
32.7331 24.6771 45.4046
35.5433 22.5713 43.3109
32.7788 22.3456 44.2007
37.5122 25.9167 49.9431
32.3748 22.1356 43.5465
32.4196 22.2776 42.1047
30.4427 23.6178 46.2978
31.7367 22.4439 42.7902
31.8655 24.7896 46.4936
28.692 21.225 39.8006
29.4431 19.931 39.2567
29.5076 21.776 41.5724
28.5959 24.413 47.9861
29.0738 22.2998 41.6972
27.148 22.9339 44.2817
28.6438 22.8812 44.7415
29.7381 21.903 42.3398
28.654 24.2023 48.9565
27.7521 21.6442 42.2302
30.5091 22.0934 43.8066
29.0118 22.665 46.5906
30.1215 23.4235 43.5523
28.6643 21.6083 42.2706
30.5803 22.3358 43.133
28.9664 21.5943 41.367
30.9631 21.6922 46.8036
33.2606 21.2526 41.2381
33.7156 22.8601 45.9371
28.9707 22.2139 43.3056
32.1311 20.5277 43.736
31.9169 21.9537 43.695
33.6424 20.7708 41.7709
30.3884 22.3526 46.5698
33.7282 20.2427 41.2326
31.6116 22.6237 45.6803
32.9155 21.1657 46.3996
30.6187 22.4912 43.9319
36.4635 22.2276 45.0789
30.8841 21.0884 43.9056
33.089 20.3672 41.7959
28.1674 22.4234 44.969
33.2154 20.0729 42.1768
26.9918 20.8236 43.9621
31.7124 20.7105 41.3357
28.7119 21.8121 47.3501
27.7995 22.0694 43.9068
25.496 22.2793 47.6303
29.1282 21.7637 43.8232
28.1368 21.8849 45.3664
27.4744 21.0079 43.1567
26.045 19.3661 43.3723
26.1292 19.9587 41.3379
25.2454 21.1176 44.0886
25.9247 20.9274 42.8254
25.0684 20.4748 44.5331
24.7284 20.2915 42.4669
26.5278 20.9562 44.4243
24.0242 19.1569 40.3211
25.6359 19.7265 43.9629
26.7032 23.9007 48.2206
24.47 20.6958 45.4056
25.8989 18.4147 39.3336
24.4734 20.2391 45.0371
26.3381 19.9906 44.1891
26.354 20.3877 42.9716
27.7096 20.1144 43.4685
25.8058 21.9414 47.7294
27.2126 18.3488 40.4827
27.9336 19.8381 44.0629
28.6804 18.0777 38.5419
26.3844 21.2538 47.1815
30.9739 20.5199 45.4746
27.5352 19.2936 42.9232
30.6661 19.4872 44.7409
26.6191 20.1921 43.5901
31.5207 19.3663 41.2404
27.3592 18.809 43.0526
32.5288 19.1098 39.6996
27.6491 18.1432 41.3703
30.6937 18.7773 42.9272
26.469 18.9603 44.5976
31.3784 19.7927 42.6704
28.5419 19.0298 42.5597
29.0599 19.5479 42.2355
26.7082 19.2094 44.5035
28.3814 19.7433 43.0227
26.0079 19.1567 45.1208
25.7381 20.1227 42.7615
26.0472 19.3506 44.3055
24.3577 17.5767 40.2515
24.248 17.8571 41.6869
25.6348 17.8015 41.1956
22.2171 17.7069 39.8544
23.6112 19.1033 43.5852
24.7517 20.1436 46.6971
24.0838 19.18 45.9076
21.9267 18.0862 41.1596
23.2883 18.4867 43.2794
22.6927 18.6414 41.9001
22.1522 17.3672 40.6819
24.0075 20.6024 45.2226
23.0876 18.3463 42.9066
21.8476 17.5249 41.1953
24.8864 18.4837 43.1711
24.1869 17.2859 41.5134
25.0476 17.445 39.7401
21.9602 18.5225 45.4398
25.9351 18.2942 41.8987
22.7719 18.0642 43.0482
25.5332 18.8786 45.2994
24.97 18.4046 42.5989
27.2472 19.4273 46.736
24.431 16.5145 39.7482
28.7609 19.0272 44.1377
24.9644 17.8659 40.938
27.4162 18.1783 42.7857
25.3525 17.6291 42.7668
31.0755 19.4153 47.2425
25.0843 17.4485 42.423
30.0568 18.3523 44.6566
24.3639 18.2558 43.2343
30.355 18.4272 44.7719
26.1213 16.4696 38.5266
27.392 17.8978 40.9411
22.1415 18.0194 43.8734
27.3624 17.192 43.0396
24.8023 17.7929 43.4973
26.1832 16.9048 43.9544
23.0462 16.871 41.9574
24.9764 17.5161 41.5048
22.1716 17.1118 41.8634
22.5671 16.7366 41.67
23.1565 17.7731 43.7509
23.1594 16.814 40.2377
20.8663 17.6097 43.464
21.0473 17.0522 43.2166
20.7786 17.3963 44.3042
22.0568 18.4375 44.4313
21.6948 16.8216 41.9357
