# pn-170911/CsIIA-24-CsII-1280-1959.psd
# Power spectrum* (dif=0,1,2) (really just |FT|^2)
# NOTE: only the first half! (symmetric)
# weeks: 1280-1959
# 626 clock-days, 134 excluded
# PSD: 1441
107231 3.68815 0.0533913
6.15689e+06 75.3185 0.0359133
5.06835e+07 1054.83 0.0547591
3.52729e+06 138.031 0.0403166
2.44025e+06 159.787 0.0472414
1.46813e+06 144.061 0.0496962
1.07909e+06 152.214 0.0639208
740615 143.994 0.064994
546776 141.745 0.0764947
417013 131.48 0.0833431
377892 141.426 0.0968725
301768 135.696 0.11349
255332 139.962 0.13074
218262 139.621 0.140215
186703 133.392 0.15983
170739 143.993 0.195933
151575 146.462 0.216632
139448 145.856 0.230784
118544 140.607 0.243436
98971.9 133.894 0.259169
83878.1 125.442 0.280052
78819.1 131.767 0.318371
73806.1 129.447 0.326691
68548.5 134.694 0.372309
60374.8 130.919 0.399397
59916.4 137.396 0.450636
56360.1 137.855 0.492056
51340.1 135.628 0.488877
47191.6 135.556 0.529161
42382.4 131.954 0.544107
40685.4 135.729 0.611676
39527.4 144.733 0.673467
37069.2 130.964 0.670692
35564 145.504 0.77605
30379.8 127.087 0.741639
30546.2 137.681 0.838898
29606.5 141.028 0.897268
28260.5 138.079 0.90393
24507.3 124.173 0.884914
25685.3 137.975 1.01994
23343.3 131.824 1.02157
23057.2 141.245 1.17261
20262.6 131.68 1.15135
19247.5 128.645 1.15707
19617.7 142.46 1.33497
19182.5 140.018 1.37435
17080.5 130.983 1.33789
16885.3 130.858 1.42041
15695.8 132.152 1.48868
15421.8 128.362 1.47356
14531.4 134.899 1.64735
14413.3 133.147 1.67872
13561.8 137.018 1.79388
13232.5 134.36 1.80395
12680.9 130.328 1.82536
12140.8 133.337 1.96106
11166.9 126.634 1.93522
11893.8 139 2.16607
10806.9 127.129 2.06088
10191.7 120.816 2.04802
10027.4 128.969 2.2457
10210.6 133.372 2.39985
9720.69 127.083 2.35887
9462.58 133.059 2.49836
9177.86 125.946 2.48333
7860.15 119.083 2.39944
8067.63 126.486 2.63562
7985.04 123.281 2.64401
7873.89 126.227 2.81963
7714.86 129.408 2.96692
7497.65 126.548 2.96115
7110.8 122.075 2.98867
7263.65 129.122 3.20578
7146.79 139.619 3.51347
6786.82 124.178 3.22104
6678.4 130.313 3.51814
6751.25 132.465 3.63568
6521.22 130.246 3.68884
6288.93 132.264 3.84458
5702.93 119.482 3.59623
5509.26 123.522 3.77348
6196.85 143.582 4.5105
5441.43 121.711 3.93139
5190.88 123.792 4.06765
5048.91 122.747 4.1481
5122.62 124.053 4.2908
4819.59 121.842 4.28397
5054.69 132.052 4.81886
4723 126.225 4.68606
4664.26 128.998 4.89659
4823.42 125.09 4.90239
4049.8 114.005 4.48529
4303.82 124.463 5.01945
4475.88 132.189 5.46923
4088.28 122.333 5.1796
4171.05 130.462 5.60916
4164.44 131.492 5.80695
3448.95 114.083 5.07828
3425.12 115.233 5.27644
3613.22 120.784 5.63577
3479.52 113.626 5.39983
3777.43 126.935 6.10934
3432.2 122.116 6.06026
3261.22 117.183 5.88886
3340.88 120.736 6.23004
3196 121.494 6.38773
3552.77 130.174 6.96185
2991.12 119.468 6.53303
3078.07 119.798 6.69652
2906.9 123.476 6.97419
2945.43 121.718 7.03473
2913.54 117.378 6.88291
2639.65 116.526 7.00546
2936.17 125.016 7.64694
2765.78 115.656 7.04787
2711.04 112.282 7.12596
2748.22 116.864 7.44461
2465.64 114.545 7.45653
2535.22 113.603 7.50774
2377.33 112.472 7.52422
2405.88 115.797 7.89996
2417.67 119.36 8.30684
2195.23 105.206 7.47058
2204.79 107.494 7.71943
2170.1 107.188 7.83104
2134.36 109.968 8.09786
2004.34 105.725 7.92328
2119.88 113.261 8.65099
1961 102.623 8.00786
1994.44 108.122 8.59414
2003.69 116.183 9.27899
2049.25 115.574 9.40763
2008.12 109.75 9.08233
1977.63 116.128 9.68982
1896.2 110.554 9.42309
1821.45 109.496 9.40221
1761.48 108.689 9.47445
1729.92 106.413 9.36547
1858.66 111.686 10.0494
1824.86 112.12 10.3137
1554.64 100.627 9.24049
1675.1 106.668 10.1661
1666.66 113.708 10.9272
1660.5 106.2 10.3069
1643.33 104.661 10.2799
1735.71 115.694 11.4581
1582.79 111.54 11.2168
1610.63 108.256 10.9836
1633.48 118.535 12.2369
1467.61 107.615 11.2391
1440.36 102.754 10.9192
1416.85 102.436 10.9661
1419.94 100.344 10.844
1466.72 107.705 11.88
1394.03 108.381 12.1844
1279.53 99.56 11.434
1284.85 102.198 11.6966
1265.33 97.483 11.2266
1273.34 107.336 12.6798
1325.17 108.136 12.8905
1202.23 98.6357 11.8719
1245.4 99.1094 12.027
1250.79 106.619 13.2313
1279.25 99.6782 12.5475
1193.62 97.3666 12.3549
1188.21 104.173 13.4611
1170.56 101.733 13.183
1233.05 101.356 13.3847
1158.23 97.5413 13.0027
1180.23 107.486 14.3911
1118.72 101.983 13.9141
1150.21 100.997 13.8501
1062.32 97.3071 13.57
1059.25 100.23 14.2134
1007.2 91.1039 12.8024
1066.96 105.567 15.2945
993.65 96.5343 13.9773
1042.62 100.316 14.907
1064.48 105.752 15.6219
955.203 96.764 14.5543
967.746 98.1648 14.8277
877.536 90.5504 14.0729
959.233 93.3677 14.6051
936.358 93.6131 14.5226
892.605 94.4856 15.1287
875.344 90.5848 14.5766
952.571 99.7185 16.2072
899.318 92.1795 15.267
913.878 97.0112 15.7398
872.249 98.6856 16.7083
910.526 95.6754 16.1741
840.56 93.9083 16.2919
909.962 96.6864 16.8528
825.419 86.1122 14.9678
797.874 88.3743 15.469
809.919 89.0565 15.8132
759.738 91.817 16.5914
800.88 96.8491 17.7565
832.677 96.0382 17.3541
748.413 87.6698 16.2807
750.98 90.6726 16.9636
789.192 92.7511 17.5072
735.673 91.2051 17.5752
686.147 83.1022 15.9693
716.341 95.2204 18.5551
669.342 79.9153 15.6092
699.85 88.0984 17.6869
701.94 90.3577 18.2389
705.91 92.2244 18.7413
675.893 84.7319 17.3392
677.779 87.3704 17.9909
653.801 84.2222 17.4514
638.253 88.5483 18.5808
626.788 82.3798 17.7753
598.125 84.3967 17.9543
648.88 88.3059 19.0882
578.329 83.5337 18.1646
652.663 84.5219 18.8045
617.201 85.6255 19.211
596.745 86.2502 19.1059
597.378 85.1721 19.3389
577.224 83.8601 19.1079
591.809 85.3065 19.6084
585.608 81.1981 18.9263
578.108 80.9989 19.104
590.005 85.3318 20.3308
550.137 83.9231 19.7816
564.282 80.0655 19.5338
550.985 85.2678 20.6745
534.778 85.1893 20.9991
510.172 80.491 19.5443
512.787 75.1881 18.7432
527.487 79.4525 20.1475
535.933 79.9991 20.167
516.774 80.5201 20.3028
514.133 77.5419 19.8964
473.735 75.6616 19.6808
477.454 79.1021 20.7845
482.981 82.4497 22.2924
504.969 83.8413 22.2427
481.495 79.7811 21.3235
477.815 81.1828 21.8817
482.548 83.2791 22.9494
448.213 71.9549 19.4182
491.883 86.2846 23.9601
442.926 74.8741 21.3219
439.631 77.2209 21.6908
465.431 81.9472 23.0444
423.767 77.6383 22.2963
467.962 78.5934 22.6726
440.272 78.2211 22.478
456.581 76.5361 22.361
414.089 75.408 22.289
397.776 79.9382 23.6227
404.929 79.6731 23.7908
423.689 79.5154 24.0337
413.721 76.3 23.2259
392.511 80.9158 24.8763
410.788 80.8237 24.6668
380.719 74.6863 23.2945
385.919 81.297 25.6183
382.69 76.1126 23.7554
370.932 74.1776 23.5868
380.891 73.7494 23.6999
372.515 74.7535 24.2201
368.453 79.7128 25.8227
367.786 77.4969 25.3055
349.45 71.3007 23.6223
338.671 70.9988 23.4566
364.602 74.3554 24.7216
331.579 70.3998 23.8277
353.469 71.6034 24.1987
328.551 70.6258 24.3084
314.566 71.0145 25.1026
320.984 68.9955 23.6353
334.269 73.1941 25.4223
314.3 69.346 24.5668
315.586 72.4498 25.8188
327.854 67.9401 24.1963
313.128 69.5541 25.0187
303.744 71.029 25.5235
299.507 69.5214 25.4807
302.764 68.3011 24.9779
285.936 66.6595 24.769
300.246 71.0876 26.4025
302.723 70.4481 26.1659
284.646 64.1306 24.4724
300.545 70.2598 26.8276
280.094 69.8728 26.4565
270.499 66.3939 25.4226
260.348 67.3339 26.1483
270.916 63.632 24.7311
277.01 71.3686 28.0188
270.228 68.4581 26.7262
268.579 67.2386 27.1015
255.33 68.7358 27.5475
260.053 65.697 26.6392
252.194 64.0277 25.5192
240.429 62.2965 25.4191
252.18 67.9662 27.9579
258.376 68.4569 28.5293
241.656 64.364 26.7286
234.412 62.677 25.8883
239.792 67.0357 28.8727
241.478 62.1982 26.0007
223.126 63.2331 26.9524
225.559 67.1269 29.0231
230.593 62.8847 26.6853
231.705 64.196 28.033
210.413 57.8241 25.0445
225.736 58.7875 25.8085
217.472 61.0837 26.8935
228 65.5726 29.5099
224.81 66.8952 30.2551
218.31 61.0201 27.4012
210.15 57.8408 26.6815
209.363 59.9685 27.4175
205.752 61.6721 28.4771
225.109 64.9017 30.0044
216.298 64.5982 30.0719
218.444 59.9776 27.8471
198.148 61.0043 29.0311
195.17 57.8776 28.2313
215.876 62.8145 29.3784
206.372 63.3674 29.8825
204.764 60.0596 29.0749
191.669 57.8055 28.338
201.927 58.2408 28.1573
192.639 56.2214 27.567
183.562 53.8909 26.6693
194.446 59.275 29.5214
198.174 60.5992 30.8233
189.627 60.1452 29.7327
218.667 66.741 33.9992
194.566 58.5325 29.5128
195.546 60.8273 30.5756
189.434 59.231 30.264
187.786 55.9748 28.722
187.955 57.9709 29.8633
185.162 59.5905 31.1743
178.026 57.2497 30.6439
193.339 61.7474 31.6607
186.25 55.4958 29.5573
188.852 59.2967 31.4103
184.453 58.4776 31.8484
190.726 59.7301 32.2215
169.284 55.1232 30.2302
184.125 59.6037 32.1402
176.909 59.4827 32.661
183.851 56.8622 31.5849
175.776 57.2997 31.9477
177.627 58.9538 32.7214
171.612 52.789 29.6812
169.923 54.35 30.7808
167.554 55.9482 31.4658
171.277 54.2235 30.8497
176.593 56.8259 32.5415
168.34 55.3041 31.7431
171.905 57.2668 33.3513
167.832 55.8244 32.1597
173.646 56.2851 32.7025
173.171 55.1957 32.7958
165.177 55.5715 32.3043
158.836 56.467 33.8768
168.188 57.5961 34.9699
157.467 53.4325 32.0151
162.395 52.717 32.0547
169.796 53.3545 32.3206
157.711 52.808 32.498
161.176 55.1851 33.7277
155.999 51.1172 31.4302
146.066 51.8093 31.8503
153.287 52.4883 33.351
158.49 56.5466 35.352
154.405 52.9529 32.7905
145.369 53.6329 33.6477
159.278 52.2677 34.0383
162.32 56.7009 35.6772
153.198 54.419 35.0791
148.662 52.2925 34.5311
152.493 51.0544 32.4447
141.897 49.4245 32.2643
148.564 51.58 33.8298
139.314 50.5301 32.8553
145.835 49.568 32.7529
150.145 53.0075 35.8153
144.121 47.8735 32.489
144.446 51.2488 33.7944
142.541 50.0594 34.1411
143.979 50.4886 34.5336
138.906 52.6276 35.8677
140.458 49.6056 33.5122
144.907 49.9826 33.6966
141.519 48.3902 33.6722
132.31 46.9332 32.8051
138.488 52.4391 37.066
134.701 49.1412 34.9471
137.54 45.7542 32.0334
132.713 47.3195 33.68
135.646 45.1062 32.1274
132.142 48.3561 33.9564
132.112 47.5871 34.272
131.556 48.2558 34.7468
137.159 48.7631 35.6181
134.601 50.2843 35.856
133.323 48.1398 35.1018
125.077 49.1632 36.2419
129.198 50.5461 37.6147
129.979 47.0489 34.1407
124.345 45.367 34.7431
129.049 48.5055 36.1925
127.292 47.9892 35.6337
117.171 41.8849 33.1698
122.223 48.4471 36.2614
127.691 46.9748 35.3233
114.003 44.9167 34.4455
123.72 48.2589 36.655
123.444 47.7509 37.2867
114.842 42.1092 33.7021
119.485 45.1427 35.2875
123.628 46.2602 35.365
116.258 43.468 34.0856
117.774 44.2133 35.3907
121.053 43.404 34.3826
114.516 43.5078 33.8436
115.751 41.8561 33.8074
110.994 45.6075 37.3714
122.922 42.8676 33.8736
119.32 45.7588 36.6234
112.963 45.6589 37.1661
111.934 43.9455 36.089
117.239 44.8952 36.3092
120.268 44.6532 37.4842
115.859 42.3867 35.4916
102.572 41.6435 33.9493
111.009 44.0106 36.1674
110.774 43.466 36.565
117.341 44.6956 37.3717
106.779 41.8732 36.2612
115.003 47.4961 40.0384
113.912 42.3332 36.3471
112.908 44.6471 38.0708
104.172 40.4024 35.8487
107.244 42.3851 35.1076
98.2973 42.2192 37.0862
106.813 40.4826 36.0359
105.599 42.4907 35.8895
105.515 43.4131 38.0873
103.262 42.0929 37.3385
105.78 38.9552 34.8585
101.19 41.5015 37.1087
102.967 42.6265 38.1186
99.4532 41.1605 37.4712
102.49 41.774 36.5743
96.3443 42.2817 38.7858
110.122 42.5851 38.0981
98.1959 41.6874 38.9438
107.187 43.1974 37.6875
103.16 40.1209 37.7325
99.8139 41.0173 37.5934
101.352 38.4984 35.2017
100.899 40.8431 37.0833
102.542 40.916 38.5478
106.732 43.0169 40.3491
96.6242 40.1964 37.7854
96.9799 42.5983 40.0396
94.3075 38.6441 37.2852
92.0464 38.7486 36.221
96.9872 37.9917 37.048
93.6285 37.571 35.5998
97.2 38.7283 37.5091
93.9015 39.1623 38.1416
94.6376 37.6527 36.2806
91.2584 39.7435 38.3866
100.443 41.162 39.6573
93.4873 39.9047 39.2392
94.4335 40.6272 39.6512
95.4795 38.1911 36.9716
90.1248 37.3442 36.956
89.6295 39.5722 39.4822
89.7058 39.2891 40.6648
92.8589 42.7338 42.2463
91.7243 38.6085 38.4885
90.708 37.4483 37.6581
82.3284 36.4721 36.9886
87.5257 37.2854 37.822
83.638 38.0518 39.9348
91.5104 39.7032 40.3057
84.4143 36.6029 37.7355
87.2945 37.8818 38.8823
90.7175 37.9706 39.6037
81.7872 34.8472 35.8717
84.8446 35.549 36.5132
80.2307 36.1094 38.7007
86.9105 37.1159 39.2623
86.5766 37.0384 39.1366
83.6094 36.8629 39.5627
83.5674 36.7838 39.0118
80.8761 36.4422 38.542
85.9834 36.0639 37.7479
76.2441 33.6898 37.6075
86.0471 38.0756 41.5545
76.6558 36.01 37.2041
80.7409 34.9522 38.2602
81.1901 34.884 39.1136
81.2243 35.1665 39.1317
81.9491 35.708 38.6567
82.2223 34.6518 38.6946
83.1026 37.3838 40.6765
85.9075 35.3251 39.3438
75.3831 34.305 38.4515
78.7508 36.9047 40.7638
84.2811 36.3822 41.0725
83.6239 34.7191 39.7751
77.6629 34.9791 39.2484
80.6954 37.0755 42.2516
74.649 35.6413 40.6032
77.4956 35.2178 40.3905
77.0691 34.4907 39.5369
81.1196 35.9211 40.6584
70.1419 35.3438 40.8498
76.1301 33.5684 39.4443
72.2449 34.4189 40.1465
70.7977 32.2951 36.8794
71.4293 34.1505 39.5879
73.3164 33.8418 38.5096
73.5799 36.1212 43.8465
70.747 32.1522 37.6035
72.9241 35.5353 43.0212
73.2072 33.9481 40.3231
68.509 31.9187 38.4154
70.8415 33.4202 40.5282
68.8586 34.0881 40.2097
66.9376 31.3492 39.1277
70.8987 32.6912 38.3557
70.4975 31.8246 38.6173
72.004 32.4976 39.3969
69.6634 32.351 40.2954
69.2681 30.8207 37.9555
70.7896 33.096 41.3432
70.569 34.0593 40.6804
65.7477 31.5101 38.9356
62.7137 31.1121 39.3559
65.6245 30.3529 38.213
67.8704 32.3707 39.6971
70.0255 30.7358 40.3335
65.3281 32.5723 40.3073
66.1315 34.5194 43.2097
60.0976 33.4406 41.7305
61.8998 33.6466 41.9395
62.5385 31.7555 41.0708
67.4892 32.3144 41.6553
65.6126 32.1199 40.5408
60.4735 30.1632 39.8361
64.3125 30.8559 39.2373
58.6557 31.1428 40.3376
61.094 29.2964 38.4619
63.4402 30.9176 40.1659
56.3998 30.1661 39.6849
58.2631 29.5004 37.4882
61.6263 32.0638 41.9252
57.9211 28.8729 37.8664
59.5958 30.3434 40.258
54.9151 29.5669 38.9655
58.0732 29.8894 40.7231
56.6622 31.0598 41.9993
55.1658 30.8138 41.2221
58.3813 29.5467 38.4675
56.6895 28.5324 38.8753
59.1215 30.0772 40.1525
56.0447 29.886 40.2011
54.0277 31.3246 44.0623
54.7363 28.2615 38.7666
53.5467 29.5442 40.343
58.0351 30.9959 42.3561
56.1034 30.4316 42.4297
50.3237 26.7694 37.0207
52.4182 30.241 42.0369
51.4435 28.9972 39.3797
50.8931 30.2318 41.8274
49.5207 26.7382 36.4312
48.9784 29.3135 41.7997
51.382 28.9376 40.92
53.4884 30.2561 42.3139
48.8448 27.8173 39.6509
50.9492 28.3643 39.3053
45.1895 27.7689 40.7893
49.1952 27.1285 38.4842
47.7565 27.5562 39.0882
47.4228 27.4112 40.0146
47.01 26.0513 37.225
44.7916 29.1739 42.8953
47.317 27.1354 38.3047
46.211 28.1558 40.0896
46.9143 29.2757 43.3165
46.9947 27.3637 39.6302
44.572 27.5628 41.2344
46.3673 27.6408 41.0071
45.9689 29.135 42.5322
44.2648 25.9551 39.0643
45.1476 27.3277 40.9527
45.8151 28.4086 40.82
42.6749 26.4994 39.4359
43.4046 27.8252 42.7134
45.4512 26.3891 40.0079
45.597 29.3061 42.6933
42.3477 27.0291 40.9231
45.3224 27.5124 41.2948
41.2615 27.9549 42.3448
43.3021 27.1228 41.7958
42.2881 28.7253 42.7775
44.7427 28.4437 44.7249
42.8999 26.8776 40.0909
42.0204 25.8774 39.2653
45.6917 26.2533 40.8254
43.47 27.4229 40.999
40.9732 26.545 42.7357
43.8642 29.866 46.5413
43.3683 27.4452 43.2803
40.1265 26.7995 41.9728
40.3679 24.3875 37.9114
39.4778 23.9617 38.0461
39.3463 24.8251 37.9944
39.8515 24.8208 39.9121
42.6743 27.5068 43.39
39.7473 26.9118 43.5565
39.3715 25.2418 39.7814
38.8871 23.7871 38.2496
39.7491 26.7523 42.4068
40.8059 26.0333 41.8941
39.7414 25.6203 39.6052
39.4805 24.1733 41.1729
38.914 26.5413 42.4289
38.4463 25.3811 42.5166
40.5799 24.9035 41.7649
39.5875 25.3677 39.9699
41.3751 26.3888 42.6251
39.5461 26.6715 44.3885
40.5292 25.9055 42.2487
38.8794 24.9858 39.7036
37.9481 25.3742 42.6586
40.3006 25.353 43.5273
36.7904 24.7955 41.0311
40.2414 26.3163 41.3798
38.1214 24.7702 42.0925
40.121 25.6583 41.6884
38.9349 25.3905 42.3948
37.1909 25.6784 45.9652
41.9111 26.0925 42.991
39.0162 25.6511 42.3942
37.6607 24.8735 43.5801
38.944 23.4863 38.9938
34.1966 22.4777 38.447
37.6738 23.595 39.1996
35.7221 24.3315 41.6031
37.2996 23.4013 40.1919
39.873 24.2363 41.036
36.617 23.3245 40.6563
35.2836 23.4447 40.6114
35.5723 23.0012 40.013
36.6547 22.5743 39.2916
36.176 23.6421 40.9785
35.2837 23.6033 41.1706
36.7915 22.9418 42.2057
37.951 25.7251 42.9422
35.7232 23.4577 41.4806
37.7958 22.7959 40.3951
34.9864 23.206 40.46
36.6657 23.9931 42.7389
36.3761 23.574 41.3009
35.5088 23.3814 41.8871
37.9044 22.8572 41.2461
35.9896 22.262 40.4762
36.7247 23.3907 41.8046
36.4343 23.2923 41.7299
36.881 23.8201 42.0771
35.5512 23.0702 41.926
37.5083 22.0105 40.6641
37.1789 24.0087 43.4234
35.3428 23.8424 42.5562
35.4607 22.2395 41.6231
37.8243 24.2136 43.6622
35.0413 23.0988 43.3775
37.4675 23.6477 41.9441
35.0025 23.2549 43.3244
36.7997 22.3693 40.844
35.2196 21.5806 40.5491
35.7949 21.0048 39.8736
35.7915 22.4101 39.6771
33.942 21.6749 41.2759
36.1084 21.4423 38.6
36.8178 24.3473 45.9891
34.4404 21.3583 41.32
35.9657 22.1514 41.6402
36.0227 23.1819 42.0634
34.4448 21.352 39.8181
34.5224 21.8334 43.3838
36.5663 22.352 43.0137
34.2408 22.9612 43.9383
34.524 20.8532 38.1914
32.5885 21.4865 41.4403
35.0837 21.3298 41.7545
35.6524 22.1425 43.4529
35.0618 21.6703 40.4475
36.1148 20.7062 39.7274
34.2099 20.7055 39.6017
31.9015 19.5992 39.1914
35.7609 22.3721 43.2712
33.0618 20.6629 40.6378
34.459 20.0317 40.0075
35.4366 21.4718 40.2899
34.9833 20.9136 40.9316
34.2784 21.7501 41.3688
32.594 20.2447 42.474
34.3854 20.3148 38.9554
35.651 21.389 42.7096
32.7138 21.0684 41.717
35.0837 22.3446 43.0878
32.8687 20.1601 40.4701
34.5422 21.0679 41.4546
33.7483 21.4979 44.0052
33.0191 19.906 40.2661
32.6552 21.6931 43.5556
31.7944 20.028 38.9664
32.9003 21.0325 43.4055
34.1423 19.3261 38.3776
33.063 21.546 44.0955
35.0749 21.0111 44.1886
34.2526 19.8553 39.5725
32.3069 20.1804 41.7198
32.1546 19.8322 41.5579
32.6109 21.1328 41.2064
33.0345 20.4289 43.0865
33.7738 20.883 41.6276
34.2315 20.108 42.3658
32.9569 20.4015 40.8826
34.1351 20.4591 42.8253
32.2001 19.4632 39.4832
32.3686 19.9665 41.1728
32.7425 20.8843 44.6279
31.6564 20.4327 41.3539
32.6661 19.7796 40.938
32.3649 20.3101 41.4447
33.256 21.5343 45.1078
31.773 21.1115 45.5126
33.4973 20.0548 43.6141
32.9915 19.7306 39.7825
31.0487 19.2236 42.5279
31.6864 19.1292 39.326
32.2878 19.2213 40.7679
32.5902 18.553 39.6312
34.4388 18.8103 40.3668
31.7509 19.7247 43.5202
33.621 20.5405 43.5384
31.419 20.4344 42.9247
29.4483 17.9782 40.1576
32.7268 18.9367 40.0423
30.9841 20.3272 42.4181
33.0981 17.9643 41.0903
31.3668 19.2515 42.0211
32.3586 18.4353 40.595
30.4238 18.4523 39.1473
31.6688 19.4691 42.1384
32.45 20.0215 42.9146
31.5959 18.1836 38.798
30.1262 18.5422 42.11
31.6538 19.7916 41.8127
30.9139 17.4357 40.7211
32.0091 18.7555 41.6351
30.5432 20.1262 44.2178
31.4276 17.9518 40.6168
31.2302 18.024 39.9061
31.3367 19.1514 43.1379
30.3943 19.0779 41.3903
30.0808 18.426 41.4304
29.7031 17.3308 39.7738
31.354 19.062 41.4664
32.3096 19.9642 44.6943
31.0419 18.293 39.1682
30.171 17.4914 38.4534
27.9707 17.6896 38.909
29.6368 18.6028 43.9878
30.9496 18.5467 42.2913
33.0732 18.6662 40.7567
29.6362 16.471 37.8455
29.3932 16.8506 39.6348
30.8883 16.9077 39.2123
30.7718 16.2063 36.7503
32.5508 17.4178 40.8009
29.8895 17.3714 39.6336
30.7399 18.0079 41.4472
32.3901 16.4368 38.1148
29.7087 17.4096 41.3621
30.7228 17.2578 40.4832
30.1211 17.8544 39.8708
31.0116 18.4504 42.5559
30.9736 17.8987 42.1741
30.3307 17.1036 38.8598
30.8722 17.4439 41.3365
30.7297 17.8627 43.1029
31.9912 15.7136 34.9112
30.3297 17.2842 42.924
30.0185 17.6854 40.2294
29.5056 16.2341 38.4867
29.7248 18.2534 43.2131
30.9441 17.0748 40.211
28.7439 17.6311 41.9011
32.0844 17.2245 40.0819
28.6044 17.1289 41.4288
32.2256 16.6945 39.9634
30.0598 16.4945 39.5797
29.6574 17.8919 42.1802
30.0974 17.3881 40.9949
29.4483 16.5524 40.8945
28.7892 15.9867 40.5033
30.5298 16.1171 36.3936
29.1187 15.3026 36.9643
29.757 16.5816 41.8582
29.0973 17.066 40.4347
28.4549 16.4155 38.7746
29.0633 15.4237 38.508
28.5488 15.7693 37.1528
31.6388 16.5358 39.6749
28.7867 15.798 41.5774
30.3018 15.7009 37.9768
30.2719 16.5068 39.5222
27.8955 15.5187 38.7408
31.3548 15.6961 38.2288
28.8058 16.0645 41.3712
26.3989 16.4016 41.7451
28.5027 17.2042 42.067
28.7692 17.2068 40.7789
29.5408 15.7049 38.6732
29.6767 15.9986 40.1177
