# pn-170911/CsIIF-av-CsIIA-1280-1959.psd
# Power spectrum* (dif=0,1,2) (really just |FT|^2)
# NOTE: only the first half! (symmetric)
# weeks: 1280-1959
# 847 clock-days, 476 excluded
# PSD: 1441
78764.6 1.26283 0.0713792
2.7531e+06 45.2227 0.21702
1.45247e+07 281.083 0.206116
2.55006e+06 95.1495 0.209284
4.6417e+06 315.106 0.254961
887860 88.3767 0.219314
664459 95.2827 0.271265
461844 93.9808 0.239285
393807 91.1494 0.221248
308152 94.5544 0.295578
224478 84.8664 0.252629
199085 86.2288 0.252941
165872 92.3173 0.329657
133310 84.6478 0.273822
127862 97.3502 0.320738
103839 89.1853 0.322643
95865.7 93.4406 0.342488
80407 84.3626 0.37491
77566.8 87.519 0.379085
74531 92.9916 0.387669
59356.4 86.1779 0.398777
55886.8 84.3308 0.39768
53212.5 86.9759 0.412612
47602.1 85.29 0.454339
46324.5 87.6762 0.447727
41682.4 86.4919 0.485103
39477.6 88.8565 0.517726
36039.9 84.1117 0.479838
36825.7 90.7988 0.564241
34640.5 93.2384 0.569323
30310.8 85.5365 0.581334
27878.8 82.1111 0.610161
28324.4 91.5497 0.647021
24909.7 88.836 0.678248
26037.5 88.1037 0.670451
23371.8 88.4934 0.681799
21941.4 82.8841 0.715658
19137.8 81.7246 0.730482
20436.7 87.7847 0.829362
19977.4 88.377 0.863171
18838.1 89.6148 0.858489
17056.5 84.3331 0.879929
17602.3 89.8269 0.975434
14831 85.7141 0.920558
14808.5 81.0638 0.929694
15564.2 88.9877 1.04662
14038.2 88.4338 1.13222
13617.1 88.6895 1.08419
12982.3 87.4089 1.12646
12506 83.4507 1.18935
11701.7 83.1572 1.2414
11378.2 83.1391 1.26945
10110.2 83.5172 1.21465
11834 85.3401 1.29397
10743.1 90.4195 1.41714
10118.4 84.709 1.55199
10484.5 86.8781 1.49945
10118.2 87.5103 1.57852
10495.2 91.1313 1.60761
9643.38 82.4072 1.58321
9013.08 84.7617 1.61535
8939.06 85.3873 1.6933
8796.17 88.2801 1.78606
9069.32 84.6846 1.75286
8455.27 88.0254 1.90479
8008.18 81.7788 1.81943
8069.78 87.2345 1.98043
7431.92 83.9255 1.93913
7360.1 87.9275 2.09669
6463.31 81.4986 1.97358
7106.27 85.0966 2.16708
6450.97 87.9316 2.3046
6345.11 78.8653 2.10137
6173.1 82.377 2.26426
6162.2 83.5541 2.3351
5437.76 82.7286 2.28587
6179.12 83.7343 2.40136
5549.21 84.1944 2.52757
5991.3 81.7032 2.52488
5124.6 83.2418 2.628
5384.31 81.4935 2.603
4760.11 83.491 2.81998
4898.99 84.2446 2.81076
4421.3 84.1252 2.89269
4468.22 78.9178 2.81651
4133.08 81.0384 2.88937
4257.16 85.6117 3.14604
4357.02 85.3224 3.15496
3618.03 79.6968 3.12478
3852.05 84.9339 3.3614
3738.98 82.9709 3.29518
4013.74 84.8052 3.43478
3684.05 83.3964 3.52556
3813.29 79.6402 3.35419
3397.64 82.1149 3.5906
3547.05 81.3855 3.63375
3169.74 77.7223 3.42349
3337.15 84.7822 3.88302
2990.94 77.0435 3.66749
2976.13 78.0667 3.71447
2934.5 82.5438 4.04282
2769.38 80.3743 3.96898
2849.66 84.0513 4.2727
2883.38 80.7813 4.1942
2746.27 81.7629 4.23654
2769.75 80.7215 4.31069
2864.71 84.1113 4.56546
2683.62 79.8541 4.44164
2435.7 76.1173 4.3118
2498.23 79.8074 4.63624
2259.9 80.2065 4.65565
2452.04 83.2744 4.96982
2245.27 76.4725 4.70215
2320.74 83.394 5.16001
2121.99 78.016 4.7945
2080.46 76.3497 4.87849
2120.05 74.8897 4.81252
2029.59 73.8682 4.8361
2053.58 80.329 5.34435
1847.92 78.1541 5.27289
2056.66 79.102 5.42556
1907.43 79.0535 5.54477
1900.65 76.6354 5.40013
1978.53 81.9771 5.80635
1749.39 74.9622 5.55273
1785.87 78.931 5.96338
1794.84 77.3893 5.81186
1526.84 72.5756 5.58979
1757.86 82.2316 6.47226
1556.67 75.6382 5.96774
1580.72 72.8182 5.84915
1552.03 77.699 6.33758
1503.97 78.454 6.42627
1635.59 74.213 6.26285
1500.68 76.4771 6.54659
1436.83 74.2745 6.4961
1475.51 72.6438 6.43077
1316.2 68.2808 6.04269
1367.54 77.6417 6.9711
1317.85 72.9119 6.69319
1299.49 75.2134 6.99252
1353.85 78.9487 7.40117
1316.49 78.6806 7.40323
1242.67 76.6976 7.34434
1269.67 77.3653 7.59245
1194.95 74.257 7.46186
1089.84 68.9956 7.00032
1221.35 79.9645 8.14928
1247.53 77.3551 7.89458
1114.61 71.9167 7.57428
1153.27 74.3748 7.82497
1047.34 72.7002 7.77736
1144.69 73.444 8.02872
1132.54 76.0915 8.26872
1179.79 71.4328 8.05631
1098.31 73.801 8.31756
1022 72.9302 8.27567
1084.44 72.9132 8.50427
1142.04 70.6533 8.29947
1049.99 75.1646 9.03615
1047.74 74.1665 9.0051
1066.44 74.7064 9.09246
1110.09 76.8622 9.45813
959.931 73.6907 9.27791
983.334 69.693 8.82518
1022.77 73.1713 9.37104
978.325 71.8037 9.44833
963.558 71.5066 9.35758
1022.62 72.7968 9.56913
925.828 70.7335 9.70351
992.995 73.4548 9.95828
970.366 72.9842 9.84015
960.735 72.4662 10.1795
896.974 73.6493 10.3595
948.804 66.7302 9.47644
869.161 70.5238 10.0557
923.454 68.9426 9.90534
932.604 74.2504 10.9891
847.517 67.964 10.06
895.747 67.2298 9.99677
902.405 69.7283 10.6206
874.788 71.4262 11.115
871.178 69.147 10.7657
901.797 71.8387 11.2011
810.886 71.1534 11.165
870.889 73.8906 11.7547
804.041 70.6825 11.5405
869.863 75.5853 12.1623
818.241 70.8191 11.7523
830.521 70.4272 11.7306
802.739 68.8514 11.6233
801.209 68.6265 11.6307
768.648 71.4353 12.0795
813.12 64.7276 11.2514
840.168 70.632 12.2328
876.15 75.3598 13.3956
797.56 69.1065 12.1829
856.078 68.1743 12.3795
807.133 67.2874 12.3115
816.406 67.9676 12.6354
813.873 68.1214 12.7711
816.217 68.6263 12.863
761.366 68.4574 12.8863
783.688 74.7861 14.375
780.851 67.5355 12.9843
732.89 67.3357 13.1136
789.176 72.5138 14.2335
762.989 69.3897 13.9539
768.849 68.9542 14.0386
711.903 66.9278 13.2893
880.329 67.9843 14.0943
723.59 66.8696 13.7956
811.402 67.3321 14.0475
695.522 65.7019 13.8658
788.904 66.2226 13.9952
753.534 65.1497 14.1062
784.456 67.8869 14.7947
687.891 65.3018 14.3617
757.165 70.2484 15.5529
696.326 63.8993 14.3356
734.486 67.9396 15.0216
747.971 68.1073 15.4525
733.303 71.0607 16.2372
774.789 69.4274 15.9166
717.523 67.7262 15.6705
744.63 65.2162 15.3145
698.717 67.1769 15.8641
711.325 65.0688 15.7473
663.933 65.0457 15.6452
740.282 67.3955 16.17
711.285 63.2594 15.9234
723.042 65.9997 16.2565
703.253 69.8072 17.2615
668.793 68.1932 17.1536
632.508 65.6623 16.9746
650.041 63.2991 16.1284
568.305 60.5986 15.7826
589.65 61.444 16.0874
669.961 66.8646 17.4441
646.164 66.182 17.6666
559.792 66.1155 18.0147
646.576 65.5778 17.3426
634.002 63.7656 17.4167
633.666 68.6495 18.9219
596.29 64.0661 17.502
572.742 62.366 17.3975
567.315 62.6221 17.555
571.125 65.464 18.5423
518.446 61.5879 17.6058
580.271 61.8861 17.5275
528.305 58.6845 16.8487
506.519 62.0899 18.1631
500.8 61.113 18.016
495.348 62.9015 18.692
526.093 66.3343 19.6344
487.182 65.666 19.6684
492.58 63.6797 19.6409
527.945 65.7292 20.0978
516.903 64.8463 20.1206
467.086 65.4052 20.1275
469.027 62.4297 19.4044
463.219 62.7813 19.2656
471.083 66.5397 21.2937
465.178 62.834 20.3267
436.781 63.331 20.2977
463.997 65.5048 21.0845
455.265 64.4968 20.8431
458.273 63.4551 20.7189
470.195 65.4204 21.8628
468.265 58.9403 19.7835
432.406 60.5342 20.2692
458.906 60.268 20.58
399.642 60.9113 20.7722
431.84 63.8634 21.9399
429.231 63.1317 22.1764
385.434 60.3814 21.417
404.747 61.1968 21.4347
409.574 62.946 22.2184
417.112 63.5775 22.5776
383.12 64.3181 23.2471
362.14 61.9223 22.1914
362.497 59.9826 22.0247
378.237 58.2366 21.4322
365.527 62.4001 23.0001
441.146 57.6344 21.1542
390.802 61.9853 23.321
864.576 62.1871 23.2856
467.113 59.4618 23.0673
370.521 66.653 25.0135
425.552 61.2887 23.2606
989.631 62.2482 24.3709
425.662 60.8989 23.3184
464.602 60.6747 23.6636
339.983 59.2103 23.8285
327.864 59.9703 23.9035
338.182 60.2318 24.0713
372.382 61.3589 24.7608
297.98 63.1083 25.81
372.559 61.3098 24.8359
296.408 61.1304 25.2489
300.662 60.5045 24.6997
324.521 63.0259 25.5059
297.92 57.5626 24.8386
332.328 62.1008 25.8015
315.959 59.2658 25.4501
329.578 62.2467 26.6447
316.485 60.8552 26.0346
329.107 61.787 26.6145
315.618 55.3673 23.8434
337.742 58.9256 26.3055
337.112 60.2357 26.2461
312.61 58.4656 25.7989
312.646 54.6175 23.8932
348.284 60.8213 27.1293
324.321 56.3077 25.2292
328.288 60.7803 27.5238
338.625 58.8805 26.9805
314.34 56.4598 25.8164
351.634 63.3823 29.1246
276.453 57.4241 26.754
311.468 58.8285 27.9485
287.477 60.3966 28.4606
292.659 59.6211 28.6611
300.765 59.2643 27.8675
301.295 62.8197 29.7073
295.309 59.5167 28.7243
277.196 57.6363 27.8584
286.678 55.4938 26.5541
278.41 53.531 26.7272
288.419 55.9716 27.8355
299.08 55.9309 27.9309
328.47 57.5854 29.0313
312.88 60.1116 29.5028
299.899 55.5882 28.1363
303.352 59.8414 30.493
336.757 59.1995 29.8133
293.454 56.2308 29.1071
312.665 58.6608 29.5721
283.583 53.854 28.2145
300.328 57.4856 30.1762
312.885 55.3713 28.983
321.76 59.0976 31.7599
294.086 55.1037 29.0463
258.73 54.3766 28.8842
337.128 57.0894 31.0425
317.108 57.0303 30.9559
354.052 57.903 31.5545
303.788 58.1323 31.5283
309.987 53.3099 29.2698
296.71 55.4012 30.7213
301.677 54.0396 29.5622
334.884 54.6689 30.1492
317.94 55.6851 31.2113
343.291 55.383 31.2469
317.378 56.7632 32.2411
301.62 55.194 30.9306
322.587 58.0861 32.9691
293.862 56.9234 33.0354
305.682 56.8238 33.126
316.735 55.2505 32.0041
264.276 54.7757 32.1171
313.456 56.3804 33.3455
302.582 53.4178 31.8505
310.165 54.6082 32.3858
313.767 55.2294 32.6816
310.301 57.3266 34.9369
306.624 57.3418 34.5722
321.232 56.974 34.601
303.173 51.9827 31.7587
304.385 55.3891 33.9452
319.038 57.5745 35.3379
268.102 53.1546 33.7324
286.13 55.8055 34.2215
300.136 57.4817 35.5589
281.041 57.1558 35.8484
259.904 55.1618 35.9317
284.702 53.7936 33.7882
266.979 54.9285 34.9558
271.362 54.1225 34.9168
292.948 53.0091 34.2501
298.156 58.2079 37.1277
267.102 50.4625 32.8804
272.358 50.4119 33.3092
260.217 54.8884 35.7796
276.937 54.4607 36.3842
262.149 52.9318 35.2887
282.945 56.6583 36.8482
254.147 52.8871 35.7529
250.009 53.621 35.9771
244.321 50.2082 34.5419
265.626 54.152 36.78
250.638 54.7604 37.2518
236.988 52.3551 36.1697
297.779 55.371 37.9152
257.762 53.5642 37.4248
262.923 53.9648 37.3432
251.617 50.2902 35.1667
245.079 50.8516 34.8155
242.742 54.349 38.171
255.202 53.4807 38.3157
243.877 50.5695 35.938
224.445 55.7159 39.7849
235.752 52.9347 39.1931
240.535 54.8346 39.316
215.992 51.1595 37.2322
263.246 51.0418 37.2141
235.41 48.1085 36.1432
242.959 50.7798 37.7407
253.498 54.6064 39.5668
220.219 52.0969 38.6246
204.483 48.9189 36.7311
233.098 48.89 37.0459
215.256 51.4854 38.5094
235.028 55.9981 42.1839
199.59 47.2935 36.4492
185.824 51.7309 39.0005
190.604 48.8259 37.356
189.81 49.7603 38.6343
204.831 49.1257 38.3262
192.82 52.8428 40.5198
187.223 52.6929 41.3524
202.671 53.6578 40.789
205.053 50.323 40.5337
195.806 49.546 39.3679
208.885 48.5378 38.4202
209.833 53.7533 43.1175
201.515 54.3716 43.5729
181.892 47.9551 38.1155
213.618 51.9244 41.353
178.465 52.039 42.8585
189.809 50.2282 41.8451
189.482 50.1445 40.6865
189.111 48.5594 39.987
171.597 49.4622 40.4118
175.438 54.5336 46.3494
195.577 51.8365 42.4102
174.79 51.196 42.2777
186.711 50.5283 42.8792
177.036 49.2464 40.7135
164.747 49.7689 42.6805
183.302 53.861 45.2327
203.186 52.4268 45.0306
174.109 48.9228 42.9778
185.447 50.0818 43.2912
170.827 50.8625 43.3795
168.64 48.8901 43.6663
174.853 50.6303 43.8909
155.063 49.1151 43.2236
174.532 50.6259 43.4814
149.039 50.6911 44.5521
168.547 49.9254 44.9111
172.987 48.5084 42.9019
159.313 47.7159 43.1092
165.691 51.6104 46.8247
173.479 49.5878 43.589
162.838 52.4455 46.8945
166.463 48.9102 45.6933
139.798 49.1395 45.5838
173.236 48.4906 43.6052
165.176 49.4955 45.4059
148.943 48.4079 44.2137
142.606 48.2207 45.0667
166.711 52.3041 49.4968
154.791 50.3264 46.7215
153.536 48.3049 46.1356
172.052 52.3015 48.3669
159.416 48.7793 46.5756
143.742 46.3567 45.1568
161.533 49.3305 46.2854
152.962 44.732 43.3655
150.772 50.1198 46.688
178.028 46.7342 45.0076
143.08 48.6648 48.3659
148.77 46.7968 44.9958
161.885 45.5842 44.9325
151.617 47.2056 45.8047
146.35 45.1122 44.8319
158.784 45.7795 43.8646
139.933 45.7905 45.6362
148.573 46.4371 47.1601
152.865 48.5073 47.7776
150.68 46.1013 45.7263
173.243 46.6452 46.93
145.449 48.3334 49.5097
162.284 49.3411 49.2957
166.317 47.2109 46.8571
159.3 50.4105 51.0804
140.876 44.9898 46.9928
147.416 47.5277 49.0258
161.01 45.032 45.8868
151.159 46.0839 48.6242
163.371 46.2146 47.9897
152.336 48.3121 50.877
164.485 48.1266 50.4905
164.414 48.2871 50.5992
152.037 46.9772 48.5416
174.853 44.6773 48.8363
159.429 45.9836 48.3321
159.282 44.833 47.846
180.827 46.4241 49.7786
159.223 46.0861 49.5713
158.12 48.1115 49.7339
172.984 47.304 50.744
155.45 46.1475 50.3439
163.599 45.6773 51.0122
143.92 46.5575 50.8554
166.52 48.883 53.9659
156.754 46.6282 51.7248
158.768 45.0509 49.1778
158.033 45.4851 50.9719
164.019 46.4839 51.1078
138.068 43.5049 49.4001
152.128 46.2249 50.4814
157.344 43.1706 50.0047
166.55 47.4005 53.0382
155.373 45.482 51.3779
155.786 47.2795 54.0773
158.902 46.1579 51.4598
168.194 49.2024 57.0917
156.482 44.5942 51.4089
164.586 47.7119 54.5303
164.105 46.199 53.2913
151.447 47.9993 53.5994
160.007 45.293 53.9869
154.618 45.3119 53.6375
167.387 45.4025 53.1953
148.799 42.5315 51.0331
173.91 44.4028 51.0625
149.687 45.5359 54.7274
168.583 43.6774 51.7385
146.863 45.5898 55.0596
176.762 46.6389 55.265
169.965 46.0321 55.5333
143.181 44.8231 54.1567
166.243 48.821 58.9749
147.714 42.9322 52.1091
156.156 44.0589 51.8837
152.221 39.8116 50.0941
149.475 43.6831 52.6078
135.594 43.2096 52.5219
161.049 43.9176 56.7588
152.69 44.9138 54.6554
147.209 45.1321 55.0672
134.279 45.1171 56.1118
148.779 47.4734 59.9748
147.74 43.4635 52.8413
147.562 41.4737 53.6422
122.309 43.3424 54.871
123.47 46.6969 58.014
136.666 44.7725 57.1613
137.788 45.2078 57.0344
121.575 42.2148 54.0566
141.058 45.2377 57.7015
130.507 43.8542 56.845
119.616 42.0253 54.9246
126.759 46.8224 58.3992
125.699 41.2993 55.027
138.218 46.2625 57.6596
117.505 44.1919 57.8939
115.517 43.1801 57.0423
131.856 43.4298 56.4804
129.391 43.9459 58.2149
123.492 44.6138 59.3946
124.707 43.6924 59.0907
139.843 43.5674 58.0347
128.07 42.4038 56.3824
121.183 43.5513 59.5898
124.714 43.6586 58.5004
134.367 43.6979 56.3915
131.404 42.97 58.0954
128.171 43.8455 60.3617
113.677 42.6845 57.1257
125.92 41.8209 56.4748
120.073 45.328 63.1969
124.041 42.6885 56.9672
130.876 44.1116 60.5607
111.221 39.0819 55.2205
130.72 41.7623 56.843
145.274 42.1437 59.5821
125.661 43.5967 61.1394
112.597 43.3852 60.1012
111.622 43.3991 60.7457
109.39 41.2848 58.3096
100.644 44.5279 61.4548
102.693 42.4858 60.5913
105.144 39.9228 56.8742
107.511 43.9213 60.7296
94.1993 43.6678 61.554
106.57 41.5277 60.0915
102.596 40.1227 58.489
101.151 40.7376 57.0969
93.5122 42.755 61.0391
100.716 40.6746 58.9466
99.424 41.2206 59.7612
98.725 42.7387 62.9815
101.94 44.676 65.3755
111.41 43.2031 63.8085
104.354 42.1131 60.7473
101.437 41.3488 60.5419
88.4214 40.8981 62.3054
109.32 44.8885 62.924
114.25 41.7967 61.7807
94.724 42.0628 63.7262
104.602 41.7845 62.5528
97.1778 40.5875 62.2727
92.3335 41.2889 59.6512
89.534 39.4911 61.4749
100.19 41.0205 61.255
98.8558 43.6049 64.5731
95.2054 42.04 64.6542
89.7098 39.6343 62.008
95.6916 43.0212 64.4582
102.504 42.6734 67.09
90.6786 42.6103 63.9039
111.15 42.0494 63.2991
95.3822 37.7519 60.2565
101.718 40.8362 63.6039
98.2274 39.7213 60.9093
93.9121 40.0608 61.4533
99.0856 42.6275 65.3379
91.069 40.444 64.2023
92.118 42.7948 68.6923
105.906 40.379 61.9679
91.5183 43.0248 68.5699
92.5382 41.6967 66.9184
94.1082 41.3109 65.1882
95.7414 39.7502 61.8943
96.301 39.7643 64.9748
92.911 42.4044 67.1904
108.939 40.9834 65.7236
97.9302 41.3904 65.0461
88.7286 41.1159 66.7329
96.8744 41.9279 67.8579
105.428 41.2261 67.7987
94.6941 42.0996 68.493
102.275 39.7371 63.7046
95.4878 40.4971 65.2707
109.448 39.532 65.9149
90.5938 41.2467 66.7569
94.5095 40.4322 63.6569
102.772 42.2032 70.5979
96.6847 39.9808 67.5279
93.6788 39.9922 65.4856
93.3398 40.5845 66.1637
95.5761 38.6555 65.2843
96.218 43.0655 73.0942
100.355 41.7945 67.6038
96.203 38.7167 64.9503
94.1641 42.5902 71.6126
94.1288 38.1816 66.2605
104.972 39.6422 66.3937
100.267 42.6585 69.6433
108.583 39.8298 67.7157
109.602 41.796 71.4194
111.259 41.0444 70.8018
94.9914 38.0229 65.4511
99.7495 39.8597 70.2066
116.292 42.3256 71.1636
108.551 37.2793 65.2645
94.3227 37.1086 64.9573
100.866 40.9247 72.0947
87.014 42.4434 73.9814
96.3517 41.179 68.3274
97.7907 37.5241 66.4852
88.3251 38.2162 66.1387
94.1586 40.2361 69.8433
95.9512 39.2286 70.2681
96.6371 38.0906 66.1913
92.0163 41.378 75.9196
107.111 42.3899 74.175
104.58 38.4759 68.2077
93.8685 40.8045 72.8312
113.49 39.4769 71.4137
95.5933 38.9563 67.7161
97.8994 39.3839 72.8912
95.8815 38.8681 68.8249
95.9932 36.8854 67.2363
108.191 39.294 70.7716
97.4967 38.6939 70.2607
104.37 40.4307 72.7678
92.6599 40.0405 74.1584
104.863 39.2985 70.8521
101.587 38.3835 70.8191
94.121 37.9572 71.5608
94.3569 40.108 73.789
97.3111 37.0551 70.7084
100.852 40.3028 73.4531
89.6218 36.5934 68.0322
88.9104 39.0637 73.1686
92.9867 39.9348 72.2199
94.2869 37.4052 70.6242
98.7622 39.681 72.5606
83.3834 34.6914 65.7285
97.6333 37.2412 68.6684
92.3928 37.445 69.4316
88.5457 37.3424 70.8339
95.0163 38.961 73.0163
97.7439 37.3727 69.5337
90.9259 37.8801 72.2763
96.8578 37.6981 71.8327
91.5456 37.1572 69.9027
97.8656 37.04 71.9739
88.6062 38.4741 73.3222
87.3561 37.0391 69.9041
79.2434 38.716 74.9322
87.0867 36.6538 72.8212
85.9298 39.6215 74.4998
78.758 38.2707 76.4496
80.9537 38.3727 74.5574
82.5458 36.5452 73.1731
87.0687 38.8041 74.0313
75.2837 37.6506 72.5219
83.9652 38.6547 73.576
76.1747 34.3475 68.8473
86.6168 37.3983 73.1737
78.5076 36.0111 72.3755
88.2487 38.8784 76.2285
86.155 37.0457 74.9341
95.5607 38.2148 73.8514
70.7667 35.0994 72.9899
80.3966 39.9695 78.801
77.0618 38.1732 76.5601
69.825 37.0979 72.285
68.3396 36.7526 74.8016
79.9228 35.6091 72.789
72.0255 37.6935 74.7202
80.6171 37.8158 77.6882
71.9774 37.7412 76.5894
81.981 37.8069 74.9281
75.5931 36.3847 73.7145
82.3728 36.3396 75.545
77.3437 36.7616 77.5178
90.4151 36.7179 73.7404
82.3141 36.8763 74.9061
70.8113 36.5221 77.9361
72.6699 40.6171 82.7334
73.6587 37.0798 74.6129
76.5689 36.2767 77.667
74.5508 36.267 73.315
66.2311 38.5703 79.6597
72.2312 39.6704 81.7592
74.4915 38.4356 79.31
77.5531 34.8179 73.3769
70.9996 36.4818 76.1621
77.234 36.5205 79.7017
72.1616 37.0705 78.1735
69.9144 37.493 80.3098
68.9083 36.6834 78.1951
75.1785 37.1407 78.4826
64.8758 39.5481 81.7982
74.0135 35.7844 76.2067
63.2426 36.4122 76.3134
67.1117 35.7497 77.1263
58.9949 35.9772 76.6544
79.6434 35.8713 75.2236
65.7774 36.5346 78.7152
60.1418 37.5763 79.5831
63.6943 36.7487 81.2218
65.1749 35.297 77.4138
60.859 36.7813 79.2435
58.1895 35.6591 78.2618
57.9168 37.9042 83.3757
59.3815 37.7935 81.0046
63.047 39.0265 84.9712
70.1755 36.4624 78.8704
68.5248 37.1851 81.5907
61.335 35.9728 78.3623
63.2878 34.219 76.1009
71.5603 36.5886 81.1128
73.0531 35.3446 80.3076
67.1936 37.7064 81.0747
62.0872 35.128 80.9846
71.804 35.8598 77.4956
70.7274 34.873 74.5033
72.3383 37.912 86.8789
70.7248 36.2068 82.6772
68.2361 34.9589 79.0325
63.8172 36.8342 79.9307
62.9403 36.521 83.2055
65.1946 35.8208 81.4518
66.4256 38.84 86.4761
61.8602 38.13 84.074
68.2612 35.782 82.7928
65.7153 34.1017 75.7574
70.7554 33.7969 76.6632
65.6424 34.4381 81.2763
71.9473 35.9452 80.529
64.323 35.366 81.2683
71.4864 35.7027 83.1123
71.1663 37.4906 86.0423
80.4167 39.3799 87.9296
70.9418 35.504 81.0498
73.7279 35.4931 85.8225
79.026 36.9507 82.7271
73.5454 34.4668 79.6736
72.4487 35.8669 80.0578
73.7213 33.1946 76.5108
66.8901 34.8709 82.2763
79.3552 34.0066 81.9457
77.9611 35.5887 84.6255
73.3703 34.9412 77.1067
70.8014 35.4324 81.6519
73.0608 37.0135 88.7974
69.2724 34.3282 81.2652
71.5144 35.2016 84.8978
67.7764 35.2287 80.7245
72.2565 35.348 84.3981
72.438 35.5659 83.3719
70.2095 37.0577 85.6715
70.574 34.3802 86.4842
68.307 35.73 81.8592
68.5429 35.3043 83.7217
65.3544 35.484 84.9676
66.711 35.4326 88.9772
75.9718 34.7269 79.9909
70.054 34.0125 82.1074
72.4957 37.7771 90.8313
61.2201 34.1843 83.8612
69.4912 36.1409 88.2343
77.4154 33.9134 85.1449
78.8089 35.1945 85.1992
75.4965 34.0248 82.3762
72.5121 33.1348 79.9976
66.6264 31.9884 78.9187
73.0123 34.7286 82.853
73.7844 37.092 86.8833
71.8154 34.1306 85.0482
71.1769 35.6497 89.368
79.0788 35.1107 85.3943
63.2378 32.8512 83.3646
67.9642 35.9487 87.424
73.9328 34.9763 85.1861
69.2727 32.7129 82.2766
72.0958 34.4689 86.5016
71.1102 34.6951 85.8082
