# pn-170911/CsIIA-av-AMC2-1280-1959.psd
# Power spectrum* (dif=0,1,2) (really just |FT|^2)
# NOTE: only the first half! (symmetric)
# weeks: 1280-1959
# 582 clock-days, 569 excluded
# PSD: 1441
95579.9 2.15563 0.0297709
2.38108e+06 32.674 0.0242803
1.51248e+07 328.758 0.0303923
1.73105e+06 62.189 0.0253594
2.37948e+06 165.487 0.0342411
697714 67.3117 0.0288807
457067 65.4275 0.0330009
312734 56.8968 0.0347764
247711 64.9338 0.0454993
212495 65.4377 0.0477637
164811 58.1628 0.0519541
131844 61.7139 0.0566636
113081 60.0912 0.0649854
98421.5 59.9218 0.071742
81766.3 58.5962 0.0797451
75161.2 63.009 0.0927706
69720.7 67.8172 0.100167
56179.2 63.7518 0.110148
50911.7 59.2937 0.114464
44353.6 60.0672 0.130043
39159.9 59.3895 0.133995
35725.7 59.5341 0.147874
34058.9 62.2212 0.162955
31295.2 63.5604 0.183234
27513.2 61.4729 0.194993
24472.4 56.6613 0.194249
24110.3 60.6446 0.216519
22512 63.0105 0.244871
19796.5 58.7576 0.238506
19237.4 59.3559 0.261207
17873.5 56.4826 0.265215
15787 59.0729 0.281922
15872.9 62.6041 0.331921
15790.4 61.2571 0.347594
14544.7 63.3499 0.371459
12963 60.923 0.386727
11721.3 57.4145 0.388274
11708.2 58.7858 0.400975
11371.7 59.1075 0.423733
10431.8 58.9556 0.438637
9298.06 56.3272 0.451659
8977.65 57.3356 0.480197
8310.72 55.9769 0.496269
8736.98 60.5504 0.550938
8494.98 58.0294 0.553969
7713.32 57.4662 0.580333
8126.93 64.0451 0.676628
7398.19 59.7605 0.651885
7111.99 60.7509 0.686056
6269.97 55.4701 0.654712
6164.51 59.1141 0.747015
6116.07 61.0161 0.768507
5725.29 60.0169 0.785371
5968.6 60.9995 0.840625
5473.24 60.2405 0.856812
5118.77 59.4085 0.863695
5234.38 63.2434 0.949259
4923.18 61.1468 0.961278
4451.64 59.7798 0.965573
4267.62 55.7432 0.935954
4470.48 60.6657 1.04907
4398.04 57.1591 1.0331
4087.52 61.1521 1.15529
4033.14 57.7348 1.11714
3806.89 57.6303 1.12891
3799.62 61.2661 1.25442
3501.55 56.6453 1.20378
3435.79 58.4141 1.27783
3288.73 55.7521 1.2451
3100.21 56.1036 1.26707
3222.76 59.7367 1.40436
3208.38 59.6191 1.43689
3051.25 57.44 1.42861
2785.83 57.1743 1.46668
2822.45 57.3449 1.50131
2684.55 55.4211 1.51057
2848.65 62.8146 1.74191
2486.52 53.5903 1.53006
2287.21 56.0978 1.64523
2346.84 55.4886 1.65056
2588.6 58.3236 1.78177
2448.85 59.8894 1.88386
2288.1 57.1999 1.84367
2276.59 58.2814 1.92944
2285.12 58.8348 1.98115
2051.08 55.0898 1.88523
2054.13 56.0222 1.9942
2004.24 53.6231 1.92093
1891.29 51.8067 1.95927
1977.95 60.2631 2.27893
1979.43 59.4839 2.28604
1744.69 52.4829 2.09009
1784.74 55.8584 2.23985
1744.19 55.0479 2.28953
1699.27 51.7265 2.20383
1768.62 57.0259 2.44832
1640.04 56.6275 2.47177
1614.53 58.6804 2.64634
1596.44 54.7056 2.49255
1621.26 57.0598 2.68911
1467.42 52.6641 2.53085
1480.58 54.1254 2.61248
1394.88 54.6205 2.70601
1453.85 56.819 2.86543
1342.77 55.6933 2.89414
1361.34 55.8275 2.93852
1432.14 54.9893 2.94112
1376.71 58.2176 3.14845
1338.31 55.2719 3.05896
1242.27 53.9844 3.06239
1306.62 56.1539 3.22049
1286.72 56.0679 3.29727
1168.31 50.6702 3.03278
1124.17 52.7574 3.23232
1130.05 53.7934 3.32588
1143.53 53.4184 3.37501
1081.82 52.6337 3.38262
1064.86 53.8265 3.48263
1046.33 55.2812 3.66064
961.551 50.0128 3.39216
1080.13 54.2598 3.7417
983.159 50.2411 3.49906
954.839 50.6466 3.60596
893.112 48.002 3.45276
937.608 51.7035 3.78027
950.042 52.4016 3.85951
1018.96 58.3686 4.4336
883.44 53.2116 4.04742
898.732 53.4152 4.16732
958.578 56.7606 4.44267
849.737 49.9445 4.02311
829.791 49.9766 4.05378
881.997 55.6971 4.57104
771.66 50.5038 4.25778
776.17 50.5373 4.30964
722.495 49.0649 4.24688
833.196 54.9929 4.82691
754.877 52.1445 4.61059
783.033 52.966 4.81109
711.37 49.6805 4.61254
703.745 50.214 4.6709
673.591 49.3088 4.62085
697.672 51.0744 4.84542
731.571 52.6426 5.12146
680.213 52.7241 5.1983
673.823 49.8831 4.95316
697.675 51.9893 5.19606
642.063 49.7779 5.08936
662.115 50.6591 5.23858
629.083 51.6251 5.45768
614.073 47.5466 5.02329
598.14 48.8732 5.31247
622.922 49.3997 5.44184
588.392 49.7192 5.42534
582.596 50.2625 5.60059
569.987 48.7981 5.52263
580.433 50.392 5.81442
559.41 47.8378 5.51155
527.379 46.5781 5.47099
536.396 50.4336 5.97155
567.107 48.3706 5.85385
548.188 49.1963 6.03731
550.47 49.9379 6.14664
500.702 46.6622 5.91787
506.183 48.5028 6.14269
521.495 50.6982 6.48922
516.648 50.2025 6.47764
512.477 49.4342 6.63869
486.466 47.4468 6.13189
478.06 48.4869 6.54333
504.921 52.1782 7.09769
477.69 50.4892 6.98399
470.606 47.0516 6.57531
452.735 48.4818 6.80927
443.36 46.4688 6.68584
460.049 51.2264 7.34522
465.63 49.021 7.15718
434.363 50.2948 7.37171
427.47 47.1786 7.08723
425.52 45.5995 6.81963
443.185 48.9572 7.43196
410.454 49.6704 7.65707
443.702 52.6938 8.25844
412.472 48.0832 7.56413
376.601 46.241 7.28408
398.165 48.6496 7.86268
396.927 47.9626 7.82206
377.411 46.0958 7.64987
376.45 45.7368 7.53002
369.406 44.2929 7.49711
351.918 41.7702 7.09029
354.456 44.9119 7.76255
362.373 44.5801 7.61888
356.126 44.698 7.77229
343.957 46.0962 8.15273
340.041 45.9719 8.23684
355.752 44.1175 7.83126
332.985 45.031 8.20897
352.287 45.202 8.27685
327.409 45.4506 8.55076
338.395 46.2735 8.50125
301.475 41.1392 7.84863
310.265 44.7414 8.60333
313.968 43.741 8.47675
317.441 43.6682 8.44737
316.57 45.7752 8.99283
306.188 44.0044 8.80352
297.006 42.2313 8.41592
293.761 42.1404 8.5536
295.743 46.0557 9.34513
298.417 44.0942 9.1823
295.282 42.594 8.83285
291.923 44.8001 9.27921
294.816 45.1577 9.59916
276.56 43.6613 9.36237
267.948 42.8307 9.25703
281.377 42.3492 9.33013
270.558 42.9346 9.59545
287.489 45.9586 10.2771
265.751 42.8011 9.52613
252.517 42.6301 9.59781
242.944 41.9435 9.45973
252.847 42.7613 10.0056
239.437 39.9325 9.14438
252.985 42.3668 9.90268
245.549 41.1837 9.80524
249.303 44.419 10.5304
240.174 43.1641 10.2501
241.015 40.6744 9.97304
242.976 41.2212 9.92916
240.585 40.913 10.1626
220.327 40.2077 10.1469
226.541 40.9224 10.0648
225.652 42.4884 10.7166
231.035 41.7446 10.7964
242.153 44.0908 11.3907
228.016 40.5365 10.3916
220.364 42.8325 11.1963
220.941 40.5866 10.8335
207.998 39.8716 10.7281
214.127 42.5125 11.2335
230.653 42.9536 11.5945
215.811 42.4347 11.6107
207.07 40.3364 11.1778
217.633 42.1385 11.5855
211.38 41.4551 11.4717
207.251 42.4082 12.0691
200.793 41.001 11.5791
206.071 42.9293 12.3652
197.113 44.0682 12.761
201.971 40.3129 11.6725
190.745 41.0213 12.1859
195.988 41.1685 11.9314
192.42 40.3899 12.0054
190.943 39.34 11.6803
198.604 42.5448 12.9132
190.038 41.9676 12.701
188.91 41.6171 12.7282
190.579 40.1002 12.1331
186.277 43.1188 13.4368
183.748 40.1536 12.7648
173.805 38.6737 12.1889
178.856 40.8692 12.8865
172.491 39.8324 12.7627
183.731 39.3163 12.6485
172.905 40.6328 13.1477
168.484 38.1538 12.4606
171.28 39.4642 12.9538
168.658 38.9698 12.944
165.497 38.4625 13.1695
167.863 36.1093 12.2379
167.59 39.9066 13.6774
170.929 42.2064 14.3849
161.987 38.2846 13.3701
151.068 37.4948 12.8559
159.685 37.5998 13.3573
150.814 39.2428 13.928
154.081 38.07 13.401
165.086 41.5347 14.7677
165.872 41.4684 14.9252
151.827 38.3685 13.9362
148.578 37.0015 13.3747
152.137 40.3972 14.8011
147.839 39.0498 14.6426
142.828 35.7711 13.1145
148.415 39.248 14.6246
146.633 38.7965 14.7283
155.135 40.6462 15.3425
144.745 39.2762 15.1083
143.009 38.1587 14.6245
139.787 38.2232 15.0722
137.491 38.2933 14.8725
134.2 36.4925 14.414
137.063 36.6416 14.6106
131.733 37.8221 15.1463
143.965 39.5051 15.7507
137.668 37.5445 15.0145
131.388 36.3412 14.6976
142.071 39.8129 16.0089
122.987 37.2698 15.4306
133.138 37.6243 15.6524
133.302 36.6376 15.0938
123.554 36.3569 15.1082
120.955 36.4153 15.6108
127.518 35.1834 14.6265
121.466 34.7255 14.8972
121.697 38.0792 16.0544
120.739 36.2675 15.4908
118.378 37.0414 16.4821
123.498 37.0279 16.5447
118.749 35.8517 15.787
120.808 35.2829 15.9298
113.463 35.9156 15.7647
111.088 33.5806 15.2644
125.181 39.7996 18.0701
121.449 36.8405 16.4324
111.577 35.6565 16.1281
112.202 33.9637 15.653
118.17 36.0173 16.9827
119.288 36.5386 16.4955
111.272 37.2231 17.163
112.372 36.7453 17.1312
108.52 33.9968 15.8019
102.943 34.3793 17.0291
105.673 34.1401 16.2353
107.991 34.2725 16.4924
107.478 35.1013 17.0548
110.831 35.993 17.4557
102.861 32.1924 16.0152
104.316 36.2413 18.0247
111.807 37.2388 18.2455
98.4692 34.3066 17.0886
104.293 35.7663 18.1169
106.008 35.6318 17.8686
104.804 36.0595 17.8164
103.619 34.2851 17.9045
96.8432 34.8127 17.8138
95.6524 34.1424 17.4662
101.352 34.3032 17.7018
92.1391 32.6684 17.2605
94.0375 32.8914 17.3088
92.6488 34.8316 18.5457
94.3285 33.735 18.1628
95.2788 33.6087 17.8125
99.2305 34.4131 18.3312
94.7287 34.0618 18.2021
91.934 32.6767 17.7114
92.7404 32.7696 17.9433
97.6533 37.4503 20.2066
90.6404 34.1097 19.2835
89.1044 32.132 17.6
93.7242 34.3591 19.1142
97.2549 37.0587 20.6751
84.5034 30.8132 17.5617
82.3382 31.349 17.6282
83.5697 32.6667 19.0358
91.3029 33.7185 19.1698
88.2045 33.2131 19.2344
82.8933 33.7672 19.9543
89.4228 36.2115 20.5808
82.8069 30.3399 18.0624
82.3377 34.1938 20.3029
81.1626 31.4689 17.977
80.5828 32.1429 19.1739
85.9407 31.8686 19.2144
77.4993 31.2614 19.2086
78.169 28.5058 17.2415
79.2114 33.2429 20.121
86.6223 33.2785 20.4072
80.7517 31.169 19.3805
72.5787 30.1968 18.6652
83.4202 33.7791 20.5678
74.9927 31.3804 19.8282
79.7083 34.0706 21.1345
79.9918 32.6676 20.7259
76.2464 32.2287 20.3267
80.0217 34.9592 21.9356
76.5291 31.7185 20.2013
79.9354 32.6084 20.7042
76.6605 32.6906 21.118
74.1826 32.0421 21.1739
71.3582 29.5487 19.2005
75.1402 32.6369 21.2532
73.4116 31.6865 21.0379
70.1762 30.2198 20.4472
66.5794 28.6877 19.1125
68.8928 30.403 19.88
66.9877 30.009 20.4931
69.3182 30.542 20.7329
71.0834 31.648 21.7707
71.2456 30.6851 20.7276
65.7633 29.8463 19.8865
70.2021 30.3615 20.8853
72.6859 31.922 22.2234
66.8988 29.9635 20.435
63.2487 29.4424 21.2488
70.2017 31.8746 21.9572
63.4011 29.0608 20.798
68.0922 31.2273 21.7463
68.2479 28.8753 19.7324
64.5195 30.622 22.2499
59.4427 28.0957 20.727
68.8653 32.3255 22.6248
71.5148 30.5922 22.3084
63.1937 28.7511 20.993
64.6491 31.2137 22.7718
60.6653 29.4636 21.8269
59.5667 28.673 21.4761
65.6702 31.1825 22.8545
63.408 28.9845 21.4089
61.5719 30.6072 22.9128
62.8099 31.3352 23.6271
60.2448 29.1611 21.9162
58.5755 28.3955 22.0481
60.565 30.7939 22.7485
59.8268 30.8381 23.617
59.4143 29.2856 22.8075
62.2924 31.7574 24.4327
59.9501 29.5756 23.2402
56.4639 28.5722 22.2301
54.7386 27.7295 22.014
60.7071 30.0927 23.4734
59.6108 30.0642 23.2458
57.3595 28.8812 22.7355
56.4226 28.7411 22.83
58.9121 29.9992 23.9702
59.1356 30.0784 24.212
53.4236 26.7662 21.8377
57.5216 27.6856 22.3304
56.001 29.3003 23.9557
53.6816 28.0334 23.0165
58.8621 30.2772 24.3918
52.1733 28.7697 24.2795
57.4899 28.3458 23
56.0721 30.6336 24.7411
47.9558 26.5679 23.4307
56.473 28.1206 23.0896
54.5911 27.4633 23.0144
52.3548 28.7897 24.4582
55.584 28.4797 24.1675
51.1071 28.2424 23.6889
52.8641 27.5556 24.0356
52.4577 27.4727 23.6243
50.7786 26.434 23.0159
51.8867 28.0365 24.4891
49.7726 27.6625 23.5087
51.9213 27.3521 23.9874
52.416 27.3891 23.9749
49.7978 27.6174 24.4469
48.9922 27.6596 24.977
50.198 26.9216 23.2695
45.616 26.0507 23.7138
45.6624 27.2324 25.1481
51.9019 30.211 26.9583
48.8049 27.6733 24.7826
46.8195 28.0221 25.9755
49.3127 26.9599 24.3159
48.8422 28 25.2618
45.6721 25.8988 23.7939
44.6566 25.3073 23.894
47.6632 26.554 23.9741
47.4105 28.7657 26.4421
48.2294 26.4841 24.1535
44.6664 25.9559 24.7177
49.0161 27.5427 25.9057
46.3329 26.9432 25.4639
46.7252 25.2368 23.9273
44.277 25.8027 24.8839
46.6146 26.3599 25.2058
45.1135 26.1887 25.0595
46.1658 26.8652 25.5674
42.9732 26.724 26.9711
45.9316 28.4986 27.9268
46.7462 26.8626 25.9339
46.44 26.8934 26.4773
44.8313 27.0567 24.6827
45.6735 27.3479 27.1524
43.9598 26.7495 25.6949
41.8697 25.1544 26.0344
41.7348 24.4013 24.5064
41.3625 25.9265 26.2741
41.5962 25.1641 25.3
45.1772 28.0526 28.1866
40.506 26.2003 26.2426
42.3865 26.859 26.8881
41.708 25.4942 26.472
39.7727 24.6204 25.4553
42.7705 27.7324 28.2263
41.0758 24.6907 24.9819
40.74 25.5297 27.2353
40.2681 25.1959 26.636
41.2554 25.7489 26.2902
41.5292 26.1968 27.2876
42.373 26.3272 27.3485
39.5971 24.5934 25.994
39.1193 24.5137 26.0533
41.3565 25.749 27.6958
42.6758 27.4569 28.6741
37.84 23.982 26.2542
41.1827 25.406 26.7677
40.0524 26.5696 28.501
41.8216 27.1831 29.6282
41.0691 25.9039 27.9369
39.0665 25.62 27.7781
39.979 25.1122 26.6559
38.803 25.3271 27.6577
37.9576 26.2031 28.1531
35.5933 25.0139 28.2261
34.6546 22.8136 25.3011
35.3794 23.5288 26.9777
36.9752 24.1577 25.6856
36.597 24.1528 26.9084
36.6149 24.783 27.3183
35.6315 23.9311 28.0026
34.682 23.0407 26.4261
37.7125 24.5756 27.5949
34.5041 22.6425 25.8396
32.6598 23.4201 26.1963
35.0795 24.0497 28.3841
34.6304 23.9375 27.4412
36.917 23.2159 26.0328
33.2649 23.7255 28.4159
36.3933 23.8468 26.3096
34.9421 23.6121 27.8266
33.1316 23.3849 27.8838
33.4213 22.6301 26.3675
31.9791 23.4497 27.7665
33.2894 24.1665 29.0269
33.7517 22.997 26.8521
31.9526 23.7333 28.1171
32.7742 22.1269 26.5136
32.3983 22.6145 26.9941
32.1225 23.7035 29.4322
34.8993 24.5038 28.1449
31.9464 23.5524 29.0243
30.7809 21.2214 26.5503
33.437 22.5554 26.6382
33.4835 24.8678 30.8634
32.7133 23.3914 29.0669
33.5405 23.7736 28.6215
30.1814 22.465 27.9855
31.5729 22.7254 27.7356
31.5513 22.9775 29.1436
30.7908 23.2276 29.6798
33.1541 24.3644 29.7193
31.1022 24.5422 31.2465
32.7541 22.8076 29.5397
31.8792 23.6424 29.9651
31.595 22.6911 29.8093
32.3794 23.6221 28.4725
30.8229 23.5404 29.0322
30.4485 22.2922 29.192
29.1177 21.3546 27.1903
30.6117 21.3968 28.1767
29.6546 22.2196 27.5523
29.573 21.1717 27.8269
30.1168 22.5152 28.9738
29.024 22.342 28.7144
27.1934 20.4362 26.8872
28.2 21.9128 28.7177
31.0842 22.9313 30.0971
26.535 20.2297 26.3836
30.9379 25.8781 33.2304
28.9155 21.7996 30.322
26.4509 20.6122 29.0974
29.9412 22.7566 30.1854
27.6683 20.883 26.978
27.6497 18.7465 25.9112
30.797 23.7314 31.2014
28.4089 21.6396 29.1372
26.5876 21.8004 29.2185
26.9241 20.9447 30.2826
28.0529 20.6873 27.5508
28.0302 20.9965 28.8384
27.8429 20.3489 27.6757
27.7629 21.2951 28.9301
27.1773 20.9715 29.9716
28.6946 21.4029 29.2525
25.7908 21.2188 30.3789
28.0107 22.0403 29.7288
26.8728 20.3123 28.2711
27.3118 21.1577 29.8903
25.3911 19.5253 27.0146
27.8799 22.5944 31.6778
27.0882 22.9437 32.5307
27.1272 21.3755 30.6959
26.2989 21.6709 31.2084
26.7802 21.3225 30.9091
26.993 20.9215 29.3999
24.4776 19.5228 29.3917
27.0041 21.3168 30.0145
26.5351 21.0145 29.5702
26.6844 21.3618 32.249
26.0122 20.6174 29.6773
27.5337 22.0338 32.0882
26.3524 21.6947 32.8507
26.0685 20.337 29.1531
23.9568 18.7892 27.5763
24.8773 20.4937 30.6684
26.958 23.0526 32.8863
25.421 21.3934 31.9679
25.4466 19.835 28.72
25.1217 20.3786 30.093
24.1256 19.1776 28.6079
23.5889 19.2417 29.1647
24.0332 20.052 29.2526
24.0675 19.5203 28.3542
24.3636 19.8408 31.3614
25.2708 20.6565 31
24.4457 19.933 30.1582
24.5522 19.6873 30.2409
23.1043 19.5438 30.7101
23.5821 19.2891 29.6531
24.9396 20.9631 31.7755
23.4152 18.5059 28.4797
23.3534 19.525 30.7638
24.1983 21.6971 33.2871
25.465 21.7929 32.6971
23.2134 20.3889 32.1231
22.5807 19.8854 32.4281
24.2312 20.5228 32.4486
24.3003 21.5628 34.7617
22.8765 19.6733 30.4178
24.7079 20.1808 31.0324
24.5919 21.5695 33.0557
23.2795 19.1338 31.2262
23.2847 20.0838 31.0284
21.6436 19.4401 31.6068
22.6254 19.6514 30.2815
22.8357 20.5993 33.653
22.3096 17.8737 29.9234
22.8067 19.6887 30.7875
21.9596 18.8709 30.5863
22.6137 20.9409 33.3114
22.0553 19.6332 33.1147
22.3102 18.7909 31.0599
21.7731 19.3171 31.6283
21.8896 19.2087 32.4458
21.9434 19.2719 30.396
21.9967 19.3457 31.2979
20.896 18.6426 31.2431
21.2457 18.7321 31.8668
20.4851 16.8455 27.6217
20.3166 20.0844 32.9569
21.5412 18.3407 31.9616
21.6727 19.4001 31.8161
20.7651 18.9527 30.9652
20.6871 18.3316 31.2563
19.156 17.4339 30.1064
20.798 19.2972 32.6012
22.0997 19.4593 33.3563
21.5064 19.0091 32.5352
22.028 20.2253 32.7789
20.7332 18.6964 30.9426
20.1457 17.4344 29.9331
19.3394 17.3153 30.2235
19.8844 17.4933 31.4205
21.29 19.145 31.7421
19.997 18.1752 31.907
18.9798 17.1253 31.1229
20.208 18.8811 31.5232
20.2905 18.9633 32.6335
18.6401 17.4004 32.0276
20.837 17.9912 28.7566
18.7746 17.8013 33.3848
19.4107 17.9371 31.3792
19.6883 17.7777 30.8837
19.7839 18.3476 32.2143
18.5094 18.0821 32.3209
19.6733 17.2134 31.2757
20.0637 17.533 30.6009
20.229 19.737 36.3223
19.8673 18.2517 31.0152
19.2228 18.0305 31.0676
18.6657 17.2575 31.8926
18.2673 16.6714 30.5358
19.6895 18.803 34.5047
19.4678 17.7251 32.5719
19.3147 17.5831 31.9758
18.5638 16.9222 31.0918
19.5263 17.3296 30.9681
18.8683 18.9521 35.0318
18.7214 18.1906 32.6802
18.1307 16.5555 31.378
17.9169 16.2346 30.0893
17.6086 17.0364 31.3453
19.2213 18.3277 33.8618
18.8225 16.3757 30.0405
18.2145 15.9687 28.4358
17.1993 17.3813 32.5133
18.3857 18.4807 35.3509
17.5881 16.9698 32.2079
16.9307 16.15 30.071
18.3178 17.2645 32.8546
18.152 17.2936 33.4425
18.7567 17.2646 31.7097
17.0828 16.0217 30.6944
18.5195 18.2463 33.8987
18.329 17.5737 33.2843
17.7028 16.3586 31.3404
17.0764 17.4902 33.9053
18.2294 17.8993 34.0357
18.3235 16.9158 32.1177
17.4206 15.8735 32.6725
18.2164 17.3082 31.4332
16.4265 15.5664 30.9701
17.6305 18.519 37.0757
18.106 17.6177 33.1266
17.5427 17.527 35.5879
17.9403 18.1143 34.0461
17.0916 17.6078 35.1413
18.9638 19.1003 38.9018
20.2469 18.3992 32.8852
16.1735 15.5763 31.8461
16.6267 16.8317 33.5338
16.6023 16.3284 33.1309
17.8403 18.1572 34.6875
17.2235 16.4161 32.4645
16.1085 15.5049 31.703
16.0787 17.2529 34.6612
16.832 16.224 32.1713
17.318 17.1532 33.5703
16.5801 16.6809 32.3426
16.1476 15.4938 31.6154
16.3038 16.116 32.0268
15.9489 15.9473 32.5107
16.2972 16.2565 33.7097
16.7113 15.5915 30.7859
16.1155 15.2127 30.074
16.5519 15.8486 32.4612
15.8489 15.1807 32.2336
16.1553 15.7982 32.9983
16.6622 16.2104 32.5337
15.0072 15.2096 31.3074
16.238 16.6142 34.3908
16.8477 15.4987 31.0066
14.8895 15.4671 31.8382
15.301 15.0702 32.3612
16.8182 17.2181 35.4671
15.7884 16.0051 33.0788
15.9834 16.398 33.5943
15.6423 16.3661 34.9429
16.1817 16.1834 33.535
14.875 15.879 34.0593
15.4158 16.1182 34.6648
15.6103 14.8482 32.2906
15.743 16.9892 34.0783
15.3937 15.423 32.4142
14.5669 15.1441 32.0254
14.9338 15.5845 34.0624
15.3641 15.6455 32.4391
14.3379 14.9548 32.7909
14.2487 15.2096 33.4458
14.4504 15.2971 33.2912
15.3266 15.0495 33.4216
16.1517 15.4921 32.3019
14.8059 15.6299 33.1327
14.7165 14.2977 30.4062
14.274 14.6883 33.763
16.1943 15.6696 33.7696
15.0001 16.6782 37.2556
15.2704 16.535 33.6428
14.6977 15.9633 34.512
15.2043 15.7495 32.8683
14.4078 15.2281 34.156
13.9441 14.4139 33.4534
15.455 17.3191 37.2808
15.2882 15.7598 33.5752
14.5995 15.4796 33.2512
14.2946 13.9478 30.1662
13.6238 15.0138 34.7317
14.8832 13.9737 29.098
13.8655 16.4537 36.0692
13.7688 13.7316 31.9489
14.1238 15.5079 36.7805
14.9951 15.2768 32.8949
13.9283 15.6265 35.9307
14.8088 15.4594 33.7169
14.1285 14.9386 34.3091
13.664 14.0966 32.7581
13.597 14.7397 33.2344
13.9488 15.1548 33.6279
13.8136 15.8055 33.6112
13.0786 14.3738 34.8554
14.3689 14.7778 33.5045
14.1513 16.5206 36.7357
13.3344 13.6805 33.2203
14.404 14.3662 32.075
13.8604 13.8781 31.1146
12.4186 14.1548 34.3789
14.709 14.161 31.6507
13.9412 15.5155 35.2129
12.9723 12.7141 30.738
14.1015 15.1935 32.7248
13.6776 13.9878 33.6954
13.732 13.9623 32.9155
13.2249 12.8363 30.8608
13.1812 14.9332 33.546
12.6452 14.1973 34.3319
14.1981 14.4936 33.7886
13.129 15.1496 35.0157
13.2996 13.3483 32.046
13.8292 15.7573 37.905
13.2586 14.5595 34.4064
12.6622 12.6527 31.2737
13.718 14.5756 33.688
13.1024 15.0994 34.1016
12.7203 12.8194 32.6319
12.9767 14.5187 33.8175
12.5582 13.6727 31.3645
12.4973 13.4808 34.5763
13.3891 15.2176 32.3869
12.5061 13.9651 34.9927
13.6211 14.1674 34.6875
13.9371 15.5027 36.7848
13.3257 14.013 33.7713
13.1857 13.4559 32.5263
13.0107 13.3758 30.3786
12.5042 12.599 30.677
12.1971 14.1053 34.1012
13.0743 14.0337 34.9991
12.9984 14.891 37.1357
13.599 14.8455 34.9127
12.475 13.5883 34.4615
13.3088 13.6806 31.0282
12.209 14.0524 34.8543
11.6427 13.5722 33.9893
11.7112 13.7519 35.2612
12.4728 13.0812 32.6762
12.319 14.7778 36.8892
12.6433 14.3381 35.3897
12.3888 12.8579 32.6444
