# pn-170911/CsIIA-27-USNO-1280-1959.psd
# Power spectrum* (dif=0,1,2) (really just |FT|^2)
# NOTE: only the first half! (symmetric)
# weeks: 1280-1959
# 10 clock-days, 1 excluded
# PSD: 1441
620146 1.88756 0.00977889
4.59188e+06 24.1743 0.0144375
3.63231e+07 802.978 0.0270447
3.54783e+06 129.065 0.0161651
3.64578e+06 305.753 0.0536473
863858 79.1331 0.0167307
321558 48.643 0.0187692
255992 53.3737 0.0262528
102738 32.0593 0.0308307
165350 47.8588 0.0249881
88059.6 57.9764 0.032677
38025.8 19.2411 0.0301725
186334 88.1315 0.0516308
62513 39.3933 0.0436097
101625 63.6071 0.0615041
52674.5 31.7318 0.0606702
87329.9 90.8904 0.114577
62792.6 59.5535 0.0806431
52324.3 86.0562 0.12088
71412.5 78.2273 0.15591
59151.5 95.9429 0.194023
43575.3 68.2079 0.133877
23665.7 45.2274 0.142787
35113.8 75.4504 0.202375
32552.6 67.5078 0.178855
14754.9 25.5979 0.0752386
19216.7 57.7813 0.208641
34130.3 86.7892 0.258277
20225.8 65.1704 0.208949
19640.6 49.7434 0.180325
10899.2 52.819 0.236317
25752.9 94.3699 0.421408
19973.4 77.2854 0.390887
27567.1 100.167 0.512323
5122.71 25.2109 0.177299
11567.6 51.5604 0.287194
6774.29 47.7093 0.350591
3787.64 21.5899 0.164461
12303.2 75.4537 0.549835
19476.9 88.3002 0.5411
15154.3 83.7808 0.574086
7158.59 60.2463 0.479455
14466.2 93.1714 0.795241
6080.65 58.325 0.530825
6116.96 39.1744 0.397225
6802.49 68.4961 0.664482
6876.18 43.8161 0.440016
11574.2 77.4671 0.836728
6177.36 45.4444 0.50125
6409.07 57.6091 0.659619
11016.2 94.3489 1.23729
7298.07 50.3984 0.560311
4840.09 28.8158 0.369084
6661 69.8659 1.03474
6527.3 73.8487 0.978977
2230.06 54.2007 0.761643
3036.72 40.7564 0.645377
5228.43 46.6598 0.716038
4829.14 68.3332 1.10075
3982.09 57.717 0.917252
4399.96 47.4605 0.869912
1805.07 47.7994 0.85206
2261.15 28.8688 0.562467
4483.66 59.8398 1.1825
7422.71 94.9728 1.75809
2969.72 47.015 0.96285
3935.15 71.9531 1.51989
6368.11 80.2807 1.49844
3402.83 47.7854 1.11395
4298.48 71.8516 1.54442
3020.93 62.7412 1.48044
3738.05 51.35 1.28086
2599.59 52.0146 1.38156
3638.43 77.5697 2.05433
3764.6 59.637 1.5831
2916.8 54.3188 1.39232
4193.6 56.25 1.57283
3531.58 68.3057 2.01051
1643.82 36.3924 1.08846
1964 41.0591 1.1478
2954.48 60.0876 1.81866
2396.85 58.3632 1.91489
1838.52 29.7077 0.990248
3078.84 76.443 2.55728
2098.65 65.3295 2.21291
2901.93 64.3109 2.1864
2487.04 42.5703 1.58275
1753.57 48.7672 1.81721
3687.14 87.5319 3.07754
2549.28 58.4268 2.19285
1739.53 55.5512 2.24954
2087.63 66.7424 2.65197
2268.66 68.0293 2.83436
2085.77 57.7545 2.26939
2655.07 61.725 2.60778
2082.03 50.7136 2.24285
2282.84 54.59 2.20208
1700.59 56.5021 2.6837
1148.83 40.9 2.07049
1559.5 53.4902 2.55275
1783.12 47.0609 2.16354
799.942 30.1037 1.72351
1462.73 70.539 3.58323
1211.5 47.952 2.49083
1438.32 37.5413 1.82516
1466.79 55.9462 3.13141
1547.09 50.5286 2.72756
1404.42 48.8446 2.37634
1744.57 57.2602 3.33223
1302.07 75.7711 3.82743
1086.28 60.4553 3.45916
1152.19 47.151 2.58523
1668.2 58.4886 3.46909
1405.68 47.8611 2.89588
1752.59 55.9458 3.29558
1379.47 46.6642 2.85279
1202.15 46.0645 3.02096
1071.15 38.2234 2.42027
1026.73 63.0263 4.06528
1941.85 60.8766 3.89664
1046.13 50.4971 3.53371
1134.29 38.1 2.60455
756.561 47.4262 3.4991
1469.16 65.6075 4.5131
806.042 47.4046 3.63812
1127.79 40.504 2.81411
1076.3 37.0952 2.97747
1106.97 51.0952 3.69361
501.934 34.787 2.87276
660.958 47.3126 3.93346
1026.66 66.9196 5.31412
1380.59 48.8207 3.45613
1677.6 114.852 9.72309
697.314 60.1019 4.96542
1018.24 35.5606 3.2056
997.657 45.9134 3.67849
762.781 46.2291 3.91215
1033.34 46.9871 4.14048
692.743 32.7424 3.10979
628.951 42.9426 4.16038
1085.7 55.8402 4.83499
1181.49 56.9213 5.50977
1009 47.0349 4.12635
1008.57 51.8733 5.07438
752.384 23.8742 2.46977
1316.67 50.2774 4.74562
760.06 46.491 5.01313
1621.64 80.7481 7.93115
778.331 67.7532 6.84538
665.496 50.5992 5.59835
1125.82 71.1164 7.48057
429.96 32.0866 3.59776
504.929 38.9474 4.05423
419.149 31.3516 3.57514
1080.84 81.3574 9.35394
1011.51 66.8401 7.76314
850.262 50.6588 5.61269
999.378 85.4128 9.69288
687.373 55.653 6.51947
697.616 52.1672 6.49363
1149.94 66.6424 7.95354
857.876 65.9591 7.81106
834.5 37.3649 5.19591
936.301 46.6484 5.77258
558.647 40.7858 4.97793
543.601 20.914 2.54636
408.727 27.1333 3.65048
589.764 28.6811 3.80521
566.582 33.4387 4.43805
482.853 31.6654 4.34718
474.173 47.637 6.41529
435.01 42.5217 6.24169
597.553 58.6619 8.15257
510.449 51.9249 7.605
829.481 56.0729 8.04262
529.949 34.0967 5.5595
811.49 48.3359 6.3587
575.755 40.5135 5.98574
725.342 41.9432 5.91557
368.566 48.3066 7.81928
1081.41 62.4121 8.71385
521.529 52.8232 8.52813
532.096 40.6694 7.06123
534.584 29.6693 4.8599
548.975 42.3357 6.64186
453.651 46.4176 7.45776
724.019 44.7602 6.66889
593.493 48.1426 7.8888
730.701 46.4126 8.76821
695.603 58.156 8.85497
567.61 29.817 5.08219
412.172 29.2098 4.83538
436.569 45.9969 7.62039
379.894 35.1945 6.46494
716.215 65.4869 11.1094
341.51 28.0024 4.60947
509.8 52.7588 9.72535
195.348 43.4214 8.36468
490.765 43.936 8.62176
554.98 52.7126 8.90488
607.14 52.2361 9.37499
356.141 22.9872 4.6822
171.342 21.2652 3.91011
347.064 53.1028 10.166
224.176 11.1306 2.42545
532.426 48.6336 9.10079
391.989 24.7264 5.34196
198.339 23.8788 4.70086
513.077 44.2301 8.42928
297.612 14.7439 3.27853
537.115 71.6805 15.1345
303.176 42.4733 8.8735
298.833 64.1596 14.2449
415.72 51.6446 10.0428
398.002 40.0779 8.93499
304.254 22.5268 4.8829
262.506 33.1068 6.11847
453.097 42.4963 9.663
361.845 56.1528 13.2079
284.714 45.1961 9.68874
356.813 37.3888 9.19525
286.583 45.6303 10.6229
415.155 49.7777 11.6093
556.216 37.7343 7.33074
343.56 23.5305 5.57235
288.968 28.6564 7.67539
296.452 40.0081 8.79495
335.47 35.9699 8.82153
325.835 42.0491 9.88231
248.475 86.4905 21.8021
366.968 29.2436 6.60985
516.982 65.5854 16.3663
359.329 40.741 11.3431
322.835 51.7388 12.8806
508.555 70.9113 18.1939
361.165 45.3683 11.415
409.703 48.3322 11.8786
273.886 37.3571 10.5303
409.089 49.1909 13.5854
335.225 26.6158 6.10708
227.415 29.0427 7.76811
230.582 23.8033 6.83544
205.276 17.3865 4.47268
209.64 29.3862 8.62874
356.969 67.9933 19.0863
310.331 53.0133 14.8122
666.323 101.243 28.5883
209.86 26.0216 7.29572
331.109 46.4524 13.9384
339.39 36.2919 9.72456
298.369 19.7705 5.52299
300.545 26.2017 6.66025
248.331 36.3482 10.3106
280.65 31.4308 8.63541
188.756 28.8388 9.26766
381.067 74.9782 22.9105
366.749 47.9248 13.5798
296.472 23.4561 7.45005
218.582 27.0926 7.95978
237.147 40.9932 13.638
118.75 34.8718 11.7064
294.42 18.3051 4.31066
293.011 35.4772 11.7532
139.755 23.6546 7.1148
278.313 43.153 13.9862
164.16 26.8607 8.66399
238.428 32.1914 9.72386
209.563 57.3269 18.8206
214.863 26.4837 10.5672
241.702 30.7113 9.458
214.458 45.4634 15.0951
348.026 66.7066 22.1233
205.807 38.7699 12.8212
206.177 44.0716 17.1753
278.277 37.8876 13.0544
243.751 26.1635 9.40592
218.426 34.8489 12.5774
241.993 51.4497 16.6446
128.324 26.7891 10.9185
225.107 23.2523 8.47869
315.252 32.8868 12.1307
195.496 17.2506 6.16757
262.563 41.5225 16.7758
199.829 45.4231 16.3734
200.308 21.0923 6.91101
179.819 31.6169 13.1762
290.804 48.0887 19.1391
264.142 40.8561 13.2593
253.81 61.7521 24.5194
227.762 21.7451 6.28107
205.017 39.2041 15.2736
263.242 45.5457 17.1893
230.027 41.4807 18.4137
184.58 29.1149 11.5314
194.433 30.147 12.6167
124.326 30.5124 10.7041
140.018 39.7193 16.1805
206.442 48.8676 21.0058
204.829 55.4241 23.6003
158.119 34.4374 13.9805
210.5 36.5686 13.3796
148.625 44.2356 20.6904
188.242 30.978 12.365
85.318 33.7229 14.9177
232.796 37.1801 15.2321
247.33 31.5051 11.5014
212.594 23.7005 10.3793
293.454 45.4738 19.3939
103.898 18.4624 9.12045
150.213 37.3963 13.1266
172.368 25.7709 12.7885
88.7986 46.3641 21.197
139.66 37.7487 17.6041
199.011 44.0256 18.254
124.853 29.9889 12.117
152.901 37.0136 16.344
256.871 78.195 37.6212
164.079 24.2644 10.4613
64.873 23.3116 11.5543
100.651 22.12 9.5592
149.31 38.3179 20.0985
106.073 28.1815 10.2154
91.1977 23.7885 11.3696
148.203 28.2779 15.4209
97.3742 10.048 3.61002
87.1225 34.8598 18.2259
112.046 20.6761 9.99432
81.9973 19.0223 9.86229
104.094 25.2871 11.6412
98.7514 15.506 7.62269
119.537 23.7133 15.119
168.342 42.9267 20.0354
76.4175 11.4224 6.01265
85.7941 31.3132 17.5683
123.449 39.328 17.8591
210.383 48.117 24.5119
97.8504 35.0058 17.5257
116.767 35.6535 20.0377
135.691 40.7989 21.354
93.1097 27.9071 13.494
134.906 31.9253 16.3965
111.968 22.7077 12.8293
181.968 41.9433 21.9241
88.9726 21.7648 10.6309
178.881 49.5945 26.339
143.912 31.0823 17.9294
69.0982 26.9217 13.7813
82.8759 15.7097 8.69551
86.3161 13.7262 6.45912
104.07 19.775 11.1609
130.165 22.0949 12.461
57.0298 33.7532 20.7036
103.585 26.3112 13.2977
83.8644 25.5298 14.7685
76.3442 22.1952 15.2922
57.1643 16.0413 8.744
101.667 25.188 12.3392
91.7983 48.5811 25.4528
117.379 21.3745 12.0926
44.655 18.149 11.9687
75.6672 21.277 12.0591
73.2221 19.8684 12.2507
136.77 33.565 19.9133
104.318 23.0134 13.6065
59.1227 23.0115 13.3575
67.9476 25.4611 17.6544
98.7222 32.4711 18.7857
77.0897 23.6954 15.7103
168.258 33.7397 19.255
68.414 31.8826 20.6032
53.8378 18.0352 10.287
101.872 18.3465 11.4827
62.7193 25.2967 12.5096
83.7311 31.5392 18.7705
141.105 40.5002 22.2924
90.6359 17.9664 11.7084
99.7242 35.9712 25.1533
44.1959 11.6366 9.24655
45.7561 21.0299 14.3292
100.653 24.008 13.509
74.5514 32.3329 22.107
50.876 19.7089 15.0977
53.9447 16.3562 11.8712
141.554 35.9933 21.4504
64.9761 24.649 15.7038
66.9027 28.7344 21.9774
163.887 36.736 23.1078
87.6842 23.2998 12.8046
64.2531 16.4769 11.7059
49.1254 16.5132 10.329
56.3157 18.3917 14.4349
73.8178 30.2777 18.7063
38.1695 17.2052 12.4649
78.7657 35.9761 24.0833
90.4227 38.3248 31.3288
41.1919 20.6089 10.3852
64.7748 25.96 17.1628
52.7966 19.5053 13.5699
49.1881 13.9835 10.2662
89.5628 13.9859 9.58391
66.5489 15.8155 14.1085
123.196 46.1954 33.3627
41.1124 16.5008 10.4514
47.5168 23.5391 16.4922
80.3138 21.2358 20.1915
98.2291 24.5798 13.8344
95.646 24.4079 16.3242
41.1702 18.1582 12.9015
49.9683 28.4075 20.0381
85.4035 23.3787 20.2287
49.2963 16.9245 11.6837
91.9927 17.2327 12.8529
63.1021 18.7544 14.4477
45.2196 25.924 21.0114
52.227 19.0423 13.1661
47.3762 37.2696 28.7478
49.9966 20.2403 16.4681
57.1271 21.9683 19.676
84.5029 24.0638 15.6809
78.22 22.0107 16.4406
13.6218 16.0253 15.0683
37.5805 19.0957 11.922
66.5303 26.2225 20.08
98.9953 37.6108 32.5652
49.7397 15.0653 18.5589
65.8172 18.2657 12.1078
54.8324 24.8862 15.5358
54.7493 27.5378 25.6556
81.2189 38.6137 28.6647
66.7985 16.0178 13.6956
66.6 35.2537 30.2431
76.6981 42.3963 33.4948
61.3224 18.0359 13.8353
51.6895 33.4381 27.1774
39.6685 10.9045 13.7298
47.8209 26.0095 20.8962
79.9543 18.7725 13.9623
65.4917 27.2304 24.8815
78.8352 33.2062 24.4752
41.6253 21.1498 17.753
41.3104 24.2532 21.146
40.8771 10.879 7.49351
72.2072 13.2335 11.9121
34.5447 13.763 11.6928
67.4745 17.9442 15.5522
40.3952 15.1452 12.937
32.4265 15.9721 17.3306
51.5547 21.654 17.7856
77.8508 30.2502 25.4328
33.6444 10.4483 10.0876
60.9001 26.5049 22.4461
33.0632 18.3481 17.6319
64.9664 20.1472 17.5421
70.634 32.0012 27.6506
60.295 24.1679 24.1969
30.3933 12.1532 12.0902
62.9 28.1693 24.3735
26.1194 22.2396 19.1152
49.5202 14.8006 13.5342
42.0026 12.1774 13.1521
65.536 20.1426 14.0504
66.2479 24.2534 24.7246
59.3548 16.5381 12.8562
40.2423 28.5464 26.1753
39.5443 25.3706 26.4236
55.8112 18.7539 16.5076
27.8341 13.7427 14.2672
34.5809 11.3288 12.0193
34.9109 12.8794 16.1347
34.6255 14.0597 11.7607
40.9768 17.0909 19.4478
24.6826 11.829 13.6752
40.5644 19.6309 15.7688
39.7196 14.5108 16.7175
44.3 16.0588 16.4075
79.105 29.2111 23.8821
28.4401 10.6712 11.4049
49.6146 19.8611 19.4485
54.7587 32.1287 30.25
42.1658 25.0493 21.4693
49.7211 14.7422 17.8679
47.1465 14.2823 17.681
58.2665 14.9057 12.6419
57.4284 29.5946 32.5688
56.9362 22.2059 21.6836
59.1881 21.4812 19.6033
39.3106 6.62561 10.0965
65.7359 16.1659 19.4162
43.7726 19.9063 15.4394
22.3024 19.0557 19.929
40.1356 14.6857 17.5565
52.334 12.8197 9.67395
49.7985 22.9946 23.3867
49.7692 14.0058 13.8875
35.378 11.4648 13.5853
45.0781 10.377 10.2098
36.4886 17.6052 19.2296
41.7059 23.004 25.1468
42.3087 10.682 14.6206
47.4489 20.1592 19.936
54.0261 27.7448 24.9417
27.7097 11.3299 12.7761
24.5511 8.82627 11.8351
71.632 25.889 25.8726
34.7328 15.4973 22.4629
67.8518 36.6031 41.189
56.1106 25.1171 27.8172
37.8931 16.5964 14.6388
46.9484 19.6928 18.142
50.9815 22.7803 29.0532
59.0006 17.6922 17.2619
71.5488 29.2466 30.3298
56.5326 19.506 22.7319
39.8195 16.9076 19.6607
29.6973 19.3903 22.2006
42.3018 23.0955 29.5698
33.6343 15.3447 15.2712
32.4732 17.2904 19.7859
73.2871 23.658 25.0256
35.0423 17.4282 20.6032
38.5511 13.925 14.8382
46.481 12.7933 16.6843
48.3432 16.5722 19.9702
51.8813 17.5289 23.5869
40.4167 10.9563 13.9127
31.0394 22.0071 27.6579
42.5678 10.1696 16.7359
42.8531 20.9126 19.0989
54.3872 18.4455 22.1413
66.3863 30.953 34.6801
68.5417 22.8397 25.471
42.5966 23.7517 28.9791
36.8002 22.7066 24.0975
33.4289 14.3143 24.2259
41.2595 16.8349 18.6318
40.0762 12.2209 17.8513
54.4913 14.6478 15.2953
34.9824 22.7656 22.4394
29.4663 13.9163 22.137
35.1814 21.3909 22.0146
31.3011 9.91218 13.4758
49.9652 21.1336 29.4918
42.6699 28.0109 33.5506
46.5895 15.4106 13.6901
35.6888 13.0024 16.4945
31.0659 12.6655 19.9617
34.1023 15.7067 18.2707
54.8058 18.0485 20.2003
45.7056 14.9783 30.4583
47.1248 31.6185 34.7744
27.1999 13.1538 12.8073
31.5023 13.9553 18.3143
48.5204 23.0322 26.136
44.1201 14.7959 19.0217
41.3658 21.0761 28.9518
48.8603 19.5587 22.0865
27.0651 14.8239 20.8499
23.0488 11.7309 18.3433
40.0895 22.7928 26.8746
24.7792 7.19517 15.4158
54.6479 33.0592 41.8498
53.2768 15.9542 17.64
16.5869 10.3339 16.5802
32.0428 16.0153 18.9319
25.1128 16.8293 24.2865
47.0561 11.1631 16.7852
55.7804 20.8896 22.2978
43.3177 13.8628 16.0964
39.9525 20.6809 28.6503
32.4246 25.5946 37.2096
34.337 15.0285 23.6468
36.9258 16.9155 24.9281
60.5887 11.1337 11.6634
35.0317 8.67963 17.8124
55.1047 28.2901 37.0618
37.9322 21.5758 25.6019
33.5985 25.5938 36.681
36.941 10.2852 14.4569
43.0251 12.887 18.6652
44.9535 16.5541 30.2863
48.9372 20.9246 27.9432
31.645 27.3635 30.8057
37.9825 9.08869 10.2102
27.8951 7.48196 10.4962
38.1171 14.8274 21.166
32.0756 5.78613 14.9026
45.916 17.4411 18.3972
28.6695 11.2961 15.4346
37.5088 13.2585 17.5109
28.8507 19.7248 26.6154
33.6205 12.3499 19.3899
34.9815 9.94325 15.121
37.3537 10.513 20.4746
41.5742 11.0179 13.1848
34.9606 25.105 35.6623
38.1882 14.1214 24.0372
45.8186 14.1531 14.8115
38.6234 11.1232 17.0552
32.8039 18.7997 27.8912
44.7705 16.6259 19.377
30.9023 17.0304 32.7914
38.3631 11.3207 15.1131
30.423 17.5553 22.992
31.9004 12.7454 26.9469
44.6552 14.3674 16.4576
33.7148 11.0734 16.0024
30.4646 10.8291 13.3965
20 11.8203 21.2648
41.3023 18.4651 33.4339
33.8754 23.9409 36.6448
44.3619 18.0403 19.0934
33.9759 10.3686 20.4516
30.7691 9.33363 17.0277
31.2264 22.2591 29.9339
27.1559 11.3392 17.1338
31.0019 19.2002 30.9858
46.8334 10.5007 19.1134
37.8924 33.9805 57.4591
28.6842 12.453 14.9246
26.4723 14.7336 20.828
23.9379 13.6626 23.27
32.6019 13.1584 24.0072
36.3215 11.982 16.1928
34.6281 6.70714 9.43126
30.3669 11.8644 22.3164
24.3968 10.5259 19.2474
29.0133 14.4151 16.3963
33.463 27.1232 37.2535
30.1864 10.8348 19.9295
35.2265 12.485 20.4387
30.044 6.23364 8.53131
28.7493 14.8771 26.7195
26.0272 6.99421 11.7103
34.4569 10.6333 22.2706
55.3072 24.2521 41.2617
33.8903 20.6212 26.8455
22.8085 12.4421 24.5181
19.3496 7.0514 8.1916
28.5611 16.1636 25.8986
36.6586 10.6423 25.5658
25.7291 15.8086 17.6224
41.3256 12.3876 20.7979
32.3978 12.0638 21.6419
31.967 10.714 13.4309
29.6651 20.1968 35.8001
22.9184 14.3966 22.3232
36.3027 22.252 41.5185
43.4865 10.9777 17.1932
18.708 19.1883 30.8165
23.01 9.96989 18.0777
21.8765 18.1096 22.3348
30.8356 13.0298 29.9349
30.4316 10.4993 12.6932
35.3169 15.7549 23.6431
23.7273 12.9818 21.9806
23.7439 9.49307 17.4204
29.6092 12.6044 25.7955
21.8681 11.8149 25.5007
26.3484 19.1696 22.7293
32.2496 11.7557 19.7053
45.1258 18.9647 35.4096
22.4806 9.34747 18.8373
20.8491 6.45286 12.9589
19.2681 11.484 21.3631
34.3495 13.8494 20.8487
23.2069 13.6382 28.7163
41.9482 15.5209 23.2791
23.766 12.5208 28.2928
23.0976 11.197 20.612
33.623 16.5178 26.1515
37.6641 11.9224 21.1225
24.8395 14.4675 25.24
34.1402 14.2093 21.3729
27.7125 10.3601 20.132
20.3309 9.58429 19.3297
22.9809 7.15947 15.9542
26.7185 17.832 24.5735
33.785 9.85188 20.3537
21.8477 12.9262 18.6895
21.9011 5.72012 13.4581
29.386 12.4563 22.5583
22.685 6.92518 14.7442
29.4618 12.5424 23.3496
32.8274 9.87952 16.1088
29.8344 12.9952 26.1859
35.9016 10.9376 21.5474
21.5225 8.41237 18.2947
19.5464 6.38972 9.34442
17.6684 8.60039 12.0002
25.9879 9.05904 11.7632
28.6292 4.4721 13.8234
26.3878 16.9625 28.6507
25.8342 14.3547 22.982
18.8176 6.63119 17.0316
23.4041 12.7373 24.7239
21.9895 8.13492 15.7203
17.3128 5.73771 8.56498
25.8505 10.6798 24.7133
24.8838 10.3429 25.0683
26.0648 15.106 21.6045
23.8776 19.3365 30.6296
20.8548 25.1727 41.3099
24.6888 8.16765 24.7168
22.5223 26.4643 43.7734
27.9983 15.9896 34.9069
23.0515 8.83119 15.796
18.2167 12.3751 26.3
27.2888 9.41215 18.9062
29.7061 8.35364 18.7885
27.9159 7.53106 14.5293
30.577 9.59938 23.3003
26.8388 18.2265 33.7892
22.2922 12.6455 23.2186
16.9537 10.8741 21.6034
26.1882 9.24259 15.4629
21.0393 6.81704 16.6142
31.0154 6.87357 13.3223
23.2128 11.4261 20.0305
15.8474 6.5712 16.179
14.951 19.7658 39.8515
28.3315 10.1662 16.594
27.0903 9.22536 23.6008
32.0416 15.9713 26.2475
25.9761 14.3727 35.9904
19.6834 19.3329 34.7342
18.3829 7.55231 17.7453
26.0384 14.304 25.7653
18.7943 9.44372 31.4804
38.2949 24.1824 38.5092
17.7733 7.56007 11.9376
18.1575 7.75111 21.6632
17.8216 13.1307 26.0651
13.402 8.26819 15.0617
24.83 10.3855 19.3475
26.3346 6.63229 16.2575
12.103 7.84235 13.3101
16.7066 13.7096 28.1872
13.022 12.5268 28.1741
22.8836 7.76768 17.826
18.5666 12.5929 30.8922
20.1286 20.3764 26.3235
21.7227 9.82173 23.3065
20.2733 13.8208 33.2372
21.7371 5.88716 15.477
13.9391 7.88051 13.7081
20.0372 6.73309 13.6707
30.048 7.62262 17.6936
24.1633 8.61201 22.1617
16.0598 12.7447 19.218
17.2599 15.621 32.5855
20.7876 16.7859 32.0033
21.9442 6.25256 14.1827
21.3413 9.85977 27.4356
19.8132 7.81049 10.3687
14.7486 3.76208 13.0246
13.0507 13.568 26.2328
19.4797 4.20916 8.06716
14.0605 5.65217 15.4554
25.2654 10.1503 15.8457
26.5062 13.2003 37.8137
20.6589 7.1358 14.256
19.8302 10.2518 12.9702
8.5939 11.6915 34.1977
19.3298 13.6833 24.3836
26.1619 11.1289 30.4214
23.139 8.32835 16.8554
24.3326 12.4137 38.3769
21.9246 24.3323 39.8894
14.552 15.3087 34.954
18.885 12.5446 33.9604
14.6996 11.1878 16.8885
27.9251 16.6461 40.5132
19.4619 10.89 27.6808
17.3721 6.46596 14.7863
12.4921 7.71613 17.8248
12.8492 11.037 25.0502
18.2155 6.95309 16.5116
27.3057 9.51331 22.287
23.2453 11.345 17.4786
14.7835 10.6436 29.5184
17.551 10.5924 18.9105
11.6192 6.69627 19.4109
12.5373 9.77821 21.8417
20.8487 6.26755 12.5918
18.2668 9.22873 21.9853
17.2856 5.89958 10.5285
9.84631 10.8269 28.8898
14.1632 11.4158 30.0098
13.7711 14.4305 38.5972
25.0716 13.1733 24.4977
26.4193 14.7853 35.0426
20.7157 6.82714 34.2458
22.9622 14.873 19.1123
11.8672 10.2671 24.4681
15.9639 17.0947 32.9552
20.2856 11.7197 28.8555
19.4747 11.569 22.759
16.4719 6.32173 17.5876
14.473 12.3717 22.4286
19.237 7.54109 15.6625
15.6599 10.9167 22.9394
12.1296 11.0038 22.2547
26.3179 10.1258 35.6161
13.6651 6.20072 14.2846
13.9833 7.29332 19.2191
10.0654 6.85157 19.6155
14.0443 11.7851 21.149
18.5845 6.42616 14.1507
17.6504 9.97268 27.6931
17.3908 5.46668 17.5808
18.1272 13.7301 22.3338
12.2098 7.55023 22.2753
17.0891 5.84226 20.0909
10.8832 8.9048 25.7524
19.396 9.77935 18.5991
26.1129 11.95 26.2226
15.9603 7.77905 16.9608
15.7785 4.76499 18.6463
11.0123 6.47525 9.76021
14.4306 6.30766 24.3187
24.0009 9.03856 15.3251
17.6882 4.60786 13.525
22.7849 12.1646 26.948
11.7202 5.59642 16.387
12.1517 9.43589 28.4573
15.9147 5.65672 16.1857
20.675 7.73112 17.0241
17.1081 5.80854 14.7092
16.8426 4.78947 12.3145
18.1302 9.34056 24.5108
11.131 8.67787 18.2681
7.23427 8.02223 17.9714
19.7053 5.4026 22.0349
22.4073 11.3815 22.0645
