# pn-170911/CsIIF-av-NIST-1280-1959.psd
# Power spectrum* (dif=0,1,2) (really just |FT|^2)
# NOTE: only the first half! (symmetric)
# weeks: 1280-1959
# 4 clock-days, 8 excluded
# PSD: 1441
531.512 0.0292828 0.0199664
116588 2.81556 0.0456979
436173 10.5542 0.0550902
658285 21.917 0.0702915
151066 8.91233 0.0698357
190620 23.3724 0.0421417
116475 19.8152 0.0849043
67982.5 9.26949 0.0727945
25763.9 10.8213 0.0427282
47889.3 16.2331 0.0510122
48500.4 23.1831 0.107506
28983.5 13.9197 0.0536452
30591.7 20.0774 0.0670531
19006.6 14.0724 0.168758
11154.8 10.5565 0.0665988
5881.38 8.26717 0.063709
17232.8 13.7101 0.105705
8488.47 9.30065 0.1294
3952.18 5.72706 0.0466107
8449.29 15.4455 0.121316
8253.51 17.9464 0.053436
2271.91 7.26366 0.0420512
14033.3 31.9328 0.159266
6091.03 16.0519 0.213465
11413.9 34.0099 0.107113
6334.59 16.5704 0.0664215
5195.23 12.2327 0.203897
6689.91 20.006 0.234095
2058.29 6.60305 0.0905106
5113.83 20.3195 0.155964
9203.63 36.2903 0.212453
1709.22 8.93696 0.0931279
4712.59 22.3234 0.153116
2915.84 12.4487 0.167009
4871.82 22.7107 0.138893
3617.19 17.6003 0.16293
1285.98 7.61317 0.221365
1399.07 5.53449 0.0549479
4515.18 28.1257 0.179767
3129.92 23.0471 0.158549
2104.78 20.9869 0.231726
3004.38 22.417 0.243296
2183.82 14.5448 0.245401
1602.79 13.9741 0.101847
556.507 6.91205 0.123163
2162.28 21.3406 0.465998
2854.06 22.1925 0.176874
1635.18 18.3848 0.367035
611.858 4.68715 0.132916
2875.1 35.4122 0.556915
1589.21 12.9378 0.14733
642.796 5.92499 0.14339
807.316 7.89063 0.248544
1848.23 22.1815 0.3253
1120.96 14.1678 0.182443
1349.63 14.6169 0.256984
1353.83 15.5543 0.284733
1974.34 26.9135 0.45065
1645.71 30.2365 0.544152
1553.15 20.5314 0.417732
934.252 17.9819 0.325315
1360.4 19.2535 0.431556
1424.73 22.7841 0.444457
1221.64 27.8349 0.496994
746.331 18.7483 0.383339
795.325 14.1859 0.216846
840.956 12.4019 0.497658
444.938 10.9627 0.396197
1056.47 18.7232 0.501349
732.884 16.166 0.525414
1201.58 30.8602 0.85309
480.902 11.2481 0.25764
1987.28 44.9703 1.35286
654.099 14.6761 0.506402
369.28 11.4442 0.395513
1126.24 29.1419 0.757408
741.571 16.9681 0.239371
392.214 16.3711 0.575956
816.319 17.4718 0.616899
242.078 8.50572 0.286757
525.008 17.241 0.545117
567.233 18.4574 0.301538
161.798 5.64979 0.333746
761.307 22.0791 0.895019
748.939 24.4761 0.985627
558.884 17.2903 0.351759
382.83 8.99166 0.254265
543.928 22.5064 0.781813
590.367 23.0398 1.24416
843.938 34.2926 1.41381
577.96 17.0248 0.563617
222.354 7.05198 0.314709
295.065 14.231 0.529311
870.231 28.8584 1.44597
454.956 19.2756 0.853592
522.008 18.3372 1.05865
491 18.1904 0.979428
204.212 7.78209 0.361025
445.149 13.8056 0.606995
444.037 21.3357 1.15946
115.443 5.82382 0.364463
109.094 4.9865 0.109639
368.604 13.6197 0.808001
234.122 12.0368 0.553665
679.187 28.1118 1.4194
142.185 8.37329 0.592593
479.828 19.8258 0.868908
395.067 18.8131 0.714643
569.905 26.9521 1.68917
115.96 9.27245 0.387926
244.301 14.3822 0.59549
190.239 15.0217 1.22325
234.292 9.6217 0.673237
206.685 9.33186 0.5367
277.527 18.6813 1.27404
471.657 25.0903 1.4819
168.861 8.5787 0.421729
244.992 18.722 1.23397
540.875 32.1821 2.23636
315.017 17.5202 1.18107
511.927 38.7771 2.54114
524.592 30.4489 2.46608
163.499 16.1378 1.40392
218.73 12.0569 1.03489
74.8727 7.28072 0.485256
246.058 12.2992 0.915047
219.202 19.4969 1.61918
276.111 23.1185 2.09336
157.215 15.7215 0.987037
160.626 13.0503 1.32824
118.312 6.7755 0.473745
405.421 25.615 2.02925
130.827 8.21821 0.584495
364.505 27.1288 2.24652
181.935 13.2541 1.1862
271.782 25.5144 2.18307
194.004 12.6512 1.14033
168.855 14.3557 1.09682
97.1534 10.5951 0.962614
105.008 8.73812 0.709256
273.533 18.5834 1.85288
221.027 16.584 1.93231
112.427 8.95611 1.15215
95.2796 6.44044 0.791435
468.084 48.0021 4.24611
287.064 25.4006 2.26279
139.047 8.24693 0.877406
137.512 17.9333 2.1778
167.968 10.9163 0.823933
132.368 14.8731 1.84422
300.464 27.2804 2.87051
92.744 8.25067 0.857949
267.183 34.0699 3.66374
183.515 18.818 1.83682
80.3013 10.2127 1.43867
103.626 8.45702 0.950238
106.431 11.2858 1.1054
76.2675 4.65604 0.421175
343.773 39.2716 4.29138
103.575 13.0962 1.57924
139.065 18.7936 2.29463
47.9007 6.85115 1.1893
127.329 17.0499 2.24428
240.19 21.1225 2.62537
193.268 19.9974 2.80495
180.124 21.9446 2.5228
59.5087 9.01163 1.51243
141.637 20.4026 2.50281
172.456 16.4728 2.29297
116.09 17.9909 2.71159
129.569 15.6866 2.61475
126.72 16.6712 2.54096
181.178 19.5809 2.05007
118.595 17.2726 3.34509
77.1362 14.4775 1.83118
55.0082 5.48526 0.656665
118.724 14.0682 1.88556
108.27 16.2541 2.95607
120.483 18.5046 2.76155
205.422 24.5903 3.72642
138.614 18.1637 2.51551
107.827 18.7271 3.06256
115.532 17.8117 3.26985
88.2262 17.9893 3.17637
48.902 6.91143 1.28415
99.737 17.6932 2.82395
63.0369 10.6814 2.27122
140.812 22.8237 3.61732
74.6551 8.48244 1.549
58.9485 13.1811 2.88457
109.502 14.5577 2.41038
79.2854 15.7391 2.38242
39.9064 11.9499 2.62182
127.808 16.7944 2.9118
177.664 24.4823 3.651
65.5163 11.9052 1.84996
63.6685 9.83993 1.3996
72.7542 9.81326 1.68037
161.189 23.8876 4.09026
89.3141 11.9139 2.10335
23.5295 3.98522 1.30062
92.4178 12.7944 2.23182
24.2237 5.88214 0.926356
56.5702 12.4369 2.53775
48.2579 10.4567 2.06678
142.214 25.782 5.29172
75.3094 12.5026 2.93528
85.0708 20.7804 4.0444
137.716 21.3104 4.04084
51.9983 8.94806 1.88062
47.2475 13.9699 3.50841
42.0761 13.3732 3.34064
113.182 15.55 2.92591
78.4915 13.0158 2.65955
30.9583 6.25424 1.61126
85.5722 15.2574 3.09695
56.2474 7.42544 2.14053
158.441 28.8265 5.49937
106.961 21.7748 5.70804
116.736 20.1011 4.06623
66.4458 19.3752 5.17154
32.4305 14.2763 3.65875
87.8743 16.9506 4.15376
102.253 21.5581 5.31123
98.4248 21.8255 5.2628
144.261 30.7592 7.03605
112.781 23.9676 5.04779
21.7464 6.13027 1.86777
72.3929 14.8347 3.25894
36.5747 10.6509 3.31409
67.521 14.5909 3.74279
85.3944 17.5501 4.11441
104.843 24.2614 6.39655
55.2319 14.6439 4.17892
46.585 9.02387 1.74736
94.3393 23.531 5.92517
61.0477 7.12658 1.7997
42.9803 14.6976 3.54906
26.7144 5.57104 2.14758
67.524 17.1613 4.50483
209.199 52.8646 13.6753
35.9165 8.284 3.09977
91.395 12.4316 2.55451
42.7256 13.5913 4.31294
52.5533 9.93166 2.94564
75.509 20.5959 6.52826
72.4151 15.8856 4.26241
51.105 9.88913 2.69159
135.862 33.5434 10.028
71.5952 17.4097 5.33829
9.20967 4.18105 1.11931
52.1304 14.8647 5.33995
55.4557 12.6326 4.11104
34.7496 14.6967 5.07468
40.1135 14.2202 3.83815
48.3415 10.4545 2.79039
66.4598 20.549 5.3015
48.1395 8.63045 2.21437
106.332 31.5573 10.2094
39.7732 8.64073 2.13572
49.3104 16.7552 4.81294
120.323 31.2305 9.2486
105.01 31.7121 9.66377
81.1713 14.0528 3.92436
49.0374 11.7811 4.07732
124.706 32.8686 9.9997
35.5301 8.99749 3.20525
49.6008 14.2944 5.34858
46.7587 13.6587 4.38156
39.8153 13.5445 4.4508
64.3557 18.0601 5.67879
20.319 6.40242 2.9022
57.0496 13.2841 3.67026
7.68712 4.36806 1.82234
64.3739 13.74 5.07222
29.3192 12.7053 3.78246
66.1348 25.7553 10.4188
57.7873 12.6964 4.31592
23.1552 7.96046 3.11155
50.3446 11.922 3.6716
17.6733 5.44626 2.45565
25.2565 5.08867 1.48607
52.0141 15.0351 5.67569
45.1491 15.1618 6.40572
35.7789 4.78953 1.68418
85.695 27.3222 9.71296
57.5665 15.5387 5.7452
66.9431 16.6036 6.20641
44.1561 11.0215 4.41583
83.1789 29.2616 11.1507
49.6365 14.3564 4.894
12.9569 6.33757 2.4497
37.8488 20.3615 8.52394
12.9592 4.52062 2.10993
14.8392 5.73851 2.52965
99.6596 28.3852 10.5861
37.0008 13.0848 6.1294
71.4834 33.3249 13.2821
13.7169 9.63031 4.63733
26.4091 10.0965 5.4002
22.3628 10.0407 3.35873
10.7064 4.89828 2.19145
80.868 31.0346 12.7146
26.1917 13.3287 7.48564
62.586 19.6631 7.06587
28.5645 9.14362 4.28703
36.1493 8.10464 3.75352
64.928 26.3132 10.6079
79.9008 27.5257 10.527
26.578 17.2092 9.29434
23.0013 6.21527 3.43405
31.0175 10.0845 5.10688
41.7385 10.7208 4.73256
114.459 40.8256 18.7417
36.4142 15.0739 3.87824
23.6789 12.4032 5.98753
38.8314 21.2445 8.7478
42.3233 19.8138 8.90955
21.8518 11.2733 8.01486
81.3295 29.5494 11.3862
80.8059 32.7355 12.556
27.2525 9.68604 4.47632
74.9697 38.3872 17.6818
26.8797 11.8209 8.37974
43.6148 19.9722 10.7186
77.1694 26.2052 11.4955
32.8493 8.92392 3.96419
54.9765 28.6141 15.4739
42.6683 11.3138 3.90956
39.4918 19.4026 8.8352
11.5876 8.69379 4.66951
39.7036 21.3881 10.98
18.9133 14.8071 7.4242
37.5327 20.4806 9.242
18.3714 13.5977 9.32928
17.8082 14.5869 8.69508
35.5922 17.7248 11.5877
47.5636 29.195 16.6547
35.483 15.8454 6.77104
22.0198 7.04147 3.76731
48.8951 24.1211 12.1989
9.42661 5.78662 3.48892
40.568 14.2954 8.72884
50.8667 20.9961 10.0088
25.1465 12.5998 5.16019
67.3391 25.3062 13.5198
41.0855 23.5153 14.3438
40.9099 19.4419 10.6439
28.8787 13.7586 6.46534
8.74703 5.56743 3.37982
25.3436 16.621 8.31183
41.018 23.0822 14.0732
35.2093 19.2669 11.5456
33.9513 16.1425 6.88683
27.8593 16.7221 8.72912
17.0255 13.2064 11.1467
35.0711 11.7218 7.48725
49.3872 23.7998 12.8543
41.6456 12.7685 5.59598
57.2266 22.4116 13.4183
37.8007 15.9494 8.43576
99.6146 48.8542 29.6378
27.2751 8.31497 3.66544
25.2839 14.889 6.9266
16.2092 8.74484 6.214
49.8806 14.0983 7.77198
58.758 24.0345 11.878
57.6463 33.664 17.9656
43.9122 26.0905 20.8927
50.4674 16.1838 7.13467
39.7967 16.8841 11.2518
21.0353 13.0846 9.12016
18.6035 10.0997 7.15914
10.4388 8.01663 4.35471
23.8988 11.8168 6.73386
22.3043 13.0384 8.57837
19.4507 10.1666 8.13635
24.8821 11.851 8.20593
41.8447 17.7535 10.7047
14.9924 12.0522 6.83644
9.00443 11.1459 9.73403
15.0528 13.701 11.0851
40.9891 29.7594 19.0285
36.7434 13.5142 6.48117
39.4582 16.9141 10.3821
44.2698 21.7281 17.0117
31.3762 18.4236 12.2605
44.2596 28.7821 18.675
21.1846 12.4994 9.28702
22.771 13.7934 7.04186
39.8998 23.1796 15.7728
28.1092 17.728 12.2745
7.62039 3.39348 3.16535
32.9659 14.5799 11.8725
23.6284 9.84525 4.74674
23.0528 10.9653 8.50315
28.3848 21.5993 12.7221
45.648 23.2732 15.7948
30.2857 17.0264 9.97128
26.5474 14.0237 10.3946
24.1622 6.90589 4.32021
18.567 11.0201 8.72757
33.4266 23.1343 16.8013
21.9305 15.9641 11.5617
13.2229 12.7722 11.905
27.547 17.1719 12.4079
14.8037 9.25788 5.94931
18.2085 17.0454 14.4028
31.7779 18.4498 15.0988
15.2129 9.05815 11.4445
44.8543 17.6563 9.43727
25.546 19.6486 13.0544
59.555 41.6601 28.6676
13.3716 5.55601 4.29295
15.2467 8.30102 6.06463
26.323 20.0208 15.6036
8.37664 2.20614 1.18472
21.2722 16.6768 13.9758
7.06345 7.05045 4.04435
18.1597 10.3233 8.44257
13.7296 3.89035 3.504
33.4667 24.7652 16.6305
5.63607 9.1913 10.8827
26.231 28.0728 21.3525
14.7705 15.7734 12.9758
28.2941 21.0351 16.5382
10.1185 8.53773 8.6302
50.2755 25.3462 19.5228
22.2057 12.3636 8.09161
21.5774 15.2754 12.7909
19.3168 24.3644 21.3915
12.1001 6.85019 4.17055
9.41813 8.26475 9.60477
36.5583 15.0056 9.48227
16.9326 14.8657 12.4332
13.2745 8.12962 8.62825
53.97 26.9424 20.7157
16.382 7.66162 4.57028
18.868 11.1247 10.8834
29.9846 19.6352 16.8903
21.6373 12.1926 14.0897
47.7244 28.3737 20.0725
23.0556 22.3669 17.6392
14.7943 14.675 19.7371
24.7577 21.4519 15.6226
34.881 17.37 13.8792
18.2568 16.022 14.7232
28.4012 24.0882 21.7254
22.728 14.9438 16.8852
33.3214 17.9816 13.9093
8.29915 13.5513 13.577
31.2809 20.0393 15.1481
8.82131 7.42614 9.83453
17.3517 5.02067 1.79031
21.3053 23.9172 18.0731
18.4618 22.1832 33.3116
48.638 28.7379 19.7589
27.2132 12.955 7.45819
20.0229 17.9607 15.9547
16.7763 11.0943 16.4238
37.3729 20.2663 11.6783
37.1363 25.6813 27.7709
47.9775 37.0443 29.8192
9.67732 10.371 12.7519
37.8509 23.3346 16.6394
13.1244 11.3613 15.2356
17.2479 18.1611 17.811
30.2113 13.5779 11.889
28.5558 9.08758 7.04482
18.4282 16.8266 18.0166
26.8338 15.7773 12.9287
18.5288 17.2488 15.3205
13.9296 12.8402 16.4468
16.7152 13.1264 11.4805
18.4605 25.3174 34.2024
17.3793 13.7751 12.5702
28.9013 17.7583 15.5488
32.264 28.757 24.0062
18.8737 14.1209 14.5214
17.7853 7.37299 9.03781
21.356 23.9562 24.9875
41.7676 26.7324 20.2601
7.56896 3.5418 2.98268
14.3958 8.82029 10.4349
9.29375 12.2465 9.87487
20.8716 27.897 36.3616
39.742 17.8181 12.7511
10.6644 15.6479 20.8553
30.5066 24.7848 21.3708
47.5021 30.9672 31.5141
5.88677 2.95296 4.51821
17.9435 23.3698 27.051
46.4866 45.9329 39.8578
27.9509 16.1246 18.3759
17.1368 13.6066 16.7342
50.9878 33.1021 35.5048
26.3354 10.9234 12.9305
28.628 25.2188 28.8339
24.0162 18.2306 16.2131
31.7129 28.3262 26.1607
25.0627 20.9294 24.797
11.0928 6.56292 6.89861
17.9912 25.7652 22.7168
11.8824 12.4132 16.4846
14.8428 7.39369 11.6042
23.0064 16.9815 13.9368
20.85 15.1024 15.2655
13.7993 24.9229 27.0762
20.9238 11.747 15.1188
16.902 16.0757 18.0197
11.0449 12.6713 10.519
13.0785 11.6669 18.9405
12.2455 13.2389 21.143
46.033 28.0123 28.6034
13.3381 6.88422 9.44435
49.9791 32.431 25.1345
16.4125 17.3178 28.3301
22.8868 18.8137 19.0511
13.9638 7.61262 6.45523
7.10241 7.12347 12.6318
14.0789 15.241 15.6739
5.89569 7.99519 11.3282
13.8426 17.0973 20.816
35.3457 24.4514 31.0554
10.5456 9.92109 10.0878
6.18938 6.88524 10.6241
20.0617 18.0813 19.4529
19.1216 10.1727 13.6948
16.7636 10.1614 13.1476
10.4752 6.41331 5.68198
20.0047 17.4138 22.6494
24.9096 25.86 20.7337
27.8112 24.407 35.0339
27.0182 32.0865 36.1075
18.2271 14.03 21.8297
17.3877 17.3358 23.1588
3.81998 5.97705 5.33426
18.6639 20.0731 23.9471
27.783 21.0335 25.5093
15.2136 21.2791 21.5691
21.1246 13.3944 18.1649
10.5955 18.8007 19.3456
10.3484 8.83337 12.5537
12.422 9.24354 11.4667
10.6078 15.7903 29.8535
14.6153 23.144 14.846
14.8724 22.5709 30.2012
12.3527 12.4815 21.822
14.5952 13.4887 12.1866
14.2155 13.4818 19.0341
27.3211 14.0224 14.4963
10.3371 6.68203 13.995
25.4611 24.6306 28.8459
13.9741 12.021 9.58952
17.043 20.7929 21.8273
18.767 30.413 51.1363
12.6858 8.63055 8.95868
6.49866 16.4683 23.0402
15.5475 19.4122 34.5802
34.1291 29.3397 33.0013
17.9643 12.8922 16.7522
5.55771 14.5017 15.4711
17.0201 8.17947 10.666
21.1032 28.9733 30.4361
11.9073 19.9587 35.1942
22.0848 16.4301 22.1859
13.7606 6.99947 6.40732
12.3211 12.5759 13.0899
14.3043 11.4471 19.2446
17.6611 27.4181 36.7818
21.9458 9.29912 12.399
20.0747 13.359 9.67527
9.87628 16.1877 28.121
21.8417 17.461 21.9216
13.6774 7.38503 11.4426
22.0311 16.3162 21.6287
10.8735 12.5818 23.6362
4.34214 7.0607 11.1613
6.38685 14.0184 22.5272
10.0006 9.16036 8.64782
9.49757 12.638 14.7297
20.532 21.6017 28.3696
11.9645 27.7693 37.7257
10.8253 15.9629 26.9755
22.5504 19.9222 28.0767
15.375 12.9947 29.9585
37.0778 22.8961 18.9425
7.13553 12.0789 18.8379
14.2899 18.193 22.6578
15.3182 16.1772 25.6835
20.9092 24.6557 25.6973
11.4764 17.4772 26.3967
7.58498 8.62752 15.1859
8.06578 14.9991 19.1261
9.39795 14.1956 20.2152
8.93662 14.7724 14.3572
16.0534 38.8011 69.5067
15.2498 12.2342 16.3627
8.09393 12.2337 23.9569
19.8387 16.3861 20.0868
9.41522 6.51003 17.0118
5.7107 10.9145 11.9739
16.3586 13.3215 26.8039
17.4958 15.155 32.2787
24.5979 25.1968 36.6204
26.1719 21.5534 20.0322
14.0033 16.8855 31.7109
23.1522 16.7305 14.6143
7.21343 16.0877 25.6732
17.5416 15.2156 21.1822
9.00408 9.04682 11.7749
8.13986 5.8463 19.1899
17.4727 25.4824 31.8805
11.2625 6.4234 8.122
8.55342 11.4416 22.5035
8.8812 3.39448 6.48582
19.5061 12.9991 16.9777
13.1749 8.66345 8.04055
15.7676 17.3482 22.2222
4.44227 7.88028 19.7436
9.95772 6.23623 10.8179
11.653 14.3652 22.1418
11.6299 11.0793 14.5176
13.4574 19.6342 36.829
15.4523 13.1919 24.4894
14.2106 14.5079 16.695
5.58785 4.917 11.1541
9.49327 9.96371 12.4528
9.36828 10.231 22.0469
17.3475 6.90053 7.53123
13.8833 17.8097 34.1737
15.5393 7.51049 5.5129
13.1351 13.2506 15.441
8.16046 8.83202 16.9281
8.31665 6.13973 10.1389
6.30655 14.0936 26.0471
11.4264 17.9021 31.1534
15.0844 11.7356 15.5583
15.69 20.0019 35.3091
11.6891 23.9247 50.373
10.1629 13.4209 24.6805
12.3278 11.9981 12.0292
4.39728 14.4847 24.8286
8.11732 8.14511 21.8309
15.4328 10.0214 14.3886
8.7543 11.6533 24.9274
6.85607 13.1268 21.1997
7.92811 8.49619 18.3358
12.9739 18.9963 22.6701
3.59009 4.72572 6.86513
5.58511 8.28724 29.8119
23.7172 12.7747 8.42069
5.77246 4.91091 12.248
8.39549 14.9038 23.3081
11.7209 13.8659 26.4848
19.8985 17.298 26.4728
27.3957 36.2876 50.9711
16.7776 12.8286 24.2369
8.70932 14.3035 32.9923
18.8621 11.2499 13.5673
7.55154 9.60438 16.1104
9.46484 5.89511 5.76103
13.9881 12.9615 22.8174
8.97974 11.0437 21.415
6.45621 17.3771 48.3551
9.73297 8.28649 14.1256
8.97423 16.2054 24.4227
4.3324 10.8342 38.5105
29.5944 23.5437 34.3646
7.40745 11.1535 25.3916
25.4234 19.4444 24.517
12.1904 19.7092 18.446
12.3382 15.6818 26.3624
10.2826 18.1153 37.0527
9.72037 15.9651 27.5106
18.054 21.9948 29.8318
7.97618 9.26716 21.5862
7.36658 15.8294 30.9776
9.67079 19.3036 35.1757
7.41147 4.72615 9.54923
17.7982 26.6042 51.9793
10.5633 16.4028 19.1891
7.51286 18.0743 59.9526
29.2358 33.7546 28.5992
8.33672 16.0029 29.5001
16.794 25.6302 33.1393
6.32109 17.4129 31.3867
12.4696 24.9388 61.6722
9.47185 7.36071 19.8549
8.11034 3.04438 7.40956
11.1633 12.3363 20.0926
4.76994 11.0317 42.1041
23.8295 23.2179 21.048
9.51386 16.948 46.5858
10.7197 4.9822 18.9152
20.324 36.8746 55.3123
26.8031 34.5596 59.8102
4.41906 7.82116 17.1437
11.3964 17.53 38.2473
11.3186 21.5774 32.0214
8.13877 3.4999 13.1041
6.41989 13.4055 21.018
32.8833 42.644 85.694
16.2719 11.9521 21.1288
7.92719 17.751 29.2595
6.06106 10.3385 24.8324
9.31032 11.2136 27.3157
17.0834 22.9234 36.0686
7.22423 3.80439 14.9151
6.57024 20.6176 31.1629
17.9909 29.2429 63.8612
14.7863 14.4976 30.0221
7.13548 7.33987 14.1034
13.5131 9.73812 23.6804
20.9849 22.2481 26.5416
6.72884 4.79367 9.4701
17.3964 22.4107 41.4787
6.28321 8.7253 30.1176
12.8042 31.8293 50.7668
19.35 19.2267 51.303
13.1993 36.56 87.1626
20.9825 22.5951 24.9023
6.96034 10.7215 20.4374
5.52378 1.41974 9.15153
7.1387 10.432 16.1975
8.68709 14.8268 47.9423
15.4375 14.2341 29.1017
12.2699 9.01501 14.0893
6.74045 12.0774 17.8299
3.70874 14.6813 36.7998
8.58161 16.0393 36.0242
14.9257 16.0647 22.9043
7.31006 2.70552 8.02446
7.66617 11.3182 32.1474
18.3693 16.1688 23.084
15.891 30.878 44.2976
4.52118 17.2505 56.1488
6.52613 15.225 25.1822
6.76307 10.1068 12.0825
6.95127 14.867 26.704
4.46995 16.946 50.1425
15.7619 13.5168 19.0558
4.43807 10.7379 17.82
6.69831 20.4742 66.0745
19.3853 21.7186 48.2065
5.69312 16.0037 25.6845
6.97715 19.1655 36.1292
7.5419 11.1072 29.2127
10.6464 13.8113 26.0877
12.2744 18.4836 36.7023
9.5446 7.00911 15.0145
7.40034 13.6758 36.8994
11.7437 13.2722 21.3802
9.9705 6.1451 15.0027
2.8053 4.16266 16.3346
11.4702 16.7767 36.0235
10.6674 16.6446 39.0311
11.2399 13.9079 35.4138
15.6941 20.1557 25.0952
16.5518 19.6217 40.8386
13.6008 16.8539 34.8061
7.00317 18.3951 46.9797
3.45876 7.24187 10.9455
8.60731 28.2435 79.0574
15.6157 10.876 21.8566
12.6849 25.6797 55.4234
9.2623 11.2914 30.3343
6.58301 27.2261 60.7596
13.5977 14.4515 16.7724
6.05021 8.05188 28.8198
7.91175 12.0564 27.6149
5.17261 18.5273 35.9123
3.82148 8.96148 15.425
5.55474 17.132 39.3195
10.3348 21.0556 37.4408
6.70192 16.8474 54.6797
16.7241 17.9641 38.1788
11.9819 22.4669 60.5617
5.58145 21.0719 56.1345
10.2402 29.5399 46.1367
8.26175 10.0493 35.9941
9.594 17.7086 34.232
7.35521 14.2033 32.9165
10.329 18.8969 43.4626
12.5615 12.477 13.0089
8.28654 13.2751 34.711
10.2305 18.0722 41.4005
3.56973 13.5812 34.54
5.91323 4.88747 10.0573
12.6833 18.7567 36.8527
10.047 19.8352 45.9178
18.2509 30.7175 67.8275
4.80133 14.4157 51.8556
20.562 30.3436 46.0335
6.99715 6.09177 25.287
11.2048 25.431 57.3363
13.362 25.2211 67.3281
9.06583 11.5182 24.8446
3.82091 12.2054 18.2339
7.17453 14.7819 31.5138
5.82996 11.7186 27.0599
8.54572 16.2283 41.5407
6.53135 25.4892 66.076
19.6583 20.6964 37.518
4.01826 5.6097 32.4739
10.8653 13.6298 14.0044
4.8711 15.9963 48.9821
9.18096 36.994 69.8223
7.03696 11.3575 28.6673
7.07617 20.4688 46.1578
6.50397 5.90444 32.2289
4.69291 15.7554 66.3633
17.9543 23.0248 73.3218
13.3136 26.238 20.8922
11.5778 14.7856 33.6345
6.6798 12.0893 33.2208
5.8693 4.89673 25.9387
10.3043 22.142 39.8398
10.3524 11.2 25.4853
9.19511 23.474 37.3442
3.64103 10.9947 49.3859
12.3803 13.6484 24.4074
3.36046 13.5009 27.8414
6.27958 6.67261 29.3333
8.49382 12.8365 27.9735
3.80179 2.55983 5.90848
3.37873 5.58832 17.3865
6.0157 11.6699 41.5975
9.14737 17.2953 25.8315
8.16221 20.0346 52.0787
13.569 15.4352 20.8056
