# pn-170911/CsIIA-av-CsII-1280-1959.psd
# Power spectrum* (dif=0,1,2) (really just |FT|^2)
# NOTE: only the first half! (symmetric)
# weeks: 1280-1959
# 4530 clock-days, 1461 excluded
# PSD: 1441
104603 3.08829 0.0556641
5.08602e+06 76.0165 0.0529884
3.36884e+07 691.862 0.0651907
4.03318e+06 155.902 0.0573204
4.85437e+06 357.22 0.0772325
1.50272e+06 148.164 0.0675746
1.08248e+06 157.022 0.0773081
788498 152.453 0.0858822
652343 154.894 0.099712
450052 143.561 0.103764
420993 153.881 0.120113
333379 151.683 0.13756
292266 148.726 0.15219
233005 149.421 0.166206
229908 148.721 0.187934
180916 149.45 0.212545
179918 154.173 0.242073
143091 150.081 0.252139
141900 149.407 0.278781
107442 141.369 0.292219
112180 140.959 0.320024
87693.5 147.597 0.358849
94405.4 148.747 0.387787
74453.6 144.839 0.414868
78980.7 146.721 0.448535
64010.4 147.584 0.492286
68688.2 147.809 0.526101
54868.3 145.819 0.545327
57092.6 149.929 0.60242
47241.6 145.913 0.622707
48335.1 149.023 0.687243
42164.3 150.763 0.738868
41949.6 147.318 0.771595
35821.5 147.217 0.807299
33902.8 140.242 0.824955
31981.8 146.852 0.908443
31199.9 148.78 0.963159
29236.6 147.511 1.00126
27395 140.939 1.00793
26610.5 146.58 1.10671
25285.2 149.288 1.17023
23920.5 151.969 1.2682
21949.1 143.825 1.26802
20908.7 147.474 1.33911
19974.8 147.026 1.3929
20236.9 148.993 1.47957
19139.4 147.503 1.52424
17743.7 144.696 1.56749
18051.6 145.081 1.63504
16171 141.589 1.65386
16440.5 147.563 1.78384
15649.5 148.109 1.88091
15540.1 147.306 1.93668
13778.6 144.097 1.96285
14061.2 138.697 1.95106
12929.3 141.587 2.08395
13107.2 137.714 2.10546
12437.2 145.408 2.28215
12942.2 138.514 2.25998
10884.2 134.354 2.26533
12688.2 144.4 2.52218
10529.5 139.673 2.52019
11582.1 138.744 2.57203
10289 143.756 2.73334
11026.2 138.205 2.73158
9197.47 135.577 2.76582
10392.9 142.04 2.97776
8937.94 138.912 3.01652
9375.02 135.262 3.02616
8519.79 143.666 3.30184
8426.22 134.179 3.15254
7737.7 134.002 3.25771
8118.57 138.738 3.44142
7498.37 144.548 3.65784
7551.09 136.681 3.57234
6933.28 135.976 3.66703
7281.55 143.05 3.9716
6487.52 136.288 3.87934
6579.26 138.814 4.04663
6010.31 134.337 4.03082
5928.09 133.495 4.0813
5799.6 139.969 4.37814
5390.04 127.125 4.1093
5255.68 130.981 4.32015
5427.54 136.012 4.58971
5122.26 133.21 4.59203
4892.9 124.736 4.39987
4966.67 136.16 4.93633
4892.23 132.143 4.92114
4515.19 128.891 4.88896
4741.12 129.789 5.05645
4310.37 127.925 5.02281
4598.69 129.442 5.22479
4482.76 136.007 5.6364
4448.94 128.002 5.41257
4191.33 129.248 5.59136
4358.87 127.979 5.63013
4059.28 128.944 5.77826
4201.65 127.752 5.87875
3917.91 133.73 6.24021
4155 126.355 6.01909
3719.09 127.614 6.19405
3915.3 123.604 6.13589
3519.15 124.278 6.26577
3866.56 123.823 6.38276
3534.63 128.063 6.73521
3733.24 127.737 6.82483
3308.63 122.205 6.65425
3518.9 125.052 6.93062
3118.23 123.527 6.9561
3372.25 127.007 7.32103
3019.11 120.744 7.09414
3085.27 124.29 7.40873
2964.65 126.322 7.72588
3067.69 123.013 7.552
2757.62 118.561 7.51728
2838.88 120.431 7.67555
2542.18 118.57 7.72268
2591.77 114.423 7.59502
2447.37 117.294 7.84494
2476.47 119.546 8.16575
2372.29 118.949 8.30025
2324.24 117.839 8.32402
2278.73 117.967 8.50654
2292.24 118.933 8.63411
2220.65 115.473 8.54808
2068.39 111.598 8.36823
2150.48 120.839 9.24561
2044.63 113.588 8.85186
2044.16 115.234 9.07784
1974.95 113.203 9.05476
1995.34 114.704 9.37209
2025.12 112.412 9.3475
1926.23 116.228 9.75052
2000.89 111.349 9.44209
1945.81 116.542 10.0883
2017.25 114.468 9.96365
1850.23 111.5 9.88022
1940.59 110.21 9.95948
1831.67 109.45 9.97862
1884.51 108.508 10.0418
1751.27 106.43 10.0844
1883.29 114.49 10.9266
1762.86 109.598 10.6557
1786.6 109.58 10.7056
1736.47 109.127 10.8392
1801.72 110.62 11.1739
1705.86 111.971 11.3896
1774.75 114.841 11.9234
1586.34 110.346 11.5339
1640.81 107.623 11.4098
1481.53 101.637 11.0194
1617.29 107.608 11.7559
1494.14 105.939 11.6569
1522.34 105.759 11.8403
1375.73 105.449 12.0016
1473.02 106.59 12.2119
1270.04 100.192 11.68
1345.69 107.819 12.7272
1388.71 111.506 13.3138
1260.52 102.22 12.3199
1258.39 104.287 12.7434
1205.7 103.818 12.8949
1185.54 99.3968 12.4715
1197.91 101.558 12.9427
1159.48 99.9489 12.9159
1103.53 101.456 13.0448
1180.7 102.398 13.4899
1093.89 98.6925 13.1303
1115.86 103.255 13.8702
1074.76 100.586 13.6987
1068.38 100.056 13.6972
1060.92 96.4999 13.3799
1025.44 97.4524 13.7579
1066.02 97.1679 13.7974
1063.48 103.357 14.9225
1047.48 95.2301 13.9201
1060.63 101.512 14.9391
1043.86 97.2348 14.4899
998.105 96.597 14.5104
1063.17 96.7854 14.7602
965.715 94.8235 14.588
1079.67 94.8155 14.7175
944.073 96.0536 15.0575
1013.67 92.7477 14.6912
915.005 91.445 14.7339
1032.46 92.9401 15.1779
930.553 92.8608 15.3068
991.721 95.8112 15.7888
875.676 91.998 15.4703
1004.36 93.2765 15.822
861.415 92.8716 15.9971
1009.41 96.3708 16.7826
835.463 90.0212 15.7639
891.865 91.2868 15.988
819.825 91.3474 16.3331
893.544 91.6469 16.4896
801.37 92.6508 16.8243
841.322 92.3155 16.8909
724.434 87.7102 16.3681
758.374 88.0688 16.4965
751.386 89.4908 16.8931
756.496 89.8241 17.1502
699.027 88.0372 16.9841
695.749 88.1694 17.1448
671.737 84.9249 16.6942
677.234 87.1023 17.3063
675.255 88.0698 17.6355
687.071 88.8506 17.9451
623.598 82.8151 16.9748
638.379 87.4421 18.0405
635.37 85.5607 17.8412
624.969 87.1446 18.3829
616.601 84.2943 17.9849
600.876 83.2789 17.7805
607.986 85.1693 18.2871
618.36 83.5377 18.1561
636.142 85.0453 18.7675
623.417 81.8784 18.2651
601.051 85.3915 19.0733
647.289 84.6965 19.1722
575.948 82.5339 18.7694
638.361 81.4287 18.6531
576.761 80.5799 18.7635
648.174 78.9799 18.6052
577.451 81.8083 19.2819
626.075 80.0685 19.0686
544.971 79.696 19.2801
640.407 81.4566 19.624
551.947 83.5432 20.5119
622.925 82.232 20.1533
539.712 78.3888 19.5288
585.502 77.7297 19.6138
521.859 79.3975 20.153
608.713 79.3842 20.194
512.246 79.2771 20.4582
570.301 77.7275 20.1152
471.266 78.0935 20.4646
531.331 76.8116 20.2722
478.21 77.1584 20.684
510.902 76.1422 20.4553
460.212 78.2396 21.0277
499.656 78.0255 21.2995
445.044 75.5046 20.5921
474.456 79.5931 22.1642
422.738 74.7555 21.0552
438.152 77.0253 21.6942
426.749 79.0309 22.1713
406.15 73.7469 21.1324
429.184 76.6291 21.9454
413.842 74.1659 21.4893
412.613 74.3004 21.6858
389.672 71.4171 21.116
381.186 73.0155 21.6766
392.374 73.9022 22.0761
381.537 73.4365 22.1964
408.374 72.0114 21.9066
383.611 73.3321 22.2957
417.783 75.5585 23.2636
367.012 71.6577 22.4387
413.046 76.8278 24.189
374.348 72.6827 22.7991
405.868 70.1049 22.2556
359.795 71.8523 23.273
424.198 70.2984 22.5771
361.106 71.3591 23.0588
442.301 71.8182 23.3334
349.308 70.6201 23.4602
432.107 70.6446 23.4962
358.817 71.4544 23.7963
424.008 69.5501 23.5335
346.712 69.7777 23.7147
416.327 68.4753 23.257
333.693 70.5577 24.5633
404.602 67.0846 23.1777
321.867 67.456 23.6167
389.78 68.7724 24.1817
319.234 69.0097 24.6213
374.108 65.4471 23.4874
306.428 66.9316 23.8754
354.077 68.6247 24.6571
294.113 67.5907 24.5899
321.01 65.238 24.066
279.164 64.5368 23.8057
320.172 66.5069 24.6046
278.853 68.4579 25.6291
294.078 64.0982 24.272
281.327 66.0792 24.9408
276.633 64.9213 24.6197
262.716 65.1127 24.9038
258.236 65.0916 25.3955
263.679 62.6547 24.4991
263.744 64.6976 25.3295
253.031 63.6922 25.1683
260.055 65.2718 26.0803
254.437 66.0697 26.5156
265.458 63.6711 25.4321
245.138 62.725 25.2652
261.075 62.6697 25.6245
251.513 64.8277 26.5577
268.344 62.7662 26.0519
242.267 62.2718 25.8034
269.261 60.897 25.3512
242.486 64.0191 27.0069
272.311 60.2908 25.6646
241.204 62.239 26.4551
282.365 63.4212 27.2766
239.089 61.3197 26.4307
290.939 61.4124 26.565
228.399 59.0159 25.6804
292.389 58.4878 25.7501
230.263 58.483 25.9711
302.428 60.1346 26.9901
232.668 61.5239 27.6675
290.474 59.7648 27.0374
222.587 57.326 25.9042
287.397 60.6406 27.8798
219.986 59.771 27.1442
271.232 60.3115 27.8649
223.085 59.333 27.8287
262.329 57.9189 26.9707
209.14 58.4507 27.3463
242.093 57.9543 27.9899
219.556 59.5706 28.0933
230.033 58.9389 28.0138
203.186 56.9253 27.4612
224.472 57.6881 27.9706
199.627 57.8944 28.3587
206.949 56.543 28.1142
194.898 57.0961 27.9743
206.373 57.3645 28.1564
185.507 57.1576 28.9138
187.016 56.7943 28.3392
191.693 59.0217 29.8001
190.555 57.0781 29.0901
189.322 58.0454 29.3698
188.729 57.1009 29.2989
179.861 54.6027 28.3788
185.664 54.0516 27.6917
179.809 56.4087 29.3827
188.264 54.0104 28.5853
183.24 54.9587 28.8093
195.585 53.0811 28.0316
182.039 54.8238 29.2
206.751 54.8575 29.5238
181.157 54.651 29.6299
199.817 51.6916 28.135
182.513 54.5772 29.5941
216.275 54.3733 29.7314
179.899 54.2914 30.2707
216.575 54.941 30.3799
175.41 53.8737 30.0695
218.515 50.7697 28.6088
179.742 51.6988 29.0816
214.393 53.0886 30.0721
175.424 50.8847 29.3788
214.531 53.1167 30.2402
175.337 53.3989 30.7301
210.956 52.2832 30.2516
173.981 52.0511 30.0263
196.391 50.3135 29.797
173.651 51.5172 30.6241
196.339 52.4835 30.7209
161.332 51.3982 30.6846
192.478 54.2066 32.187
160.528 50.5331 30.735
173.213 49.9151 30.1724
160.663 50.7088 30.6907
164.101 50.548 30.855
153.266 49.0016 29.6558
158.965 49.0822 30.2204
143.931 48.0972 29.6723
150.553 48.461 30.3146
147.258 51.216 31.9425
146.829 49.6827 31.16
144.394 50.383 31.5989
146.453 47.4825 30.5774
144.16 49.7017 31.8106
144.533 48.1392 31.0537
141.844 48.1915 31.2616
147.046 47.6831 30.5959
139.35 47.0987 31.0985
151.639 48.6212 31.8231
139.468 48.8498 31.6782
157.67 48.9074 32.4633
144.449 48.7794 32.6395
161.78 48.1428 32.1344
143.781 47.1859 31.7258
160.523 46.6426 31.688
145.397 48.1853 32.8643
161.198 47.8373 32.2331
147.937 48.219 33.034
171.882 47.0829 32.6163
145.488 45.7452 31.5203
166.536 46.4872 32.1227
144.655 47.5083 33.5121
167.578 46.506 32.1726
144.197 45.6175 32.1604
164.335 46.9508 33.0197
145.896 45.9934 32.9527
157.347 45.5051 32.3765
138.174 45.8591 32.8184
157.052 45.7299 32.7951
139.477 45.071 32.8236
153.663 46.0834 33.2979
135.977 44.3998 32.4093
141.423 46.336 34.0529
130.097 45.0296 33.4031
136.403 44.056 32.4779
126.909 44.5102 33.3602
129.532 45.5006 33.9519
124.301 44.9196 33.4154
120.4 42.8556 32.6488
120.298 43.3413 32.4172
124.697 45.7805 34.4946
113.254 43.3438 33.5492
114.806 44.4326 33.9417
117.695 43.967 33.9565
112.389 41.5173 32.4024
113.338 44.1818 34.8432
119.962 44.4342 34.6164
109.447 42.2308 32.9819
115.287 42.3906 33.4101
117.717 43.7076 34.4566
118.013 42.609 33.8669
117.849 41.7325 33.4593
120.512 42.3653 34.5187
117.184 41.2499 32.7815
123.263 42.3095 34.5934
116.342 42.5439 34.6057
128.291 41.936 34.1331
119.891 41.9298 34.3993
133.711 41.5674 34.577
124.247 41.2092 34.2189
132.23 40.8591 34.1244
117.67 41.2509 33.8167
132.97 41.7517 34.8788
118.596 41.8101 35.1253
132.389 40.7044 34.7482
114.993 42.1688 35.5357
132.465 39.0969 33.5761
115.417 40.7451 34.7964
130.445 41.8256 36.2067
109.387 41.1068 34.9353
122.643 40.0249 34.9082
107.205 39.2484 34.5386
119.073 39.8987 34.8316
107.034 40.0376 35.0084
115.418 40.57 35.4655
101.518 38.5049 34.0644
109.812 40.1734 35.649
97.8753 39.0698 34.8743
102.794 40.0234 35.9799
96.0344 38.5826 34.5049
97.72 39.7117 35.959
100.697 39.4682 35.9891
93.9517 38.9497 35.3348
94.8256 39.6059 35.8702
91.8078 38.82 35.9942
94.3062 38.5652 35.5041
94.897 39.026 35.9232
93.3993 37.2782 34.2307
91.596 37.874 35.3009
93.9799 38.985 36.7039
95.4334 39.2089 37.0964
91.0215 38.8256 36.5638
94.3599 38.241 36.5015
90.5088 36.545 34.3957
100.008 36.5249 35.1867
93.6254 37.0307 35.5635
104.472 38.1123 35.8837
94.0768 38.0419 36.587
107.41 37.2622 36.2932
95.3402 38.3359 37.6315
110.693 37.8931 36.3352
94.8711 35.7539 35.1944
109.171 36.7831 36.3816
95.6953 37.265 36.4688
115.604 36.5276 35.9068
97.7321 37.1501 37.3174
115.805 37.8275 38.3588
93.1712 36.109 36.0289
113.769 36.0008 35.437
94.4033 36.3511 37.1586
109.476 35.8671 36.4009
88.5482 35.7228 36.4451
100.141 34.0671 34.6764
88.5752 36.4924 37.5446
99.848 36.072 37.4117
89.56 35.6814 36.1459
92.0738 34.9558 36.6505
81.3125 33.0413 34.269
90.9624 34.6249 36.434
81.1484 33.5515 35.111
87.0902 34.853 36.8139
76.817 34.7172 36.8081
82.4262 35.3326 37.6965
78.401 35.5922 37.4959
78.14 34.3609 36.2648
75.0458 34.8465 37.1819
76.1156 34.5175 37.5836
75.1064 34.2637 36.8391
73.4887 34.0493 36.7064
77.372 33.7755 37.1035
77.4066 33.6468 36.9384
75.0991 34.4383 37.9937
77.3972 33.3226 36.2887
76.1407 33.7956 37.0919
80.9627 34.0974 37.3952
77.7549 33.6949 37.4235
83.0573 34.302 38.6569
78.6196 34.5929 38.4715
89.2374 32.8829 37.3315
81.6945 33.7559 37.644
89.3576 34.2683 38.3587
76.2001 33.2501 37.8597
93.5383 33.8966 38.1751
78.6642 33.3152 38.1358
94.7784 32.7629 38.1081
79.1955 32.5305 37.0402
92.3146 32.5354 37.4188
75.9119 33.2303 38.2233
96.377 32.694 38.1425
73.3149 32.5785 37.4476
95.6407 32.2831 37.9775
75.6894 32.3577 37.6005
92.5485 32.8158 39.0517
71.5856 31.1516 36.7874
88.8071 32.4258 38.3623
69.8989 32.3747 38.6667
84.4554 30.7238 36.7077
69.6084 31.7939 37.9273
78.3707 31.9459 38.5911
67.0774 31.6557 38.2135
78.1447 32.3651 38.9742
64.8913 30.8313 36.8119
71.628 30.9863 37.9344
64.0841 30.9908 38.3457
65.4763 30.2229 36.9148
64.1377 31.6779 39.0291
64.8541 31.0942 37.8441
63.638 31.5394 39.0283
60.8883 30.4556 38.1803
61.6109 31.1172 38.6848
64.4369 30.9101 38.4458
62.41 31.2614 39.5751
63.7751 29.8967 37.6332
60.7829 30.9069 38.4057
64.6906 30.729 38.9907
59.6825 31.3209 39.6011
69.3493 30.4722 38.7284
61.7199 29.8383 38.6031
73.113 29.8411 38.4045
60.9974 29.8434 38.4136
74.0868 28.8304 36.9195
59.6866 29.1081 37.8567
75.2574 30.1863 39.0452
61.8639 29.4961 38.2334
76.9073 29.1968 38.1435
61.8477 30.1256 39.029
78.8502 29.4416 39.1502
61.1755 29.0697 37.9495
81.9478 28.9743 38.6653
59.5956 28.9175 38.1872
82.5631 29.8515 40.1377
58.7473 29.3587 39.3588
77.541 29.3304 39.1189
57.2684 28.4231 37.9589
77.6758 28.6855 38.4892
57.6629 29.2066 39.4243
71.4209 28.1601 37.6412
54.6775 28.7835 39.5555
69.3819 28.6013 38.6199
51.0839 27.6743 37.919
66.1245 28.4247 39.2688
56.2221 28.0193 38.8865
57.8391 27.6582 37.8461
52.4515 28.5738 39.4524
54.9708 27.832 38.8953
50.8995 28.1977 38.731
53.2435 28.0261 38.6483
47.3771 27.9832 39.9701
51.432 27.7972 39.5045
50.6302 28.3708 40.0128
50.2986 27.7031 39.2113
47.8404 28.4062 40.909
49.366 27.7115 39.4243
49.7774 27.0043 38.168
51.1482 27.7024 39.2446
48.3149 27.0583 39.1202
52.3013 26.993 38.5242
46.3116 27.6591 39.7893
52.2634 27.0805 39.5239
48.0453 27.7099 39.751
58.9922 27.6565 40.4517
47.6135 26.7141 39.0506
58.9903 26.8532 39.5705
48.0494 26.1077 38.868
62.0371 26.6505 38.9756
48.1659 25.6777 37.8725
62.7677 26.3952 39.127
48.209 26.7478 39.2186
64.8367 26.0134 39.2132
47.8699 26.2396 39.3182
66.0722 25.4067 37.9949
47.6546 26.7587 39.9724
65.3589 26.9929 40.0813
48.9435 26.3754 39.7437
63.256 26.4884 40.9896
46.3081 26.2554 40.255
61.598 27.1353 40.5516
48.0229 26.8366 41.0302
59.3784 25.9073 38.8934
46.1513 26.4951 40.9266
58.877 26.0588 39.5571
44.5987 25.8936 40.018
51.6975 25.4211 39.4989
44.4456 26.3182 41.1103
49.9675 26.2038 41.4525
42.3341 25.7218 40.2157
45.6471 24.7436 39.0996
41.8331 24.1447 38.0127
42.3375 24.4485 38.1315
41.1999 25.1038 40.0683
42.9016 25.9032 40.7453
39.6522 25.1001 40.2349
41.4904 25.3135 39.8405
41.1084 24.4119 38.9991
41.1645 24.9669 39.9361
40.0928 25.2852 39.9659
41.0224 25.8559 41.1743
41.4561 24.9489 40.6106
43.5751 24.7799 39.8368
40.0865 24.622 40.3919
46.2062 24.9952 40.578
40.3913 24.5864 39.9096
50.3337 24.8773 40.6896
40.5172 25.0429 41.618
50.96 24.8254 40.4897
42.3472 24.2006 39.1984
52.3663 24.6289 41.2465
42.3877 24.7914 41.7079
54.3521 25.1076 41.5984
44.4008 24.1513 39.2054
55.0805 24.0294 40.1464
43.1165 24.2469 41.3512
57.0201 24.587 41.3593
43.2739 24.6775 41.3996
56.6957 24.5924 40.8084
43.9079 24.2142 41.5125
55.3785 23.4953 39.8135
43.1241 23.0517 38.4096
53.2261 23.2317 39.6673
42.0413 23.4648 39.5228
50.072 24.0312 41.5189
41.6511 23.8951 41.5189
49.4296 23.5173 39.3431
39.6871 23.4797 41.059
44.0626 22.2757 39.4383
38.7498 23.4663 40.6829
40.4454 23.4692 40.7879
37.8725 23.2164 40.0731
39.1095 23.0949 40.5325
37.7121 23.1078 41.9192
39.3235 23.5764 38.9344
36.228 22.8435 40.3384
38.1024 23.4714 41.1976
35.7678 22.5923 39.872
37.2007 23.3228 41.3072
35.4982 22.5946 40.1767
37.1239 22.346 39.9433
37.1697 23.2231 41.8875
38.7393 22.9466 40.766
36.9799 22.6005 40.6811
38.8958 22.5757 40.4845
37.9982 22.96 41.0654
42.3963 22.5692 40.4134
37.2434 22.3907 41.3412
44.1642 23.6246 43.0281
38.8134 22.3274 40.267
44.9512 22.1481 40.1557
39.4104 22.3485 40.7843
45.7219 22.4058 41.3705
40.7656 22.2643 40.3366
47.5754 22.3517 41.2884
41.5212 22.5277 41.6861
48.4196 22.1128 41.5142
41.7004 21.2105 38.8564
47.5158 21.777 40.3658
39.792 21.6295 41.2608
49.4111 21.9509 40.674
41.3239 22.761 41.5339
47.3642 21.5391 40.5547
40.0057 21.8993 41.2339
46.7003 21.7148 40.1435
39.3023 22.271 42.2325
44.2288 21.1556 40.53
38.1605 21.3343 41.1937
42.7485 22.278 41.491
38.0128 21.0907 40.4655
39.871 21.5975 41.4179
36.3002 20.9832 40.523
38.2057 21.1619 40.8564
34.6371 21.206 39.9152
35.3697 20.5591 39.8529
34.3024 20.6881 39.6895
34.5786 21.0685 40.4102
33.7245 21.3797 42.0285
34.0868 20.5712 40.1075
32.8318 20.946 41.1807
33.9076 21.2626 40.5412
33.1669 20.6932 40.8209
33.0485 20.9745 40.458
33.1632 20.3704 40.4003
33.7772 20.2861 39.9419
35.4182 20.6202 41.51
34.8183 20.6187 40.1382
34.6737 20.6712 40.6198
36.987 19.9902 40.2198
35.6282 20.5595 40.1525
38.9432 20.6663 41.5736
37.0942 19.6599 39.3586
41.0785 20.1742 41.0422
34.6816 20.1782 40.3939
40.9669 20.2791 41.1253
37.6413 19.8212 40.304
42.4114 20.4018 41.344
36.8519 20.9559 43.4794
45.4535 20.1595 40.2899
37.4915 19.8153 40.2296
45.1571 20.3866 42.5079
35.5942 20.1039 39.9797
44.2199 19.6687 40.6249
36.3387 19.8429 39.9033
44.2587 20.104 41.0127
36.2039 20.8053 42.2649
42.6695 19.5022 40.4193
34.498 19.4483 39.9028
39.3833 19.3706 40.5416
35.2832 19.4963 40.7658
36.8489 20.2069 41.9344
33.8098 19.8161 41.8372
35.9697 20.021 40.7818
33.6845 19.5327 41.6306
34.6538 20.0595 42.0685
32.4468 19.7134 41.7198
32.6468 19.3674 40.5987
30.3454 18.8556 39.8479
31.6616 19.5542 40.6327
31.2332 19.4579 41.5497
30.6946 19.1286 40.2852
31.4227 18.3944 39.7059
29.9827 19.0106 41.0328
30.6449 19.4904 41.3503
30.7715 19.5327 41.0094
29.3672 18.7222 41.269
32.0293 18.6456 40.0022
30.2505 18.5188 40.2619
33.9767 18.7449 40.7904
31.4296 18.2298 40.0116
35.6123 19.0925 41.2096
31.651 19.0474 41.3604
36.6205 18.6089 40.482
33.3276 18.8622 40.7276
38.0302 18.501 40.1651
32.9187 18.9629 41.999
40.1794 19.0379 40.9135
34.3622 17.9068 40.1994
42.0034 18.8645 41.5531
33.2171 18.8613 42.1949
41.3849 17.9754 39.3064
35.6597 18.392 41.3353
42.1688 18.2259 40.3479
34.37 18.8367 41.7688
41.3542 17.9999 40.0245
32.2645 17.9174 41.3883
41.1464 18.586 40.3611
33.6094 18.7537 42.3991
39.2 18.479 40.9155
31.4764 17.9983 40.7008
36.8522 17.9182 39.7133
31.2158 18.0935 42.0206
35.1821 18.2325 40.4267
30.8526 18.0587 41.2941
33.4533 17.451 40.1089
29.7954 17.8001 41.0866
32.9164 17.3572 39.3435
28.3498 17.4617 39.562
31.5057 18.0958 41.4216
28.2778 18.0027 41.695
29.7914 17.6989 40.7598
28.2999 17.5669 40.1215
29.4478 17.2069 39.7858
28.7152 17.9763 41.3031
27.5117 16.9928 39.984
28.5446 17.6347 40.7316
28.9813 17.6778 41.1607
27.8934 16.9831 39.2629
30.2688 17.2454 39.9063
28.8696 17.1538 41.2218
32.0166 16.7388 38.8968
28.632 17.0174 40.252
32.3608 17.3496 40.0486
28.5961 17.4762 41.9701
33.907 17.1961 41.0793
30.8778 17.23 40.204
35.1221 17.3892 41.0859
30.635 16.7197 39.6436
37.5703 17.4649 41.5606
30.8696 17.185 39.9093
39.762 16.6241 39.8749
30.146 17.3987 41.8448
40.5665 17.6077 41.806
30.4057 16.471 40.6177
41.4985 16.7239 40.4399
30.386 17.2333 40.6482
40.7466 16.5986 40.3299
29.8528 16.2296 39.4392
39.0566 17.0003 40.183
28.4189 16.9646 40.857
36.8408 16.6118 40.2658
28.0289 16.5665 39.9922
37.0071 16.4565 40.8401
27.9546 17.2058 42.6059
34.1304 16.2741 40.2291
28.0371 16.3748 39.6772
31.2786 16.1608 40.2781
28.3804 16.2893 39.5085
29.526 16.6495 40.4608
25.4496 16.173 40.7188
28.4201 16.8016 41.4979
26.1722 16.8735 41.6587
28.5025 16.5033 40.7399
