# pn-170911/CsIIA-38-AMC2-1280-1959.psd
# Power spectrum* (dif=0,1,2) (really just |FT|^2)
# NOTE: only the first half! (symmetric)
# weeks: 1280-1959
# 75 clock-days, 174 excluded
# PSD: 1441
75682.6 1.95016 0.0303432
2.06272e+06 37.4146 0.0333148
9.71541e+06 180.115 0.0372762
1.42024e+06 55.6146 0.0363628
1.98378e+06 130.586 0.0425723
691057 68.9601 0.0361126
470152 66.1359 0.0384217
284569 51.6271 0.0465599
227844 56.7475 0.0529739
196124 67.523 0.0570366
171259 62.3945 0.057287
144549 64.1049 0.0643748
110889 62.9358 0.0604707
81956.9 48.3384 0.0741741
71709.5 52.1795 0.0841623
69212.7 60.2038 0.0913823
69373.2 66.3345 0.0938612
58937.7 66.6752 0.124999
51159.7 64.5597 0.139012
40337.5 47.6341 0.119078
38920.4 64.2256 0.133049
27814.1 44.8522 0.129547
36705 60.0958 0.172073
31233.7 64.1292 0.209931
25470.1 54.6803 0.180698
21141.3 50.1403 0.197524
24181.9 60.9217 0.233058
22161.7 62.519 0.245621
20053.7 58.6076 0.239674
21767.3 69.0244 0.337345
18473.6 57.2714 0.264923
13534.5 48.5104 0.250207
17182.8 67.5177 0.367723
14466.7 60.9651 0.368219
11942.4 56.7551 0.319878
15761.3 74.8558 0.469391
12159.1 54.0345 0.376696
13097 64.7914 0.460412
9560.71 56.0924 0.41627
8103.03 49.2463 0.349151
8213 55.419 0.447489
8461.63 54.1201 0.479079
8197.2 61.5233 0.579493
7917.36 55.1988 0.512066
9902.1 67.9217 0.654809
6621.77 51.3758 0.53201
7520.78 55.8772 0.596478
6375.92 57.413 0.62652
6004.97 52.6633 0.611266
5097.07 47.4854 0.571327
4979.33 50.3938 0.64428
6418.02 62.2404 0.801272
4997.09 57.2454 0.787293
5114.46 53.0843 0.770472
4512.4 43.6169 0.619237
4453.55 65.5091 0.956477
4833.91 61.7001 0.938581
4945.14 63.3755 0.989526
4718.1 67.2679 1.11996
3986.42 54.3422 0.894348
3207.7 46.0229 0.834544
3682.45 53.7168 0.977916
3828.13 62.379 1.2301
3532.87 55.2365 1.09889
3632.24 58.3586 1.21582
3339.72 55.2549 1.15121
3347.16 56.4919 1.21177
2810.23 44.1051 1.00811
2543.63 46.7543 1.0564
3115.85 65.3846 1.4902
3255.18 64.6475 1.5601
2779.65 53.8398 1.30435
2809.69 59.8137 1.47133
2603.69 55.4724 1.50174
2805.37 57.8987 1.54675
2355.33 54.3907 1.52747
2475.62 49.672 1.41327
2165.24 51.0499 1.42016
2288.17 54.0969 1.5851
2237.15 57.9431 1.70705
2521.88 57.0208 1.76225
2577.84 62.9009 1.93823
2574.82 60.2016 1.94008
2419.81 68.687 2.31778
2141.33 57.6833 1.91952
2016.89 48.2759 1.62769
2037.69 58.851 2.06788
1890.04 52.7421 1.87562
1804.92 46.116 1.7511
1634.93 53.8688 2.08677
1694.75 51.4772 1.96999
1533.69 44.7889 1.79065
1799.09 57.3465 2.36295
1728.02 56.7583 2.33114
1951.29 59.089 2.57375
1552.41 51.2249 2.1646
1424.24 53.4255 2.40618
1476.34 54.6389 2.52946
1630.29 50.6113 2.35789
1534.9 55.5204 2.71445
1635.55 58.2522 2.87318
1837.22 71.4218 3.46584
1131.48 45.548 2.22365
1269.19 55.8015 2.88852
1437.4 58.3533 3.02758
1336.14 59.3847 3.17262
1703.17 62.1678 3.34333
1401.45 62.8609 3.44432
1546.4 66.9061 3.73984
1071.14 48.4298 2.7989
1185.43 56.4394 3.20781
1077.36 52.1436 3.0543
1192.83 50.3406 3.13816
942.57 46.7328 2.91605
1056.7 53.0771 3.20714
1044.84 51.6271 3.27479
974.671 46.9284 3.09534
1295.88 69.0947 4.38732
985.891 58.7793 3.88543
965.387 53.1003 3.5884
1216.44 59.0263 4.08916
987.136 51.798 3.66188
1020.27 57.7485 4.06908
770.795 45.2663 3.30892
936.652 57.4897 4.3159
922.206 48.358 3.54544
1278.39 70.8749 5.16765
895.569 55.6906 4.18715
918.57 61.293 4.8957
804.909 42.0475 3.32629
835.882 48.7696 3.99939
734.331 47.3701 3.82683
964.861 66.6722 5.49743
784.953 52.1393 4.39909
858.952 53.1932 4.60981
794.945 55.6216 4.82753
796.848 60.0598 5.21073
801.939 59.5133 5.23126
847.331 59.9599 5.51443
744.379 58.7032 5.39864
650.036 50.5085 4.77541
727.677 55.099 5.20494
636.515 46.2453 4.31643
716.215 53.467 5.20706
660.109 53.8817 5.26429
695.224 53.1877 5.32369
734.132 50.8419 5.14862
594.045 42.9717 4.20015
732.709 64.0805 6.65226
619.181 46.9153 4.97307
615.719 48.2336 5.11486
711.541 54.6183 6.06641
591.224 51.9027 5.71823
773.467 73.612 7.99832
586.366 54.7496 6.12922
655.726 58.3706 6.43824
631.812 55.0916 6.15921
579.476 55.5062 6.34304
524.099 43.8168 5.20707
541.265 54.5005 6.49996
601.136 49.1716 5.84734
625.351 56.1355 6.8078
600.644 62.8743 7.84914
530.247 48.6798 6.09178
462.617 45.5226 5.77678
579.637 61.4437 7.78236
626.593 64.8466 8.43429
533.039 53.7573 7.25229
542.363 53.9279 6.80433
507.898 56.6559 7.4299
530.71 59.9762 8.30802
468.694 52.718 7.19733
485.538 53.9413 7.70665
437.837 47.8838 6.71042
557.482 58.5759 8.69334
493.08 51.6776 7.41636
506.339 56.176 8.27762
393.556 53.8642 7.67412
485.709 60.0765 8.86224
433.884 57.7384 8.76458
574.502 67.0901 9.99321
375.264 46.1834 7.18013
457.787 60.4795 9.47924
379.891 47.5861 7.23984
329.808 45.1689 7.0751
431.987 52.4958 8.47145
415.258 62.5881 10.2801
380.368 50.1991 8.40834
352.55 44.0561 7.64452
389.869 58.4399 9.81159
359.121 47.0071 8.02541
365.144 51.5085 8.67367
378.631 47.9579 8.20453
358.402 48.8569 8.48149
339.438 48.8806 8.74458
366.671 51.5974 9.15423
333.374 46.1759 8.08397
351.774 44.5896 8.15503
411.435 53.6957 9.66767
354.995 53.5905 10.3053
341.496 51.8656 9.28391
379.87 51.508 9.70727
287.988 48.6877 9.68754
310.453 44.3422 8.48606
319.799 45.7342 9.07386
343.319 53.2104 10.4017
370.063 52.5907 10.5732
375.64 61.2333 11.8854
308.32 48.402 9.9998
293.819 51.1517 10.2758
291.426 45.4587 9.40288
282.848 43.089 9.062
327.779 49.2599 10.3987
309.103 45.5688 9.47403
267.631 41.0698 9.06442
322.68 52.4613 10.9921
354.574 53.5959 12.0058
289.557 49.0147 10.9557
309.566 54.9025 12.102
309.067 49.8198 10.983
277.45 49.7876 11.4189
289.803 52.7207 11.834
235.094 40.1812 9.41293
238.809 40.8437 9.29003
269.327 45.85 10.6997
295.354 56.2955 13.8306
275.832 50.1615 11.4277
230.227 44.9747 10.767
241.913 42.8983 10.5938
201.003 37.0226 9.03096
239.759 52.7919 13.0152
254.47 52.894 13.0467
213.132 44.2494 11.1938
292.055 57.3186 13.995
266.422 49.9 12.934
236.374 45.2562 11.9407
231.774 38.2934 9.95669
244.723 49.6749 12.8456
233.202 44.8272 11.9773
212.501 43.5663 11.9247
249.655 49.4109 12.9843
242.957 46.8824 12.7327
213.074 43.3119 11.9825
206.817 45.1049 12.5029
237.218 43.7521 12.1311
252.916 53.2852 15.0164
249.232 51.1015 14.2492
241.997 54.6537 15.2594
218.559 42.8872 11.8048
230.805 54.2243 15.8104
209.484 47.334 14.1851
197.647 45.9467 13.6128
186.023 42.0055 12.194
222.519 50.2867 14.8173
236.697 48.4258 13.9216
204.42 46.4651 13.7838
176.419 49.0765 14.8235
224.654 48.1576 14.3662
241.777 51.8856 15.7073
209.114 51.8847 16.0055
167.067 47.4064 14.9974
168.068 36.0487 11.2354
200.667 45.7818 14.5539
189.78 43.4861 14.3716
237.176 54.4666 16.9545
175.058 49.2802 15.976
173.026 41.2018 13.6552
160.87 41.0469 13.8392
203.436 44.4966 13.8954
188.048 48.0979 16.5118
160.481 37.5849 13.0401
175.346 52.3714 18.3605
189.102 47.2631 15.3063
148.977 41.317 14.1282
154.549 38.9156 13.7116
200.599 51.4465 18.3783
148.615 38.5874 13.4212
171.121 47.736 17.1866
195.129 49.6042 17.9674
230.394 64.6338 21.846
171.478 46.9065 16.8924
137.294 41.2574 16.1826
195.85 48.3389 17.2556
144.431 46.1326 16.2876
137.611 38.8936 15.1497
148.653 32.8049 12.2018
171.574 50.4105 18.6994
152.052 40.7833 14.9256
149.95 42.3565 16.8782
177.725 49.5963 18.8299
155.465 49.6767 19.9065
172.234 50.832 19.746
154.853 38.7679 15.0049
132.857 40.1844 16.9215
148.053 45.3612 17.798
139.212 40.7995 16.7912
216.151 56.5112 20.864
133.734 41.6339 16.8662
154.4 47.1421 19.3032
114.077 42.0501 16.7901
140.832 45.6644 18.9993
119.63 34.8067 14.6267
127.683 38.2491 16.1826
147.782 47.0211 19.0174
153.647 46.0675 19.4852
118.719 35.2542 15.2468
133.722 44.6413 18.8745
146.019 46.4019 19.7333
119.027 39.1202 17.8889
123.583 36.1281 16.1766
124.159 44.6563 19.3183
135.529 41.2841 19.328
137.158 41.2667 17.696
121.202 36.0024 16.4695
128.038 47.8733 21.6865
131.895 47.9592 21.9332
119.589 39.0935 18.4726
128.547 44.187 19.4449
130.494 42.8454 20.5296
132.409 44.547 19.6916
129.611 40.1241 18.513
126.669 46.6586 21.2598
141.935 46.0673 21.4054
100.769 36.9745 19.0527
104.684 36.665 17.6317
125.183 39.836 18.6009
114.105 43.0025 21.4886
127.62 46.1402 21.6048
100.757 31.751 17.439
114.695 41.5222 20.4199
144.604 53.2128 24.4861
90.7534 37.2422 19.5185
125.727 42.0523 21.0888
99.8191 34.1128 17.1289
111.308 43.0645 21.6087
115.727 44.6672 22.6433
114.838 40.2229 21.3202
140.151 49.925 24.899
102.993 40.44 21.5465
96.2344 36.1382 18.8747
125.992 42.9277 22.7033
128.025 48.4766 24.8137
90.6964 38.6342 21.6706
87.8755 31.4878 18.1837
110.048 40.4373 21.3449
107.559 38.2042 20.0031
92.8413 40.1316 21.4492
86.7875 33.3416 18.3905
92.4085 39.4127 22.3405
92.7039 40.8078 22.5932
98.2013 36.9115 20.0633
108.112 43.0378 23.3582
119.461 50.2722 28.6837
81.2348 36.257 20.8981
97.8142 39.8097 21.746
94.2318 38.3876 22.4027
93.9892 39.1821 23.9818
84.0018 37.5139 21.2577
103.769 41.2178 23.752
98.499 44.1269 24.2871
85.5333 38.3991 23.4796
89.8105 40.5356 23.7986
76.6944 35.5261 20.2452
97.0938 43.8285 25.9635
90.4215 40.1936 24.4644
78.5527 34.2845 20.2846
89.4355 32.8009 20.5742
86.7419 42.5557 24.7601
91.9875 48.709 29.1956
88.9211 31.078 20.0488
68.2285 30.8373 20.6827
86.6332 39.2901 23.5268
98.316 43.212 27.7433
90.6271 36.3092 22.9653
77.4528 40.0524 24.3012
78.1647 36.394 22.9639
86.1348 45.3157 29.6942
95.3137 45.0829 28.0778
87.0904 35.6862 22.8773
83.1457 39.8211 24.9132
86.4016 40.5351 27.6131
88.3596 41.0926 26.8882
82.8042 37.5647 24.1415
82.6253 36.1012 24.1429
80.9757 40.6983 27.0681
66.4936 28.4868 19.1403
67.6054 32.2224 21.3474
74.9526 34.6559 23.6685
83.3724 45.1395 30.7368
78.7212 37.8976 26.4458
82.4064 35.456 23.4198
66.8041 31.8917 20.7909
69.7427 35.0503 23.1613
79.7177 42.6726 30.1703
83.0858 38.8367 26.3471
68.8362 34.2632 26.1938
88.8382 39.0013 25.7506
72.3768 38.7679 26.7522
67.1476 37.0274 27.7144
83.7895 37.5186 24.8957
70.2764 36.6049 27.5019
65.5018 34.9633 27.0026
63.1296 33.347 22.6895
91.8278 38.9293 28.4159
68.4568 33.7322 24.9996
74.8441 36.2635 25.7838
73.2284 38.7448 27.2031
44.3941 26.6648 21.2539
77.5157 38.2835 26.8738
68.2665 33.9909 24.8491
63.5711 34.4998 25.6834
78.588 40.5977 30.2485
62.7599 35.3807 28.0574
75.4199 41.0357 31.6841
62.1479 35.4844 25.3536
66.8052 34.5752 25.0425
56.4107 37.4454 30.0795
66.9029 39.7742 30.6387
53.1371 29.311 23.5867
59.0441 36.2351 29.7038
72.3375 35.9006 26.5196
53.5011 38.1205 32.2626
67.8104 33.588 23.8954
61.0475 34.9208 28.4249
64.9206 34.8023 25.6242
55.5783 35.4223 29.9082
59.1552 40.1362 32.1073
62.2684 32.855 28.5026
66.3252 34.4431 25.9578
59.3986 31.9872 27.1422
60.2992 34.1106 28.0042
63.0302 33.4886 27.6685
67.8093 36.682 29.8091
56.3249 31.878 25.8635
58.1711 34.8515 28.5809
57.2596 31.5324 26.9802
61.0905 29.8556 25.8787
54.4086 30.6829 27.5472
58.5581 34.6379 28.4655
69.6071 39.1183 32.023
54.3669 34.1148 28.4839
59.8302 32.4717 28.3231
56.3155 33.6912 28.891
54.2441 33.2776 28.1579
43.5793 26.002 25.6494
61.5537 39.2826 30.6684
44.9839 28.5877 27.0967
64.5143 34.1223 28.7799
55.2654 36.5506 30.1333
40.6565 24.4987 21.8918
52.6854 35.4529 30.3275
42.9414 30.1275 28.8316
40.3046 27.2165 26.9879
65.1611 36.8042 30.6663
50.8801 32.3938 29.1243
50.7902 41.8275 37.8251
47.7562 29.1962 27.3424
54.9147 34.4907 32.3839
55.9885 36.2243 30.9082
52.3807 36.3043 35.7466
51.5505 29.6553 25.5076
52.1854 30.5307 30.2742
51.5753 30.097 26.8526
47.9756 32.1816 29.1561
55.4072 28.4506 27.8656
46.1914 29.7866 30.0473
53.9476 33.3943 29.4554
41.442 26.7051 23.9795
44.3754 33.4234 33.852
49.4925 30.7115 29.7149
50.4743 33.004 30.6496
47.1177 35.2249 37.4925
57.5843 34.4637 35.2347
57.873 35.4498 35.1197
57.9413 31.5102 29.6548
53.5137 35.0531 30.8889
49.5499 36.5742 37.3298
54.0032 30.8614 27.6842
41.6193 27.93 29.6935
43.282 28.8122 28.2645
44.6751 34.8271 36.4932
53.5125 34.4502 34.3407
58.6438 36.4778 36.8538
46.433 30.3115 30.8231
51.7867 34.7048 33.4512
42.3754 30.1084 31.0637
51.6459 36.9655 37.4888
45.5394 36.0334 36.8038
53.6566 37.0236 37.9885
48.8705 36.045 36.2062
41.8318 27.0545 31.2962
43.6301 29.5013 27.6303
45.5652 36.0694 38.7389
54.8602 32.669 33.6037
46.1724 33.5397 36.3547
42.3394 29.6315 32.2595
54.143 32.2141 33.2005
44.3334 30.5839 35.4095
51.5676 32.3479 33.9666
47.5183 31.4824 33.8861
47.0286 32.6396 34.6488
49.0665 30.9654 34.8007
45.0576 34.1785 38.3472
42.9272 30.3208 32.2841
40.6642 30.6059 33.8204
40.7588 28.9144 29.5107
35.2802 25.3576 29.0081
37.0992 26.2742 28.4849
37.7285 30.722 35.5647
36.9894 27.6158 31.8295
45.5424 28.0171 28.9776
50.2281 32.8724 36.5898
36.905 33.0375 36.7775
36.9513 28.5129 33.3071
38.2954 28.5073 32.2827
45.0561 29.0446 32.5637
40.4364 28.1374 30.7676
36.1679 29.3103 35.4948
42.9676 31.1122 34.0313
29.0989 28.0261 33.8982
45.2705 27.0115 28.4595
37.128 27.1946 29.4498
32.1418 25.96 30.7773
42.9814 32.3164 37.8212
39.575 33.6942 36.4293
34.7715 25.6793 32.5027
34.5682 31.0185 35.0531
36.5341 32.8513 40.2074
39.6155 29.141 31.0711
31.8131 27.8683 33.7713
32.9094 26.2428 33.465
32.7528 22.9188 27.5979
29.7974 25.3864 32.5564
44.5588 33.2433 39.019
35.0937 34.2701 43.3183
38.5715 25.8773 31.5162
30.6185 25.8047 33.9568
39.9115 29.3508 33.8254
37.8509 26.0896 35.1998
37.5229 34.2477 39.5102
32.7533 29.0636 35.5271
38.1038 30.3298 35.9106
34.9095 27.9921 35.8923
35.9567 29.5132 35.7335
35.4726 29.503 36.5112
33.7421 29.1771 37.275
35.7569 23.7774 31.92
34.0365 31.1844 38.0095
39.9386 34.2887 40.8667
33.0152 29.2396 35.5062
30.0128 27.2289 34.3971
31.4898 23.447 33.0075
33.9308 27.1279 34.7651
36.4519 30.2735 39.9547
31.4837 27.0865 35.8727
36.7563 27.7689 34.6458
35.0263 29.1396 37.534
31.2349 27.5788 36.3815
30.2157 30.23 39.0486
32.6202 30.5338 40.0249
37.2504 25.119 33.6218
29.7119 26.6272 34.8052
34.9858 33.3323 40.9343
26.4681 22.3035 32.3959
30.6171 24.7522 34.441
35.905 30.1912 41.2337
29.1094 24.5759 31.8068
27.4864 23.4119 30.9285
36.8696 28.8489 37.5917
36.4709 33.5739 44.4784
26.9823 29.1803 41.1512
25.3872 23.8347 37.1498
34.7835 24.578 29.3072
32.7136 26.5206 39.3386
32.8428 23.0647 30.1757
22.3848 19.0898 25.7723
26.1772 21.4437 27.1788
30.3417 26.3859 36.9378
23.9388 23.4668 36.0084
27.7459 29.869 41.6117
28.8035 28.1241 38.7058
35.0535 30.5743 39.5803
27.5488 23.9389 31.5446
32.6036 30.5503 43.6556
27.6762 29.5508 42.1349
27.1113 28.9852 42.4197
32.4553 32.4295 47.0018
23.708 25.8118 40.1431
23.0624 22.6056 33.3229
30.6667 26.1041 40.8322
32.4637 27.4403 34.6709
28.96 25.9951 35.5485
28.3759 27.1134 39.522
28.351 28.8196 45.6109
34.5336 30.3181 40.8158
28.0493 28.1886 43.5862
25.2033 22.8788 35.0699
24.0413 19.1303 29.8719
27.1062 20.7303 28.773
28.8627 26.9534 38.3886
23.6309 23.7972 33.0648
25.398 20.5877 30.6798
25.6702 24.095 34.0566
27.4171 27.0724 40.2965
27.8533 28.1823 40.7849
27.2604 25.1287 38.7569
28.0766 23.6405 30.2566
23.3762 23.2781 38.7344
28.699 26.2558 39.5665
28.3942 24.9028 37.138
23.4652 20.5132 34.3759
23.5888 21.2245 34.1778
22.5765 21.7891 32.7739
29.1725 27.2486 42.3943
27.0435 22.9062 32.8162
25.7548 27.843 40.9043
24.0045 27.8581 43.0915
32.9448 30.8635 46.6831
22.8578 21.6329 40.4004
28.1762 29.1588 47.8052
30.0473 28.0154 42.5489
27.7423 27.4546 38.7173
20.8054 24.448 37.507
26.4236 22.6861 36.1636
24.4461 19.4588 32.8147
28.0835 29.6772 44.2527
22.7752 26.8983 46.7805
22.8622 21.9925 36.1575
27.8792 22.8108 33.5001
24.0368 22.8842 37.3707
24.8939 20.7043 35.8359
23.9348 21.3219 30.9034
23.1086 20.4659 32.2213
25.0707 26.8567 39.1926
25.0675 24.027 42.155
22.4815 21.1233 34.8795
19.9316 19.6234 36.1191
21.6076 21.2392 30.9223
20.0955 23.2186 36.4717
22.5972 22.207 39.9815
20.158 20.855 35.22
22.0601 24.3807 41.0824
20.923 21.4969 36.4553
24.367 27.6104 46.951
25.4631 27.7651 46.0835
21.6286 22.8446 39.2316
22.5771 20.8383 36.1386
25.2498 25.8609 40.3299
19.2332 20.972 34.955
19.7482 18.5486 31.3452
20.4603 24.5837 41.029
19.9644 23.1339 42.249
29.3561 31.4794 43.167
17.7503 18.7716 35.406
19.6522 21.7652 36.4167
17.1504 19.5891 34.2363
20.2524 22.1178 43.0052
24.6291 26.799 41.8695
18.4432 20.0722 37.9439
22.3435 22.0783 41.2097
20.9827 25.2619 43.8668
21.9371 22.532 33.9815
17.1764 18.4169 36.1228
16.8406 17.6026 31.8905
20.3913 22.7292 39.2601
19.4519 20.7692 35.5722
21.5601 22.1614 38.8896
24.3692 23.437 39.9593
18.6417 22.3031 40.2883
17.8336 21.4469 39.649
18.9473 21.1089 38.0202
19.0164 22.8471 44.3262
20.881 20.0262 35.5706
19.6649 22.395 38.9519
20.394 22.8915 40.3175
21.4208 23.8892 40.1517
17.7319 22.2889 46.2965
22.6463 21.7946 43.0261
22.0667 21.9954 39.1081
22.1495 23.6303 34.5283
20.4157 20.0536 34.4296
19.8038 26.4019 44.2808
19.561 20.5518 41.1823
21.8149 21.416 37.6129
16.9202 19.551 37.9869
16.8475 21.2725 35.9426
17.9992 20.9171 45.0939
24.626 24.416 40.9396
19.8889 19.1392 38.0154
18.6455 23.2448 43.0273
23.2839 25.3882 42.9593
16.0801 21.7125 41.8167
16.5212 19.4408 35.6977
19.9606 20.6373 41.0515
18.4404 19.982 42.0314
18.784 20.1871 36.5028
16.415 20.5675 43.3483
18.7465 23.0688 41.3593
19.9128 23.0064 40.1896
16.5439 19.0889 41.2732
19.3275 20.6378 36.1966
19.3174 25.011 51.5623
21.0481 22.527 42.6299
17.6884 16.2095 30.6289
20.4937 21.179 41.6169
19.585 19.3159 34.9978
15.0647 18.7175 39.257
18.6098 20.3787 38.8322
20.6845 23.8097 47.3601
20.8396 22.4525 44.2089
18.5433 23.0135 42.5941
21.477 28.911 57.9341
22.8437 22.9216 40.6211
17.7704 18.846 40.4503
14.7085 18.2601 37.947
16.0958 20.5786 39.5061
16.7085 22.4477 41.7188
18.0097 21.4668 41.0819
16.8345 15.6335 33.3034
13.7803 19.241 35.4113
16.3822 19.7221 38.1482
17.6624 19.8256 43.9458
15.4712 18.5087 34.2582
14.627 17.3908 38.3563
16.2482 18.6158 33.4308
14.7973 21.9603 47.686
18.1158 22.6016 49.7123
20.9766 26.0235 46.6867
19.41 19.333 33.9147
17.2192 18.652 42.5816
17.2172 17.3021 35.7227
14.0281 16.3351 34.3975
15.3033 18.3774 37.794
16.6932 19.1464 36.8716
14.7342 19.7655 41.001
14.4468 15.1251 32.5124
14.9802 19.4338 40.8639
14.7748 16.5991 36.6433
16.5294 18.6862 40.7669
18.1799 21.2628 40.1614
16.2956 18.7787 42.0537
17.7738 22.218 46.9078
18.3095 19.4565 36.6936
14.4617 19.3961 46.151
15.5638 20.706 42.5493
14.9788 19.2421 48.9776
19.0249 21.3744 37.4984
16.4186 22.0192 46.72
12.889 18.6986 37.3141
15.3541 20.8102 45.2383
13.86 15.8806 37.4726
17.2723 20.1486 42.3304
15.9992 17.1272 34.8608
16.1139 19.8061 43.7045
16.3703 17.7427 35.208
14.316 18.671 45.399
15.4739 19.4447 36.3733
15.0824 17.5841 35.942
13.4865 17.074 44.526
15.9957 17.3848 34.2984
16.9555 21.3763 49.4322
13.4865 18.9833 38.3899
13.8233 17.5041 40.1937
15.7169 21.1037 46.1797
16.9991 21.1978 43.7668
12.4294 14.1103 36.1451
14.3402 21.7239 50.802
20.3488 21.2752 37.637
13.2099 20.3182 42.0989
13.1145 15.4718 43.1996
17.1295 19.5599 42.0501
15.8455 18.3586 39.1606
12.8455 18.2513 40.9072
11.4751 15.2361 36.1264
14.2225 24.5698 54.7867
15.9909 18.6437 41.0654
14.9011 17.798 42.7557
15.7586 22.9298 45.4735
14.6835 17.4005 35.3362
13.0018 16.1584 43.4496
15.8222 21.8601 48.967
13.5545 17.0703 38.7621
13.7246 20.144 43.1863
13.1295 16.5852 46.0007
17.5647 19.2944 35.3477
12.5909 16.3676 39.1069
14.0766 16.9369 42.1757
13.2693 18.868 37.1662
12.3168 13.744 30.8519
12.1535 18.2986 45.443
16.6732 21.3557 44.7513
13.0896 18.3791 44.3918
13.6713 15.6452 35.9688
16.623 20.0654 41.1485
12.4832 14.6572 37.4379
13.3189 18.5332 41.9048
13.7594 13.9835 33.7819
14.211 20.0104 47.526
10.8415 19.9201 43.8318
15.0969 20.5617 47.4144
15.0698 20.6141 48.0737
12.8513 13.6937 33.9345
12.5692 14.5666 32.4785
11.6865 13.9755 36.4186
13.5015 18.0905 42.1265
11.6752 18.083 45.0876
14.141 22.7485 49.0429
13.2315 17.0154 44.6532
13.1349 15.6149 35.491
10.9838 14.6938 37.5003
14.5083 17.4482 42.3725
14.2121 19.673 43.7084
11.5285 15.361 44.6859
14.7377 16.6587 35.8145
12.5539 17.9637 43.7164
9.53201 15.5435 37.5849
12.7708 19.0426 50.0238
13.305 16.6136 34.4082
12.5707 15.1822 39.136
13.4878 18.4727 43.5608
13.6985 18.6518 39.8714
10.8516 19.3112 52.5064
13.8477 18.7784 42.5766
12.091 18.4528 49.1627
15.0709 18.3488 37.6443
12.2029 16.9788 42.1152
11.3346 17.8285 44.2716
13.8788 16.5863 44.7863
14.2628 19.9442 47.9314
12.8309 14.0894 33.4329
10.3849 19.0395 50.3828
13.05 16.8503 41.8066
