# pn-170911/CsIIA-38-TWTF-1280-1959.psd
# Power spectrum* (dif=0,1,2) (really just |FT|^2)
# NOTE: only the first half! (symmetric)
# weeks: 1280-1959
# 7 clock-days, 3 excluded
# PSD: 1441
44695.9 0.522447 0.0373131
951329 15.4765 0.00555511
4.76235e+06 95.2264 0.00511704
1.06105e+06 36.5123 0.00695226
1.34243e+06 82.471 0.00921426
537904 55.5037 0.00501398
532890 79.3633 0.012901
453586 115.396 0.0370081
198041 52.6412 0.027184
124042 39.6792 0.0231426
108487 45.196 0.019618
84183.2 60.6495 0.0395938
53148.3 31.6435 0.0310329
70905.9 51.8645 0.054403
26289.1 15.7473 0.0260007
54683 52.6947 0.0541229
60764.2 66.4111 0.0864245
44068.8 71.5519 0.1156
30188.7 46.7024 0.0855831
27549.4 56.7594 0.1014
23558 34.0068 0.0558695
27310.9 57.9825 0.131408
21605.7 39.8237 0.110344
25514.9 54.9633 0.152145
15037.6 38.1492 0.121331
21890.9 59.2934 0.210516
17845 41.0517 0.156403
9509.24 30.1851 0.109078
33833.2 113.717 0.406261
10861.8 30.685 0.118935
14648.4 59.7367 0.299266
15489.3 66.7932 0.274591
13600.5 52.2619 0.250889
7810.79 38.637 0.218035
8809.15 40.8291 0.251236
8184.06 39.231 0.27403
20614.3 134.434 0.832709
7881.39 42.8345 0.262338
8867.01 53.6903 0.376084
8754.05 65.7112 0.518077
6976.88 39.9147 0.290712
10836.4 79.531 0.685926
8434.74 67.7829 0.596326
5970.24 49.5018 0.417594
5114.69 44.8401 0.452792
10490.1 84.2552 0.821962
4752.39 39.7059 0.446269
3705.28 36.0269 0.448965
2951.61 39.8771 0.426212
6086.31 57.6165 0.615987
5748.98 67.6788 0.792626
2433.42 33.756 0.465177
2664.89 23.1794 0.299017
3875.21 37.0446 0.530165
6644.37 78.6501 1.14191
1657.34 19.9442 0.264668
4866.88 75.5977 1.12086
3215.75 48.1483 0.844213
2753.92 49.8043 0.768809
2921.93 54.3406 0.812038
2135.19 40.4048 0.700583
2428.68 49.392 0.890688
4660.04 77.4657 1.33598
2228.98 44.6641 0.890461
4443.18 76.2791 1.49326
1125.59 36.7116 0.793604
3967.75 65.9001 1.32137
1139.33 20.9507 0.480912
2956.48 49.6984 1.12362
1750.17 33.2939 0.743106
2389.14 48.7078 1.10304
4960.16 89.1275 2.17808
4959.85 99.0378 2.38254
2570.12 70.3994 1.78146
1026.12 33.0444 0.828062
875.753 15.3231 0.430194
1473.27 30.7366 0.876334
1229.14 39.6617 1.19754
3766.37 91.3693 2.47807
1511.02 39.9144 1.13866
3217.39 83.1562 2.52363
1677.59 52.7117 1.59928
2533.02 69.1158 2.3794
769.707 24.9309 0.840032
2562.38 73.9036 2.50185
1660.76 63.6656 2.15193
1424.96 46.1362 1.74713
1272.13 47.0596 1.71498
1696.4 70.1119 2.48029
2524.56 81.8115 3.05237
693.719 33.4927 1.27977
1981.72 74.5681 3.1166
752.471 32.0066 1.21987
1923.7 70.6813 2.88543
1592.19 55.7563 2.42388
1772.28 62.347 2.68812
960.127 44.3903 1.91813
1442.15 60.1262 2.71838
933.824 30.8655 1.51347
1139.93 47.049 2.05113
1303.26 62.3949 2.97533
1402.99 56.9687 2.71414
837.231 33.837 1.80358
735.959 36.4447 1.80193
654.351 26.5814 1.29367
843.383 53.7247 2.90566
809.942 47.7415 2.81355
398.343 10.4875 0.652677
961.901 39.71 2.0856
982.524 61.8568 3.40397
1616.08 94.2035 5.20766
1400.68 78.1359 4.75956
682.965 39.0586 2.30003
811.858 43.575 2.61751
1021.65 51.9293 3.24561
775.65 40.5417 2.5325
1729.41 76.7467 4.85287
843.551 35.3026 2.35231
861.909 53.8184 3.70349
435.096 24.667 1.72345
565.755 42.3102 3.20311
632.268 37.2534 2.39863
968.281 48.8046 3.50981
508.73 35.1737 2.77712
514.18 34.2985 2.54793
736.154 39.2764 2.69516
678.088 52.5971 4.01494
1129.78 73.6684 5.45718
1137.95 63.8294 5.18636
899.352 59.1016 5.28119
596.814 62.1255 4.7854
792.615 47.9466 3.70424
603.44 47.0419 3.6785
768.157 61.6856 5.06518
850.176 49.2988 4.04966
933.311 58.623 5.07985
629.643 47.0481 4.02807
196.997 21.3455 1.86799
485.717 35.2902 3.12106
738.455 52.4648 4.76647
410.252 32.2146 3.0905
688.844 55.3159 5.18598
888.909 78.6055 7.72495
502.31 35.5809 3.51916
896.412 71.8351 7.52636
199.226 26.0135 2.32672
522.418 45.6893 4.24059
675.094 65.8076 7.02569
413.406 25.7949 2.72247
283.457 43.1012 4.48066
870.738 87.2155 9.03957
330.015 27.9887 3.0908
760.055 71.5735 7.65424
363.227 36.6322 3.78352
665.675 71.4882 7.63711
309.006 37.9605 4.47919
557.136 56.2931 6.3816
476.316 44.1553 5.21664
323.648 46.8162 5.77068
412.225 46.1814 5.84986
282.83 43.4455 5.27872
278.884 38.5432 4.85188
332.953 39.1301 5.07408
501.643 67.5784 8.7553
311.578 26.2811 2.94886
411.028 50.5608 6.68236
279.847 32.8309 4.12306
520.403 71.0486 10.2698
329.332 24.9531 2.74664
351.483 39.5725 5.33465
362.061 37.6688 4.67146
367.865 61.7611 8.74622
375.423 34.1054 5.35929
384.13 40.1121 5.82604
180.607 34.683 4.84855
581.916 76.3492 10.114
327.173 40.8864 6.56253
789.668 94.9825 13.4667
100.722 13.1336 2.05341
231.483 33.4095 4.86463
176.711 15.0403 2.33541
276.96 43.6673 7.06292
549.369 65.607 10.3554
251.593 31.3724 5.00788
257.703 32.6782 5.40179
306.952 50.1463 7.85272
532.321 87.3209 13.7789
237.475 30.9765 5.45896
194.232 21.7793 3.66253
300.241 37.9732 6.63409
395.501 47.1272 7.53983
278.937 37.4771 7.08182
266.275 42.0355 7.44103
190.884 30.6164 5.37353
361.789 40.7122 6.76248
287.07 40.7975 7.72087
421.954 64.0246 11.6724
171.261 35.556 6.57535
376.354 53.5616 10.0263
282.35 37.7992 6.25962
264.17 40.9271 8.34689
329.687 57.1524 10.4078
254.024 46.1614 9.80143
444.281 69.1287 11.6812
235.586 39.5871 8.37335
215.062 51.8286 11.3263
637.744 103.43 18.8892
340.463 55.7829 10.5918
346.192 52.2901 11.5619
249.314 56.1379 10.9696
159.272 30.1575 6.43974
178.661 37.8844 7.76343
198.011 27.118 5.80255
176.096 32.2808 7.57137
247.202 50.4776 10.998
221.382 41.5454 9.66668
384.589 69.0297 14.0552
268.477 46.5756 9.43088
399.425 81.811 17.3566
361.175 67.1024 14.2783
136.115 31.7609 7.69144
179.81 32.7628 8.82933
198.49 36.2374 8.21725
261.859 60.6279 14.15
208.305 38.7496 7.61685
211.485 49.5011 11.2738
277.153 56.8875 12.8791
143.921 33.7533 9.51891
173.921 48.7683 11.87
278.834 45.3607 10.7861
115.172 31.2527 8.18719
44.5216 9.296 2.79218
173.181 55.2195 15.6176
196.338 43.6633 11.4756
277.806 66.3708 16.8321
179.994 34.5668 10.1133
243.093 43.5383 9.31179
146.734 36.3761 10.4418
198.995 39.799 9.46644
90.6698 17.76 4.89553
141.525 27.292 7.63134
140.239 44.31 11.002
88.4033 22.2623 5.89399
122.144 40.9286 11.7288
55.3806 25.24 8.18343
215.059 37.1225 9.60662
197.196 45.9412 13.0791
279.47 71.1355 20.5141
154.053 31.6202 9.87553
187.538 48.5861 14.9207
328.209 79.2053 21.6827
150.965 26.052 6.77395
253.013 55.6922 16.1582
164.007 38.9561 11.325
204.095 56.8644 18.7432
108.138 23.8424 8.07419
208.062 61.5334 16.9777
128.482 49.5686 14.318
108.965 32.7833 9.93606
199.757 69.1265 22.3345
160.512 40.6308 12.5571
280.947 86.4921 27.0944
179.477 44.2471 14.8656
285.513 64.1733 20.0693
110.017 35.9776 10.9051
80.0739 38.2325 14.7272
201.014 42.0617 12.4067
98.8288 25.8303 8.55823
127.454 49.1506 15.4184
142.363 37.0313 13.2028
189.066 58.1098 19.3745
129.505 37.3915 10.8967
140.749 33.4178 11.1464
82.1966 32.686 12.7273
170.455 44.3823 14.8412
115.29 38.242 13.1425
62.0329 14.772 5.90712
123.535 27.7315 8.78673
156.848 42.9479 15.3075
129.462 56.2837 21.4054
104.726 30.5049 11.367
82.3947 25.8233 10.8561
184.134 55.5687 21.5454
178.176 45.4534 13.952
86.6686 29.2318 12.4988
97.2034 27.4816 8.09499
68.9209 36.3572 14.1497
288.945 81.734 30.9885
126.239 34.4285 12.6786
148.499 47.566 18.5104
148.929 51.6943 19.8499
51.0671 24.6426 8.66789
86.7615 29.0252 10.6997
82.2001 36.3711 15.0701
115.284 41.4156 16.6297
117.408 46.4888 19.3189
146.546 34.7963 12.72
102.507 33.9804 13.662
61.3732 25.1623 12.5518
87.835 37.4693 13.5416
54.3827 28.1576 12.1547
45.0052 15.6886 5.69723
90.6269 36.4365 16.1379
85.6678 36.2272 15.2064
88.7057 41.6188 20.6144
180.564 43.9124 16.2809
182.852 61.148 26.7086
106.014 32.1088 13.5554
117.452 42.8226 20.1895
85.9577 48.7496 20.7247
74.6095 22.6351 9.04912
63.3328 29.1438 14.9854
169.496 71.6481 29.3227
52.7062 27.691 12.4205
110.53 46.4286 19.4112
73.1926 39.2091 20.561
130.074 43.1449 19.1325
118.694 41.695 16.9155
82.0858 57.2659 28.4118
106.492 46.4271 23.2883
127.132 37.9297 16.0295
149.062 63.3199 32.1983
101.552 35.219 16.7524
44.7377 20.9501 11.3566
84.2031 28.8016 12.8794
56.0581 19.2426 9.29707
60.5483 20.7768 10.9349
136.045 48.5359 22.6741
60.3071 12.6784 7.50099
110.554 55.6528 28.757
88.3653 36.9662 18.2137
90.9339 39.3707 20.5544
130.345 38.9388 17.5346
101.34 35.3534 17.3112
129.895 56.172 30.4108
128.865 56.406 27.6061
89.2821 44.6518 25.8196
113.719 44.6753 19.9072
73.4733 32.77 14.0058
79.5514 32.4864 17.6915
76.6372 26.1779 14.2501
62.6599 31.9895 20.8754
95.674 36.4048 20.621
118.486 51.7506 30.4862
82.6396 34.2356 14.647
117.932 53.8393 29.3988
90.487 43.6228 23.3439
60.2728 36.4432 20.455
71.0001 46.3028 23.9443
50.5738 21.3187 12.621
63.3858 31.7151 17.3937
48.316 27.4843 18.1269
54.5754 19.9271 10.0567
33.1123 29.978 16.102
40.2936 16.9993 9.59439
109.779 60.1319 32.9158
56.1539 35.1054 19.3298
48.3694 28.9124 23.5635
88.529 42.8594 19.7533
97.0077 57.5969 30.1713
31.6239 19.3313 15.0869
54.3181 24.9698 15.3501
46.8606 33.0452 19.9408
75.609 41.4222 19.2592
108.756 57.6237 37.1444
23.8869 17.6536 11.5933
69.6574 29.8249 20.533
76.4199 50.0757 30.3099
79.2517 34.2984 20.85
46.5441 18.403 10.2103
55.5949 34.1493 20.8169
63.896 37.3937 21.5194
45.1103 28.4247 15.1278
47.4853 18.244 8.96365
40.1029 27.75 19.3866
51.0838 29.043 16.9788
72.6498 31.1928 18.2549
36.5477 20.4262 14.3354
57.4776 27.628 16.6671
59.9018 35.4412 23.843
71.9064 26.5058 16.9039
65.2112 36.2304 25.693
46.2138 32.5508 21.0023
46.1415 31.3283 23.8609
98.1455 39.8504 26.1195
90.9777 49.823 28.0584
57.9603 36.4521 22.9272
41.5702 33.766 25.3858
43.4599 15.441 10.4611
44.2823 27.0809 18.5597
61.8158 36.1705 26.783
53.3058 34.331 23.5219
62.0355 52.3468 41.2452
45.6707 19.6509 9.41642
26.6182 19.8814 16.477
81.2564 34.8524 20.7836
74.4312 45.0074 29.6106
78.8139 44.3961 27.3114
55.575 37.459 29.4164
27.9476 19.8299 17.2084
58.9589 34.5585 19.1922
48.4832 37.1571 37.266
76.4163 48.1546 29.0006
38.473 36.9323 25.315
63.1541 42.5147 30.5883
77.9824 55.2577 35.863
78.1507 58.1398 44.2744
68.9099 42.4919 32.9839
55.0676 28.3117 18.1627
36.2584 23.2947 22.7274
37.8124 19.2076 15.0029
39.2436 36.0704 27.9165
57.8892 25.9017 13.4055
40.989 37.6643 32.7718
74.4129 56.809 40.2058
72.1841 41.2297 25.6609
39.2563 41.8614 37.0219
59.5998 29.8249 21.0308
25.1793 10.6021 7.44471
34.6854 42.3935 31.7162
42.0387 32.0806 30.9588
37.1857 29.7023 29.2703
79.2095 51.0874 35.0693
64.676 40.8966 30.5714
63.7529 47.1607 35.9223
42.1679 25.228 25.9753
44.0752 25.0211 20.6149
39.3098 24.2743 20.8303
75.395 48.6519 34.366
37.5912 24.3698 21.6729
43.6675 24.7244 16.3345
43.9002 34.2513 32.2468
30.3659 33.0052 28.7195
43.983 25.3665 19.3974
49.2233 35.107 28.9523
33.2306 15.3014 12.2238
60.8733 55.9636 49.0569
49.9803 30.1839 25.0721
44.8543 31.3353 24.0893
35.6085 25.6146 26.1796
41.7465 19.9206 11.5476
22.7698 19.2141 16.5884
52.7403 31.7877 26.0402
40.2193 31.2113 32.1255
38.4634 24.1045 18.3668
69.6842 62.3121 54.711
52.2571 27.7758 17.9906
28.9171 29.5074 26.2818
39.4645 37.2153 35.7185
46.2721 36.7542 36.5803
41.7983 28.0739 32.1779
53.1701 26.8857 15.6174
38.8914 24.3349 23.9066
36.3775 29.5911 28.2091
64.9584 42.3177 36.2442
59.1858 49.9617 42.7714
27.3911 23.1352 20.3902
12.0966 14.589 16.864
20.3838 15.2209 16.1735
33.4967 29.2703 24.7633
55.0511 61.2773 56.2228
78.7918 59.0234 51.6697
19.5849 31.1409 42.4005
43.6161 19.3159 17.6213
43.0473 32.3676 33.2758
59.6018 42.3918 29.7594
48.7108 47.9512 51.761
29.924 18.5004 15.6879
29.3903 14.162 18.4179
47.0431 26.6364 20.4418
34.0596 23.7709 29.6463
37.8555 35.642 34.0684
46.6883 32.3372 28.4569
28.7342 17.753 19.6091
53.0164 43.1498 35.0079
31.3166 15.9024 18.1027
47.0735 49.8955 46.8233
35.293 19.2342 19.7209
44.2354 34.0965 36.782
56.8833 39.1916 31.6017
36.5258 42.5561 45.7592
35.7701 33.6005 34.3474
24.5778 30.0605 26.7975
19.5516 12.6269 14.6709
22.71 25.2496 26.1722
18.9996 9.23043 11.852
15.6936 16.9188 17.8635
33.5821 33.0644 36.4631
35.9738 23.1294 22.1026
42.9345 27.1206 25.3403
14.788 15.4156 19.5611
38.1811 18.1751 13.5956
44.8844 29.7694 31.5472
28.3587 36.8426 38.3355
32.0089 30.6351 29.6176
19.8176 15.7929 18.8384
34.5022 21.41 17.8392
29.8466 34.9895 51.4904
36.2879 33.2484 33.548
55.6766 41.8385 42.6669
39.7754 30.2901 35.7307
63.0628 61.0491 65.2199
51.4078 50.251 42.1497
37.0172 21.1727 16.2543
27.4041 30.8476 37.8137
31.6779 28.1847 35.0494
28.932 28.3825 30.0062
31.1313 17.6419 18.1019
34.8184 24.2153 22.1992
16.9691 15.8513 18.6088
17.4612 16.8206 22.1284
60.6101 45.5319 36.1188
26.1867 27.5726 33.9377
49.4671 39.1284 43.3387
16.5038 19.8796 43.9268
45.6725 56.6238 52.4683
30.5679 28.7505 34.7814
29.1586 22.9636 28.8144
41.5716 30.8294 28.7021
34.6941 33.2966 32.1617
39.6189 30.0009 36.6086
32.255 30.3886 33.4341
30.8271 19.7058 24.2869
29.6357 27.8583 38.2338
20.7217 19.5337 28.7143
40.5648 39.6703 38.5055
20.1504 30.7576 49.4853
46.5111 25.7696 21.1866
18.5401 12.6833 10.7113
44.8195 31.1024 27.7299
29.6355 22.8942 23.9168
17.5331 18.4593 30.973
17.9051 23.4225 28.8772
15.4536 12.0703 21.8891
31.1137 30.4436 37.4939
21.0999 36.8956 39.985
29.1403 23.6314 30.9175
32.0706 39.7878 51.6308
21.9289 33.8289 38.5217
34.166 25.8246 31.283
12.2058 20.8655 24.6818
22.4032 25.3061 44.2877
31.5534 23.7105 22.9784
42.2261 47.2687 57.8481
18.5506 25.8889 24.0281
15.7767 25.4222 32.6165
18.1896 21.0242 31.2139
19.2874 17.4935 24.0007
19.234 20.3925 23.0178
17.0797 14.7473 14.3211
39.2572 40.7052 45.6199
45.2151 60.137 83.5322
26.2239 25.7634 35.7385
11.7748 13.9722 19.9648
14.654 15.7342 27.9545
25.8129 23.9892 27.9441
30.3273 23.0887 24.8531
12.7695 21.7066 38.31
35.5269 41.8862 43.5052
23.5996 16.9431 25.8737
39.1011 39.7865 47.2253
20.9066 22.4126 27.364
11.0228 23.8029 37.367
12.8952 26.312 46.3514
34.4855 27.9293 24.3976
16.8127 17.6192 28.8554
25.5643 35.6565 50.0898
17.8087 22.2506 24.9328
24.896 36.5329 47.9721
21.9422 25.9814 36.4442
28.1025 18.4868 21.5728
17.1464 32.1788 61.8391
47.8711 39.955 35.8891
17.8624 15.7839 23.4409
32.2601 22.5517 25.1888
11.5486 18.7249 34.6403
35.3359 26.9824 25.4776
29.1749 41.3785 56.7989
25.5501 19.071 35.1018
25.8916 21.5353 25.7749
7.43499 8.94632 13.1485
18.0889 24.4562 43.2741
20.8994 24.6577 40.3889
28.3792 32.597 36.0627
24.175 23.4542 26.0459
16.9971 21.391 30.3233
20.7207 26.6525 30.3737
19.8913 28.1451 44.3484
36.119 56.2748 95.3775
22.9925 17.3937 23.0607
19.0932 30.2328 52.8735
34.5215 27.774 35.4386
28.0546 27.7871 34.5798
13.4853 16.2928 23.5807
17.4227 22.8389 53.4584
32.3988 21.5407 14.7609
17.604 20.4022 27.7685
30.144 26.3 33.6164
18.5812 16.7977 37.5458
36.9183 43.7887 53.3992
21.053 37.8189 65.3828
16.0547 12.4438 21.4011
13.0292 19.2763 31.5002
25.5885 26.6968 32.9654
23.2183 21.2473 32.1266
15.1112 16.4466 23.5658
21.4319 23.239 26.2998
12.1448 9.05617 13.3206
15.4153 23.0882 31.9926
10.0131 13.5072 24.6946
22.5988 29.8508 42.6301
18.7759 23.2924 32.3516
19.2221 26.7466 40.7341
22.5331 25.7014 29.791
10.145 11.4418 15.9122
19.834 28.1189 47.8691
13.191 6.98003 17.8451
26.88 26.0252 35.361
11.1452 12.4632 31.3715
11.8076 16.8824 28.334
21.8264 28.3276 36.3765
25.3651 25.3279 36.7233
11.3253 22.8001 37.9777
47.2905 56.7154 87.4355
14.8698 26.6632 35.6179
15.7753 34.2006 52.9525
17.9991 15.5726 36.6808
27.4778 30.4096 51.5127
14.6933 17.6431 32.6056
13.3821 15.903 27.5399
11.7068 4.49175 9.65014
28.6794 33.2706 46.5467
25.5731 44.3616 71.4826
28.2244 50.7714 107.696
32.2295 21.4584 20.3306
14.395 21.8449 31.0743
18.9187 38.1754 61.9535
20.823 14.6147 15.0281
12.3846 17.4632 35.934
23.0693 31.827 63.4395
18.4362 18.2384 36.0693
26.9371 27.5074 22.1187
18.9692 29.7053 47.6716
11.9445 19.9421 39.2876
9.67325 8.55255 15.042
11.114 28.5832 56.6467
22.3387 23.1977 37.5644
10.4684 16.2785 28.6619
12.7087 12.2159 28.6802
31.4104 30.276 39.1599
6.87995 9.68395 18.2811
11.9766 12.8979 24.0312
8.78326 17.9598 34.3609
9.60524 14.6273 22.1258
9.74409 11.1775 26.7905
13.2532 23.8045 34.555
11.4244 10.1986 20.3269
11.509 15.6673 16.3251
10.5735 15.0495 36.8121
14.896 26.0193 46.2431
14.6584 20.955 31.3019
16.4714 18.7749 25.1015
13.6792 32.1818 68.5287
21.3315 25.7427 45.6762
24.7167 23.7952 36.6212
18.2633 22.6492 34.3815
14.7746 18.7436 20.8002
20.7689 30.0342 45.0574
13.6345 17.5488 32.7628
17.4312 26.2176 55.8666
15.1465 12.9888 35.0576
9.91308 10.5438 17.6675
20.5743 17.3061 20.7988
23.2751 35.7504 54.4105
12.9021 32.4407 64.7311
15.2837 15.3746 25.9845
12.7296 15.3946 46.5736
22.7866 18.5359 35.7334
23.0142 24.7937 49.4733
17.9321 28.9434 40.252
14.4636 21.0575 31.0774
13.6513 14.8677 23.0006
17.0403 23.9692 47.7344
7.29893 5.79161 11.1345
11.4289 19.09 47.8046
10.8393 25.4828 49.1716
21.094 15.2138 25.5082
7.53116 15.2315 28.8377
11.0278 20.8656 42.0262
17.0928 17.7402 18.8131
8.17092 14.1881 33.0039
17.4365 32.168 53.0106
9.18442 30.6961 60.7137
21.3444 20.8812 51.0699
19.3688 26.7035 38.3607
17.3909 20.8612 33.6463
13.2193 24.87 60.5944
12.7498 24.1696 40.1425
7.94539 14.2265 40.9696
18.3268 34.6999 53.3342
12.1654 21.9989 36.099
12.0418 18.8485 46.4871
16.4664 32.028 57.0254
15.184 22.4266 37.0581
14.8745 28.1151 56.8964
12.4457 19.7161 46.2923
15.7855 23.4493 60.888
10.2092 20.9296 44.8751
11.9652 10.3517 12.644
7.05502 9.71814 21.8069
6.61554 15.5239 49.9092
20.7365 27.7269 58.2134
12.5976 11.5416 20.506
19.2792 34.2579 49.5033
14.4942 20.8659 38.9302
12.3374 7.74898 17.8235
14.2586 11.4897 21.8415
15.3465 29.5002 64.466
19.38 28.7924 56.2545
25.896 35.1469 48.871
5.0789 11.7456 29.5908
7.28472 8.2802 13.1022
7.44868 20.2791 59.5029
17.3064 23.2914 37.022
5.46712 3.66465 15.5427
12.4592 20.9436 40.5478
13.7345 28.9332 58.4989
9.27699 14.0672 44.5722
22.3157 41.0881 64.464
16.5622 32.6931 60.0513
11.487 17.2775 34.4258
6.05311 18.8555 57.0878
13.6695 16.5049 41.6836
10.2727 25.1408 52.4372
14.0883 8.5397 9.50136
4.78293 12.1865 47.2269
25.4728 35.638 61.9038
17.9685 19.9379 30.8611
7.77023 12.0076 25.9049
18.6309 43.6344 98.5438
19.9853 16.7622 29.8502
14.7012 16.8806 36.2795
8.59546 13.3944 28.1079
19.2463 30.6208 63.696
7.66335 10.2566 28.719
3.85539 15.5039 33.7676
7.80821 14.5044 32.8868
7.66488 11.2625 29.9842
15.8379 31.2803 43.3942
10.3425 13.2819 30.1463
9.62681 14.2761 48.5592
25.5525 26.4361 34.4467
16.0103 30.853 65.9897
17.1373 14.6171 32.5496
18.6245 26.122 53.5564
7.27473 6.86655 20.6668
10.8678 17.8043 39.1928
14.0539 19.9794 42.2512
14.9935 21.9838 33.388
7.54384 19.224 30.0683
13.5698 28.7799 58.5632
9.87054 25.342 57.8606
13.8398 16.5739 28.7342
7.70037 24.7404 66.9016
21.9382 27.7937 50.7948
10.2041 14.4528 13.5012
10.4068 31.5835 71.3474
11.6808 25.9715 62.685
12.7963 19.1218 57.3301
19.9777 31.9457 62.7199
9.04855 11.6101 28.401
8.91012 19.5977 28.4963
9.64564 24.1157 57.1464
5.85521 10.4644 39.6647
12.6464 20.2125 47.5639
8.67221 20.4835 53.7786
16.007 26.291 50.6451
14.175 32.2766 66.3119
12.0109 7.71348 20.0513
12.4422 21.091 32.4696
4.81597 7.16839 16.4067
8.72021 22.1989 56.6856
12.0414 10.3478 25.3011
11.3565 22.3268 64.341
20.5786 28.5524 37.7137
8.52211 16.6226 54.3549
13.965 29.852 54.8263
8.54413 26.7917 81.7802
20.8371 23.9277 29.198
8.98728 22.142 53.261
8.7075 19.7767 52.049
15.5862 25.1757 48.4989
12.6111 30.2315 68.9457
13.264 16.5562 54.3734
10.4578 18.9925 32.4824
9.28704 15.135 40.4745
12.1202 19.6365 35.8197
9.63586 14.5157 40.6824
9.78239 24.463 54.4985
11.9895 7.70881 12.2688
9.15708 23.5939 53.8798
11.3066 22.3505 67.0756
14.2219 24.3787 37.3602
6.00253 23.4942 79.1559
12.5113 18.8133 46.7631
5.5957 9.713 19.3297
2.53773 4.97651 18.3595
3.86281 14.1277 30.1067
9.54294 12.9919 30.796
4.77949 16.539 35.2958
5.18233 10.8877 31.301
6.72955 13.7188 23.8239
5.10424 12.7627 31.9611
10.368 26.1422 54.7697
8.49401 11.275 36.0486
6.42851 9.81875 17.4205
6.93896 35.2212 77.8375
9.69375 14.5773 47.1385
12.872 21.3521 43.596
8.35732 14.7647 46.7811
13.3354 14.6595 44.3523
10.8715 24.3147 70.17
13.5687 21.2162 38.4305
8.54766 26.8947 82.1602
16.6605 15.9454 36.5856
13.4021 15.9087 31.0235
7.81447 11.7102 19.3454
6.86896 18.8953 44.7601
11.9317 20.4524 46.4592
7.38892 11.2497 27.1194
5.2435 16.2985 53.2444
10.5162 28.1433 50.1611
