# pn-170911/CsIIA-39-USNO-1280-1959.psd
# Power spectrum* (dif=0,1,2) (really just |FT|^2)
# NOTE: only the first half! (symmetric)
# weeks: 1280-1959
# 10 clock-days, 1 excluded
# PSD: 1441
88462 1.58872 0.0554494
2.13002e+06 28.2642 0.0228761
1.42459e+07 267.675 0.0276862
1.90498e+06 69.7486 0.0212939
2.80118e+06 185.196 0.0444241
440996 46.7788 0.0347873
283402 39.3277 0.0371801
223895 48.994 0.046564
349126 98.5968 0.0553857
211282 59.0524 0.0548732
154998 55.6708 0.046569
126599 53.1982 0.0592072
148944 97.933 0.126421
106488 50.1504 0.0878295
74685.6 63.0571 0.0991091
43485.6 41.9094 0.07755
60891.8 57.2282 0.0999744
45509 42.3419 0.0960975
42275.1 55.9076 0.142751
39846.3 72.1458 0.146099
35642.8 49.1734 0.119792
22969.5 37.1006 0.0822288
39726.4 70.4516 0.208321
23190.7 52.7771 0.170182
21935.3 67.5777 0.175882
21407.1 45.7672 0.119809
28537.4 76.6885 0.334293
10716.5 34.908 0.166581
10857.7 53.3606 0.195089
6070.17 34.5415 0.164213
13670.6 58.9739 0.307687
13342.9 52.7554 0.206803
14917.9 57.5285 0.27834
21709.7 88.1913 0.426084
7907.91 43.8215 0.297592
9102.65 50.8606 0.288211
8830.66 46.537 0.338602
5075.09 37.9109 0.348477
7097 44.5907 0.333045
11944.5 53.1615 0.405534
3816.59 30.5866 0.221009
6969.74 46.8336 0.40511
3183.88 22.2672 0.250958
5502.24 42.5286 0.439682
5830.8 36.4165 0.418554
10491.1 87.8397 0.932948
7666.7 52.2721 0.505887
4930.13 43.2514 0.367439
4883.52 47.3995 0.410899
4949.15 38.7766 0.443716
4348.15 52.0434 0.62909
4890.96 45.8642 0.55208
3788.18 46.3357 0.574279
5987.45 68.5982 1.03987
4144.01 39.9773 0.569752
3496.62 46.1631 0.806991
5846.17 59.8352 0.841675
5151.61 55.4186 0.951696
3001.46 46.0442 0.809997
4314.22 69.1241 1.23851
3813.79 58.554 1.04547
3928.71 56.6473 1.01307
3614.23 59.3409 1.25172
2829.09 67.8291 1.34843
3089.18 56.3051 1.18975
3942.67 69.3568 1.42984
3712.84 61.6377 1.44029
2179.81 28.6298 0.558998
3029.06 54.3243 1.18175
2094.57 41.2476 0.957444
3950.48 87.4056 1.97357
2588.95 49.858 1.3502
3082.36 95.9757 2.28945
1092.25 29.2855 0.696214
2965.23 55.4937 1.56001
1623.21 33.0292 1.06674
1933.89 33.8264 0.852984
1991.55 44.6777 1.16862
1218.31 45.2782 1.41999
1451.04 44.3072 1.39431
4206.12 91.8652 2.76372
2469 55.4723 1.72723
1484.94 41.18 1.44521
1494.98 40.3585 1.53888
2555.79 63.3736 2.27064
2197.22 58.2137 2.03195
912.609 28.7838 1.04923
1859.48 50.2062 1.82354
1622.36 49.8153 1.7979
3501.41 102.391 3.76572
2206.57 89.8499 3.38982
1610.47 49.8942 1.90289
1468.04 53.5527 1.97736
1369.56 51.7389 1.93842
1414.38 42.4051 1.75829
1731.26 80.6772 3.35641
907.687 56.9981 2.65428
1820.16 68.368 3.05823
1892.28 58.1441 2.77118
1640.85 58.1886 2.42982
1838.93 64.3141 3.0804
1221.45 53.4663 2.89077
1953.91 82.9733 4.06522
1588.02 56.4477 2.61918
902.342 36.5822 1.77171
1474 65.7175 3.49174
717.643 25.4214 1.39529
1252.73 59.8125 3.03775
969.383 41.6902 2.22735
762.857 48.7391 2.79867
1102.6 37.6447 2.30524
768.724 43.4394 2.42586
890.683 36.9318 2.16433
859.143 40.5486 2.39112
748.99 35.8761 2.16218
1091.47 35.4282 2.18061
1167.26 52.3399 3.46934
1248.61 65.0995 4.17042
1284.47 50.2253 3.1432
1349.34 60.6639 3.94646
1143.87 60.3913 4.14942
837.509 56.8012 4.15844
993.32 55.1158 3.75939
855.334 66.3434 4.56495
1166.63 63.9344 4.63802
889.458 48.4695 3.42225
1037.11 44.889 3.3923
1241.34 69.2581 5.28866
761.976 40.9864 3.45171
1534.71 88.557 6.54717
723.32 37.9569 3.02669
934.845 50.3294 4.29296
1395.49 84.5594 7.35651
636.445 31.5085 2.64146
569.2 24.7656 2.24082
605.019 48.5154 4.40106
381.551 43.4091 4.0882
662.647 40.3088 3.42664
870.19 53.1954 5.2794
348.839 37.1317 3.19483
734.084 50.1431 4.44257
680.112 47.8571 4.5268
649.899 52.4456 4.85236
912.488 53.779 5.17343
692.81 58.8612 5.64607
1089.21 84.0116 8.67316
564.521 43.8888 4.11489
886.772 87.8118 9.02308
843.082 75.219 8.03837
348.27 42.9726 4.44184
1038.52 67.5854 7.20465
1084.32 76.8625 8.47407
404.71 33.6825 4.25629
902.757 88.9677 9.64775
523.998 51.7946 5.6444
522.408 45.8048 5.42138
646.536 69.4821 8.32178
704.144 37.6002 4.35394
336.515 46.4596 5.51899
669.308 48.6668 6.50583
480.237 39.0661 4.72071
563.646 36.9515 4.92481
501.944 54.3144 6.17007
491.165 44.0224 5.34709
445.491 37.671 4.43543
774.264 76.7125 9.78672
505.53 49.746 6.38807
543.49 63.2106 8.10986
535.237 46.7973 6.41775
747.873 57.1707 7.64194
395.583 47.5204 6.94564
535.164 59.5375 7.86604
328.548 45.3115 6.48564
379.817 35.2078 5.01099
333.461 31.2131 4.13076
514.123 56.3002 7.60817
493.396 53.1805 7.44139
416.846 60.6048 9.08999
272.932 35.0208 4.88922
266.439 24.3443 3.35204
379.154 30.88 4.84128
283.078 38.8614 5.49262
413.02 41.658 6.4788
672.866 76.3546 12.303
416.342 45.8238 7.54123
361.098 40.324 5.90253
630.861 68.2158 10.8576
247.165 50.6804 8.80723
350.832 38.6489 6.78864
389.887 53.6388 8.79969
318.28 46.5156 7.19946
419.284 54.5523 9.87564
464.239 51.0003 8.2654
314.552 73.1514 12.945
349.026 41.0709 8.88968
440.97 49.8182 8.26826
290.327 35.5603 6.31965
359.568 57.5449 9.97659
239.361 32.2987 5.51232
339.722 28.2381 5.22943
430.106 60.14 11.2989
367.56 38.304 7.02579
627.406 82.7423 16.3068
404.185 53.495 10.337
393.637 61.0397 10.5781
340.134 54.7841 10.7398
478.381 67.6024 12.7106
451.652 63.4966 13.7107
336.339 48.9886 9.57177
391.161 39.8698 8.19167
183.314 39.804 8.84255
304.691 47.9155 9.81294
436.918 54.9312 11.0695
630.613 99.9348 22.3952
292.146 45.4948 9.21154
379.506 83.5536 19.0046
248.04 56.1983 12.6247
312.979 48.615 9.88969
292.745 37.7299 7.92799
294.592 54.0889 12.8459
261.063 45.6995 10.5794
246.834 42.6282 9.27431
377.705 50.9832 11.1323
274.28 50.0305 12.6744
270.934 63.976 15.5407
310.685 60.1505 13.4575
201.978 41.5114 9.98942
307.776 56.2039 13.1228
410.84 79.6028 18.4075
314.472 53.509 13.991
317.164 62.5257 16.1033
224.875 52.5698 13.3999
112.79 23.0425 7.09324
166.861 49.5037 11.9241
193.086 30.2506 7.72273
335.242 56.1334 15.2132
193.094 37.4852 7.92838
242.841 39.7493 10.3931
322.298 103.891 27.5058
218.372 45.2406 12.2868
214.117 49.8101 12.6435
268.855 61.4935 16.6584
191.314 49.2249 13.561
193.941 49.3252 12.8024
309.987 52.5516 13.7393
214.133 51.1391 14.4806
233.592 50.7362 15.7881
400.555 88.5177 23.6684
194.396 53.3339 16.1212
251.173 60.8847 17.1927
195.551 29.8043 7.90239
175.972 34.0317 11.4768
216.07 47.0082 13.7277
100.56 28.7319 8.42811
223.208 36.2741 9.42683
201.132 46.0519 13.7188
353.599 66.8502 19.1111
263.241 55.0097 17.5244
129.543 30.9163 9.63625
293.669 78.4029 26.4028
237.668 40.2809 12.1067
224.175 56.7512 17.2051
179.584 50.6706 16.3347
215.638 39.5806 13.9564
202.822 32.9304 10.7639
190.615 33.7328 10.1785
175.784 47.7672 17.4772
158.805 49.8013 16.7131
232.786 38.3858 11.9551
208.696 45.1981 15.7463
210.902 49.3766 16.549
218.505 62.8324 25.1048
224.303 77.2007 23.4895
225.531 46.4859 15.8002
168.717 40.4931 12.0226
219.556 69.001 24.7408
161.851 54.4671 20.863
278.721 66.2023 21.5922
213.895 62.2089 21.212
161.676 47.5194 17.8769
177.887 36.7137 12.1679
231.231 71.3355 26.3656
160.399 40.978 14.75
289.566 72.7064 25.2689
214.498 58.4475 21.0942
156.271 49.994 19.7675
154.524 34.0675 13.1893
149.552 49.6711 18.8669
164.106 54.3079 20.6762
142.779 52.3653 18.7438
122.729 37.8354 12.7203
180.092 55.9032 20.0632
115.191 52.6634 24.4661
145.93 40.5075 16.1707
107.099 18.3993 7.96551
66.9848 20.7094 7.33354
136.876 47.0961 18.2877
180.147 46.6101 19.9493
97.7345 32.5173 11.4053
77.3713 27.5204 12.0247
85.2142 35.693 13.9025
94.8663 22.9131 8.91585
52.9215 18.9241 7.5465
95.2825 38.2444 15.4014
84.5607 27.1526 12.1029
68.4935 20.7333 10.8263
177.787 66.2983 27.8453
89.118 44.454 19.2754
119.206 27.1466 13.0614
175.85 53.9991 23.7077
212.998 66.9513 28.5586
171.502 40.7615 16.8804
51.0166 22.0733 10.5642
135.966 41.1769 20.3109
113.285 38.958 17.2378
141.335 64.6222 27.9888
76.0006 41.1491 16.4473
88.9567 51.4113 25.4495
118.411 37.4939 18.5371
157.711 54.3269 25.587
152.202 64.4839 28.9016
94.8053 34.078 15.0596
54.505 27.9125 15.1995
108.749 40.8307 17.6996
96.4034 39.4744 21.2961
96.5386 18.3455 9.2315
164.471 60.8574 30.0984
186.132 50.4573 24.7202
86.4323 34.8294 17.7816
84.1703 40.8886 21.0517
148.656 74.2844 34.1014
128.358 59.1025 29.4829
83.2502 33.8252 19.2237
111.037 31.6443 15.732
84.5643 23.7413 12.9473
130.381 39.0255 16.6145
99.6112 48.4731 23.8565
67.2177 35.3751 18.4328
113.024 38.4986 20.7116
166.845 66.3679 33.0441
75.5848 34.3152 21.003
169.579 61.6744 32.5124
97.14 31.0199 14.3247
111.861 39.3275 23.1191
102.761 50.1311 26.5696
103.035 29.2121 16.4833
113.717 36.4234 19.0568
157.875 51.8492 29.7967
212.417 79.0745 40.2418
77.2136 35.7673 20.3457
71.312 36.6088 18.8934
152.492 84.013 48.0332
109.113 45.5129 24.2215
52.6869 21.498 16.1701
163.082 65.5429 34.0523
82.3149 34.8012 25.2577
203.801 90.8788 48.9252
61.8984 42.8221 23.0593
100.166 43.552 23.0275
29.339 49.5875 31.5568
83.6035 26.623 17.6161
86.3027 24.703 13.9565
88.919 41.0699 24.3966
66.738 30.8572 20.0222
105.464 31.7419 15.4774
77.1411 35.7429 21.4047
49.2931 20.6694 13.5945
69.3474 36.0088 23.2037
104.551 41.4476 25.2548
163.684 58.2825 32.5209
110.736 48.4443 32.5667
123.374 51.5022 27.4697
96.7711 47.5128 32.4294
101.337 32.5014 21.606
50.1894 20.5313 13.3391
54.5688 32.7078 17.7817
138.62 69.6936 43.9633
95.2742 39.2207 26.6105
62.9662 50.7496 35.4954
72.8321 32.2915 16.1551
53.3493 31.6502 23.4975
93.4164 47.0555 30.0822
73.79 41.3633 30.1622
91.3768 54.8067 35.753
96.5327 47.718 29.9952
53.997 18.7487 13.0049
54.1855 21.9975 16.7287
85.2832 45.7296 28.2127
83.0403 46.524 28.2592
107.195 66.063 49.7482
82.5704 37.2824 21.866
53.5355 44.3172 32.9295
123.157 59.552 37.7821
71.8871 35.7282 23.9993
69.7837 34.2936 27.0219
53.5921 28.4096 20.7952
69.5542 30.0268 22.0975
99.3015 37.4958 21.883
88.94 46.4074 36.088
85.2612 36.3782 21.4342
98.7193 43.0632 32.5237
48.509 25.7838 18.7467
73.3808 37.9272 28.5457
56.5187 18.8386 11.6197
64.6649 40.0881 26.7474
97.6331 63.8957 53.3864
85.7277 39.4773 24.8627
77.6556 35.3142 29.9376
88.0314 54.8197 37.2375
81.7378 45.1943 36.7588
37.8369 25.0545 21.8222
51.4068 36.4616 24.2125
72.0087 50.0961 37.2626
51.5812 29.9177 25.5639
75.5507 37.6691 26.8404
48.7118 33.4648 26.8989
74.6354 41.6748 26.7625
55.7408 41.4838 36.3246
74.918 27.0556 18.759
76.6051 43.3126 35.5602
72.3689 40.4952 30.0399
27.6538 20.2878 21.1714
29.5442 19.3279 13.6659
39.9627 32.138 26.6355
64.1029 44.4246 39.1428
80.9842 58.9234 43.7354
48.552 23.0818 22.0433
76.4209 50.3493 30.5639
48.2304 29.9982 24.6504
42.0058 26.6893 24.979
34.2189 37.209 33.4865
56.3228 28.6532 19.3715
40.4066 25.2991 22.5228
37.3493 23.7205 22.386
58.7429 33.0993 25.1006
58.0373 45.5233 38.2565
54.1573 36.3714 31.4379
49.4551 27.4446 19.892
62.8297 31.2168 32.3471
99.8801 61.8293 47.4835
62.2841 44.4055 36.3872
27.8674 28.4024 31.3319
71.358 43.3096 35.6952
55.4604 42.6889 37.24
65.5332 29.2947 21.0601
21.7504 15.2226 14.9468
43.4654 41.4204 31.8374
45.0212 35.0505 33.1754
65.9024 40.3526 38.0867
39.6634 21.994 21.9144
34.3672 27.7374 24.6798
85.1835 53.1278 35.5903
49.0986 53.6108 47.7604
23.238 20.0071 22.8629
57.4952 45.1351 37.4147
52.4912 22.0604 22.2661
22.904 21.1473 20.9265
43.0776 22.8156 27.9124
48.9593 25.9984 19.3342
31.7222 25.8465 26.4608
38.5907 34.5243 28.193
48.9444 35.7491 28.4616
57.9849 36.223 37.7867
23.335 24.5871 24.2904
53.1298 32.2035 30.2062
35.3839 40.1189 33.8033
42.9959 42.3254 37.8393
55.094 39.9786 47.239
60.252 31.161 26.8573
49.5123 35.6673 32.7749
51.3643 35.3467 30.5899
55.3167 33.2431 34.6864
55.8992 47.716 54.3137
70.6007 50.2107 44.0051
15.0485 18.5169 25.7087
53.0625 31.9027 29.1368
52.9171 31.4165 31.6336
38.4348 41.335 38.6704
50.4056 24.6063 26.2075
21.2278 18.0747 19.823
34.8518 16.8818 17.7205
97.7616 58.702 47.8942
47.0684 42.0213 49.3698
84.8872 53.1953 44.313
29.1639 20.4874 23.5222
37.1061 30.4623 28.0705
27.1764 23.0819 30.84
44.7194 34.1719 35.416
61.7781 45.1385 49.3382
56.651 63.8991 68.3417
48.6803 37.3255 37.9548
44.4293 28.3335 24.4579
39.6798 23.7071 23.5664
55.9812 45.888 53.4976
48.4984 39.5089 45.8542
36.3888 39.931 36.2918
50.9553 45.9116 45.4834
32.8309 33.2507 34.9371
62.5155 44.576 47.905
32.9882 20.7529 19.3879
28.7868 17.5177 18.8898
32.3868 33.6017 35.3085
42.9309 20.0208 21.1224
25.4772 26.4464 28.3867
37.585 26.791 32.0207
41.8716 44.092 45.0006
42.7178 29.5691 30.3201
29.7414 47.1575 55.6024
41.5499 25.7829 25.576
52.697 36.0393 41.5911
53.4267 50.4129 60.0754
40.8255 23.9926 19.1792
45.147 47.6572 56.7119
42.7039 31.9868 36.3806
25.8056 16.0978 14.1779
44.6026 40.3416 51.2697
29.952 30.8535 30.2191
26.0626 24.3312 30.2703
28.3017 18.1943 19.6937
32.2088 35.3588 38.3799
29.5912 31.8564 36.9036
24.5339 22.6662 22.9179
49.549 55.3589 66.8431
45.131 24.008 37.9403
61.5633 60.9728 56.2181
43.2285 23.1676 32.3793
44.0009 43.287 68.2763
73.7968 76.1869 84.7242
73.0888 44.254 47.8045
36.8381 31.6599 35.3378
31.5516 19.3266 23.8728
10.4688 19.5809 29.4268
35.4542 39.11 46.3028
35.6391 21.5243 20.9982
14.6299 15.2469 31.8265
53.0287 62.4941 51.004
20.902 35.4937 47.5174
26.5537 24.199 31.2013
38.6912 27.9813 35.2929
51.8907 60.612 76.8718
44.925 24.1885 21.1173
37.3112 24.2552 29.5326
38.0126 28.2239 52.7112
57.0523 54.3104 53.7025
23.6655 28.8514 44.1045
23.1449 19.3757 24.1671
20.5873 26.8829 33.6081
34.521 19.5375 23.3474
24.432 18.9829 24.6265
42.5343 27.0898 36.9166
19.3282 30.3727 38.3408
40.007 32.3775 36.7821
35.6367 26.1832 29.4674
30.8846 38.1621 52.1326
40.1626 26.2245 32.1489
18.252 21.5513 31.3205
21.7629 12.8767 23.6129
30.4375 24.1788 30.0776
41.8233 28.8566 33.3278
39.3512 37.5338 41.4808
21.769 22.4017 35.6852
24.546 30.9623 36.7262
38.4071 27.6925 37.561
29.6191 24.726 33.7137
25.7643 21.0834 33.6149
20.3113 14.353 19.6013
39.9042 64.1142 82.1299
40.0113 34.9435 50.0262
33.3725 21.2892 27.3242
24.0661 32.6135 39.4123
34.1784 37.738 50.0543
38.3519 38.4368 58.1085
47.3352 40.903 46.9895
34.9089 16.9381 20.3225
21.6654 22.7086 34.2888
50.8392 34.7662 40.76
14.4941 15.7778 31.6825
41.1174 27.0008 34.1213
16.0219 20.619 42.8586
37.6145 20.9521 28.2923
22.3882 16.857 17.289
18.9031 20.625 35.5056
26.9784 27.9818 35.4385
16.0081 30.4175 65.8843
66.377 58.5788 58.7001
25.9673 19.9437 26.6655
22.3731 33.4532 51.758
45.619 42.9256 60.0827
23.1408 21.8679 32.2684
26.4046 20.7047 28.2828
20.9518 27.0676 40.6042
56.2769 48.7253 60.9862
21.9157 25.9653 40.943
23.4709 21.0211 30.0022
27.4493 32.7889 51.867
30.5839 22.7748 28.3667
14.9124 13.5935 23.9057
44.1491 26.4253 34.9519
19.8004 33.1885 46.0806
29.2814 24.3621 37.9001
35.0371 27.674 41.1535
18.4687 38.3091 61.3633
31.1943 14.8722 11.831
27.4063 28.4722 49.3297
18.608 24.0694 34.8467
19.081 19.0614 25.3816
30.2202 23.5644 43.5145
32.1152 25.2168 30.5178
37.631 28.056 46.5541
14.4659 13.6557 18.9407
22.6017 24.2095 48.2735
32.1074 17.39 33.3861
29.8871 24.5305 25.2549
19.1717 15.2487 26.3378
21.6214 23.7928 30.9012
36.6742 26.5274 41.1753
19.8878 23.4273 40.8311
29.168 23.1665 30.1403
26.503 25.012 56.4378
29.1976 27.7736 28.16
17.1164 19.6644 36.0093
14.7665 17.0418 22.4866
27.8392 20.1998 26.1473
23.0205 40.1027 67.1355
30.7509 22.8529 38.024
34.6942 30.8405 40.096
21.1516 27.0093 39.9139
19.9509 21.998 46.7133
13.5995 7.86247 14.4052
21.9113 24.8751 34.9726
15.3729 15.7953 26.6685
24.9533 25.6442 40.7477
24.3409 17.9146 29.2469
21.8941 33.3644 52.5095
27.1291 19.6525 31.0807
30.8376 33.5743 60.9442
33.2772 41.2555 60.6361
30.5257 21.3384 30.0423
18.1415 21.7577 37.9827
21.1021 18.6541 45.684
21.1718 21.0286 19.9184
19.9924 27.883 50.6633
17.6669 19.3092 32.5689
22.0516 24.5107 44.3246
43.867 52.3072 82.1628
36.917 32.9089 52.0004
25.2921 14.1756 22.414
12.2954 19.6696 32.2014
29.7372 28.5457 56.4059
14.6711 8.84413 14.9614
16.465 16.5998 29.1331
18.9224 18.5258 35.1187
23.6065 33.4745 52.583
22.2359 16.1379 29.9646
24.4651 28.404 48.948
34.7833 37.1286 65.5471
14.4523 17.063 25.1568
29.897 22.9417 45.2926
21.1419 26.238 37.1634
21.6805 26.6004 40.9042
17.9219 22.13 48.4729
19.4554 15.9215 37.128
29.0343 19.5426 36.3109
27.576 31.7035 49.6633
30.9959 30.438 47.0339
24.7277 26.1965 55.6657
30.8284 25.0798 34.4696
19.6434 25.9479 51.9477
24.2617 19.5365 27.9263
20.6983 24.4163 56.535
18.0292 27.6139 33.7256
21.1413 16.9477 33.8437
18.8227 25.6927 46.3712
17.248 14.5431 23.9848
19.068 14.0961 25.5982
19.9784 33.6138 60.6671
32.0282 26.1207 42.0649
13.3469 20.069 40.3171
12.9037 14.3753 20.1591
24.3893 24.0757 51.6091
32.7806 34.8592 57.8129
19.5244 21.0907 41.355
20.6325 20.3813 29.6021
11.6563 11.1126 31.935
17.6756 16.8548 33.5336
36.2457 40.1326 73.8242
28.0399 28.6332 53.6532
18.0223 20.6304 31.4781
22.9655 20.7893 38.8821
22.4136 24.4007 42.0466
31.9031 40.7512 58.158
12.3591 14.9746 34.2928
12.2332 21.039 45.6656
16.6837 16.6397 38.656
16.6942 22.5339 49.126
29.1013 33.2164 39.8351
14.6728 18.6405 43.9845
22.139 29.7185 49.2782
10.2476 16.6737 34.362
14.4312 25.6495 48.9305
17.6879 22.0767 58.0028
27.256 26.8259 49.9944
13.144 16.667 29.4983
11.7705 23.129 55.2684
21.5894 21.4203 45.8522
18.8385 7.5851 20.2195
20.8464 23.0533 34.8424
25.6775 28.9507 53.6875
16.4461 23.9854 46.2549
30.2177 24.9785 52.6853
20.9889 15.7716 26.0759
24.1208 21.1713 41.6515
22.6025 17.8835 24.9353
17.4405 23.1306 42.8957
26.5472 20.8893 49.4092
14.3306 13.7775 30.0813
17.8639 33.726 57.9669
15.5261 19.1928 53.7951
19.8321 17.0013 29.677
18.9984 19.8584 40.3364
15.1634 16.6686 30.884
9.6962 12.6558 20.6622
10.201 12.1706 34.0161
17.7595 7.38632 15.913
18.6228 19.2825 47.9854
17.8844 21.2191 42.6713
24.5112 31.3827 51.7024
16.703 26.125 44.6704
11.891 14.8067 28.4343
14 21.6903 43.1485
17.9673 14.5398 31.345
17.4033 16.2868 37.4849
7.39091 9.94989 17.9163
11.4144 13.5512 23.47
11.3257 16.3287 32.3187
20.8654 19.2234 50.2787
22.6305 28.3926 65.031
10.1895 18.9009 46.4097
22.8716 20.3711 20.1184
17.4753 23.492 55.8668
11.0507 10.9724 26.6643
13.2789 22.9249 54.2459
21.2652 17.1152 24.4348
5.30729 10.9903 16.7869
14.1195 21.8055 56.9297
24.1198 19.3443 43.9216
8.1775 15.1727 26.3106
7.86696 13.3864 27.2479
17.324 33.6948 79.2149
26.2819 24.7069 53.6
7.55516 17.6361 37.4939
20.8836 20.7039 50.658
14.0057 21.4137 34.0863
12.8169 14.346 41.1432
29.1222 38.4864 65.7891
14.3517 19.1412 41.8409
12.4686 9.4985 25.4858
18.5266 19.3724 45.4039
16.2898 20.0217 38.3624
11.1482 18.0855 37.0683
15.7065 27.6153 53.3748
15.038 16.1965 51.9771
22.321 17.9941 33.3064
19.3205 28.2246 57.3555
13.5409 20.5591 43.9535
13.42 11.7118 31.4198
7.90414 16.1817 52.4304
22.5982 22.0025 36.4121
15.3883 17.1347 28.4355
10.1299 17.562 41.0359
15.2676 18.1776 44.667
16.0042 26.5562 46.5635
8.46693 33.8478 84.2725
16.3455 18.0042 45.1738
15.2974 17.1818 39.089
22.3186 23.8712 48.9239
14.0066 19.3971 35.303
11.6401 12.2584 30.1039
10.3918 5.28202 15.8804
16.0876 14.3294 33.1621
19.6923 28.3009 65.4603
9.79947 22.8344 54.7217
15.4881 34.8772 71.1078
12.9041 15.2701 39.8925
15.9934 20.2454 37.5921
8.37989 22.5246 58.8697
8.74643 12.1923 30.5493
12.1611 14.5486 31.8091
14.0038 18.1371 37.3486
11.876 19.13 52.0573
11.3543 16.0578 30.0934
10.1999 19.5768 71.895
29.2984 32.0222 58.6383
11.082 20.6861 50.387
9.26035 12.7738 32.3667
15.8005 23.5353 43.9044
14.9105 15.1747 38.3501
15.1567 21.5322 71.291
22.2312 24.0766 42.1365
9.26017 7.22431 22.0371
12.3057 13.7765 24.6706
15.7174 21.6551 48.4907
4.27269 10.3781 28.8338
9.68563 17.7856 27.4808
10.5479 15.524 41.0612
8.5733 19.875 57.002
19.2823 32.6644 89.1064
16.7522 22.1525 49.7831
20.5866 28.735 57.8532
13.9742 14.5178 46.2837
13.3351 22.4484 50.383
7.88042 13.7964 36.7146
9.49359 28.1845 74.8019
20.8885 22.7543 39.3256
12.3319 16.3929 53.5824
18.9012 21.1393 51.0205
13.2519 20.5263 38.0469
15.358 15.9774 30.2501
13.3774 19.4744 40.0719
13.8134 12.7095 34.9127
10.1056 16.9326 35.4819
12.3561 15.7858 28.7628
6.80039 15.949 40.2492
12.0701 17.9181 56.4601
14.1564 21.8882 28.6405
8.68782 28.8692 84.7561
25.7124 32.2024 80.0273
14.1223 20.2099 58.2275
19.7822 21.5465 38.5837
7.82055 10.2743 31.2137
12.8015 14.3618 35.2027
8.85539 16.1991 46.0962
13.5248 23.8502 56.2871
12.189 18.8782 35.2892
