# pn-170911/CsIIA-30-TWTF-1280-1959.psd
# Power spectrum* (dif=0,1,2) (really just |FT|^2)
# NOTE: only the first half! (symmetric)
# weeks: 1280-1959
# 5 clock-days, 1 excluded
# PSD: 1441
24076.3 0.58696 0.0623675
613805 13.3272 0.0730091
5.44042e+06 126.23 0.0409307
2.56481e+06 111.804 0.0274129
1.07204e+06 84.2411 0.0998016
1.13911e+06 116.302 0.0473535
91713.8 24.0686 0.0565939
208266 59.1066 0.0636886
189814 75.5062 0.0552925
153221 37.3053 0.09852
61627.3 21.7769 0.0567454
36286.8 17.4473 0.0718491
43399.5 32.0548 0.0870168
132208 86.5123 0.110537
79554.5 52.9582 0.0989037
59311.6 75.3871 0.103627
26486.6 19.3598 0.0599613
51758.5 49.5785 0.147212
34927.2 51.4339 0.129158
25415.2 48.7548 0.165851
42519.7 53.7939 0.12038
29644.5 57.0093 0.155345
34179.6 80.1732 0.254527
29495 82.2726 0.166278
30072.1 63.8464 0.156309
20396.7 45.604 0.12313
22445.8 54.1445 0.246785
15192.1 51.1036 0.139902
11494 37.8322 0.162551
16146.3 64.7659 0.25114
23767.1 93.4484 0.553308
17249.9 85.7804 0.496154
10994.3 56.4805 0.268161
14286 54.0602 0.287803
20426.7 97.8993 0.87196
14680.4 78.6293 0.555127
14521.3 78.7329 0.503766
9654.22 49.1702 0.186297
8583.43 32.6932 0.264971
6888.42 44.2587 0.309363
16423.1 107.668 0.862925
4784.59 33.8919 0.317727
2828.45 28.832 0.148865
5776.1 65.0748 0.636455
21152.4 161.446 1.28557
13555.5 122.993 1.6322
5817.84 37.9213 0.468377
8620.11 94.5117 1.2374
5257.59 63.2672 0.678384
3854.53 35.7586 0.279608
6353.29 58.6237 1.0783
5663.99 35.007 0.477857
4274.54 40.821 0.359303
6647.93 75.6203 1.13915
4654.71 57.9474 0.699498
5797.27 64.4238 0.909861
5124.28 92.0099 1.47279
3775.41 48.5635 0.755775
2755.72 50.8696 0.969886
6676.34 69.7987 1.12095
7599.9 141.219 2.3493
5336.73 71.8923 1.49123
8091.5 146.603 2.58674
3654.61 69.8121 1.30649
2575.67 56.5384 1.25175
4545.41 98.9076 2.01921
3428.17 66.6896 1.44976
7300.32 114.359 2.39827
6536.57 109.445 2.75399
2857.86 59.1367 1.33204
3441.6 69.8956 1.62271
4644.03 92.7486 2.11985
4939.38 99.642 2.43575
887.432 22.6463 0.59507
2678.7 52.2649 1.39353
2732.52 65.522 2.07994
1218.11 25.6397 0.851499
1160.73 36.9354 1.15682
1446.32 49.5584 1.33594
3168.64 69.3276 2.04776
1182.44 29.9217 1.02289
1762.76 55.8679 1.86113
1790.07 49.8076 1.65485
2790.84 77.9662 2.63387
1149.26 39.1001 1.58547
3149.88 92.0053 2.94257
1366.87 41.7877 1.33698
3173.4 83.2216 3.08042
2184.53 59.6691 2.07066
3483.03 90.7278 3.56764
2898.16 126.91 4.79798
1527.26 48.9887 1.93328
2143.93 62.2234 2.7196
1126.38 31.095 1.54082
3217.02 95.9827 4.28703
2220.26 82.7687 3.55869
1567.76 42.6001 1.98456
1684.81 55.8519 2.6189
1709.03 60.0684 3.02398
2050.57 72.9749 3.07073
1432.77 64.636 2.95285
1563.51 60.8526 2.77196
634.978 33.0231 1.8718
2880.19 129.939 7.00223
1820.78 80.0669 4.14247
1619.29 90.2809 4.97121
535.73 33.4262 1.63621
1520.29 54.0904 2.90551
365.975 26.7675 1.55335
926.356 38.6753 2.07631
920.752 27.5556 1.5951
933.028 48.0074 3.02739
1144.2 38.2583 2.44456
1262.81 55.3528 3.52492
1030.82 74.2293 3.88993
1705.27 78.7504 4.39726
1432.66 84.4372 5.85431
1127.8 59.7832 4.47485
1107.38 53.0081 3.38279
545.586 43.4479 2.66228
954.594 50.7543 3.51044
920.718 42.1903 2.58679
863.033 49.8784 3.5531
813.584 51.4103 3.37893
779.624 34.5734 2.13691
867.3 80.1066 5.97094
1110.73 75.22 5.28654
614.141 52.1732 3.89507
1185.66 75.1801 5.74681
505.072 32.0897 2.50492
679.817 53.497 4.90296
927.002 54.9263 4.09572
643.82 36.1957 2.62157
924.063 107.866 9.03368
1300 66.3798 5.89185
454.508 28.7565 2.64682
501.598 42.5314 4.00899
1242.1 63.1856 4.72407
522.759 34.2058 3.23881
1110.85 82.3702 7.17724
363.069 25.3562 2.36208
930.891 58.2688 5.4604
784.319 47.307 5.35489
882.786 92.13 8.50211
1272.04 97.0212 9.6334
966.742 74.4007 7.23095
642.898 73.1694 6.9711
507.63 49.633 5.15833
423.831 63.9501 6.67021
304.358 20.6354 1.96571
209.546 37.483 3.74814
1009.54 86.5762 9.29877
454.361 58.1795 6.23429
350.544 26.9191 2.72727
603.409 44.3108 4.8538
739.233 46.0198 4.95614
1027.33 88.5043 10.6547
1071.81 129.418 15.8637
391.662 39.9165 4.89816
1110.4 111.778 13.5009
492.976 52.8354 6.12882
411.793 46.6935 5.531
83.6775 17.9905 2.08872
259.088 18.9116 2.26973
446.823 62.0796 7.40488
480.696 38.2688 5.4231
562.929 85.5224 11.5374
498.514 44.7253 5.34446
346.54 71.7717 10.1617
1171.47 132.819 17.3647
346.216 53.884 7.3816
299.231 32.7293 5.33293
274.033 40.3884 5.6675
809.328 99.5238 11.9209
351.022 60.5437 9.50915
677.933 103.295 13.3258
376.785 46.3 6.42723
310.757 46.4134 7.33241
266.941 37.4758 5.74304
392.572 66.1196 10.0635
585.319 93.9148 13.7038
468.993 68.4532 11.6952
800.414 134.468 20.2975
233.991 43.5817 8.62257
661.309 75.2677 12.0853
662.704 70.7243 11.6429
312.662 48.1005 7.61554
232.408 35.6819 5.00374
197.542 42.2693 6.95598
251.991 47.482 9.06419
623.097 65.2357 9.98881
316.83 51.8251 8.31013
761.41 150.157 25.7674
201.413 30.2418 4.13746
350.421 59.4383 10.805
356.981 71.4341 13.0664
316.553 31.5338 5.42375
181.48 31.3843 6.42145
361.165 51.8239 10.2363
401.281 71.0303 13.0785
300.193 32.7024 6.77081
314.961 64.9837 12.1441
208.086 31.3884 7.22742
637.414 92.4008 16.3645
292.714 63.8498 14.0074
327.06 72.4416 12.2658
490.406 110.376 22.8034
446.238 73.609 13.933
370.101 79.2035 17.2736
272.448 39.688 8.89847
286.519 37.0633 6.40073
222.424 50.908 11.0475
358.15 57.0454 11.5357
256.536 51.956 10.3516
249.544 72.9386 17.0715
287.753 41.3737 9.17562
327.468 46.6478 9.48329
350.176 47.5202 9.35538
369.262 60.2792 12.5204
305.282 69.5857 15.5113
196.828 46.7126 10.8855
81.0046 18.5041 5.69356
494.213 97.7785 21.6713
385.669 82.1723 17.217
377.743 73.192 17.7134
378.936 89.44 20.5579
385.74 52.041 12.0951
545.88 95.7136 23.1864
229.941 54.1144 12.626
171.268 28.958 8.83226
156.25 30.0822 6.71523
110.882 12.5331 3.53957
425.91 95.3615 23.1588
192.763 52.6974 16.614
234.028 69.5847 18.7015
243.726 70.3046 18.9847
351.916 56.4364 13.9279
284.006 54.9108 13.2941
84.8439 13.9791 4.83995
190.798 47.5493 10.2338
89.4324 24.7191 7.2377
301.275 53.1197 14.3243
156.147 26.9049 7.63848
202.31 36.5755 10.193
473.141 94.6899 25.4046
98.5622 26.0523 5.94585
383.027 84.8894 25.9045
229.819 64.3395 16.7075
263.308 71.9581 22.0933
180.419 71.8208 20.7521
349.968 74.3308 18.2984
122.837 40.1225 10.9726
189.895 48.1864 14.4446
205.086 51.4902 15.5638
322.812 91.8325 28.1435
236.372 46.1647 14.3221
149.603 35.1631 9.57286
218.862 42.6543 13.1438
71.9266 31.3827 10.046
159.576 34.9322 10.7721
164.96 31.9592 11.1019
211.406 64.4761 19.9113
117.755 49.7568 15.5512
142.388 42.2102 14.2052
185.926 64.9212 18.945
100.231 39.5902 12.7259
50.1343 22.0027 7.93091
156.606 39.6816 12.604
101.747 20.2358 7.52315
105.021 38.5343 14.0081
220.802 81.2196 25.7522
104.305 36.4718 12.0962
246.074 58.6637 19.1112
175.623 69.1291 25.6656
297.5 90.6821 29.6862
45.8809 26.3002 13.6843
136.939 24.7844 9.48399
72.8463 23.4468 7.75927
225.051 65.197 21.5508
213.114 51.4269 16.1108
90.5592 27.0947 9.67031
107.419 42.1936 16.6248
197.556 71.1814 25.1938
133.397 32.9377 13.0772
39.2395 17.4984 9.76564
213.888 44.9931 13.4192
119.314 26.3787 9.44889
124.615 47.7231 19.2409
213.663 56.4152 20.4561
49.9916 15.5638 5.8808
173.358 86.1668 35.4948
89.0579 29.8806 10.1154
105.194 37.8452 16.6892
79.7983 31.9252 12.0045
94.3819 25.7075 10.3819
71.2051 14.2539 6.90277
131.437 40.5971 15.0918
95.0206 30.8503 12.1913
126.727 45.4344 20.8123
98.6187 35.341 12.9315
125.74 30.8715 14.5416
195.433 60.1876 24.3368
207.233 70.7294 28.726
120.161 52.4474 20.5831
181.895 48.4593 20.2167
131.468 48.2945 22.3599
91.4072 22.3653 9.87987
239.292 91.2282 39.6623
158.365 51.4919 24.4948
106.606 60.7971 27.6373
43.007 16.5576 13.696
195.887 50.5314 14.9498
192.6 85.9991 45.1308
274.075 107.983 41.3853
209.041 65.7302 26.5922
137.942 39.3061 15.75
146.436 65.7602 27.5313
128.754 53.3056 28.1865
158.4 62.1893 29.991
126.931 33.2047 10.7486
149.743 48.4084 26.312
246.563 116.275 55.9912
131.435 47.3702 28.4944
126.512 38.0726 18.2915
54.3287 29.9245 9.22892
124.966 48.1738 22.2659
81.1954 33.6395 14.4171
84.5722 34.4657 16.982
62.059 42.537 25.2416
87.1736 37.4716 14.185
36.5332 24.5119 12.7025
106.851 51.7614 21.0214
147.429 68.3489 32.7835
72.7584 55.8316 30.6092
73.5139 51.0327 32.3907
127.485 43.2184 21.9973
64.0904 22.9486 8.57179
93.717 42.2761 23.5962
119.3 43.3964 22.4708
73.9268 21.5743 10.1719
113.646 36.6316 20.4188
97.3505 32.3627 17.5793
143.239 68.9762 33.1989
84.4377 50.0296 25.902
155.863 49.7255 24.2498
54.5042 18.3276 12.5749
148.72 59.113 34.0943
46.9097 24.6476 11.3912
47.3947 15.9118 14.6532
95.3291 44.8165 21.192
73.6792 23.703 13.78
66.5304 38.0501 18.0302
87.5867 45.9065 25.9749
40.4343 28.1449 13.8628
114.34 64.952 33.5456
81.092 57.9375 39.6877
111.421 42.1067 24.7703
210.454 84.0839 38.3082
118.17 64.1773 43.5353
109.583 45.7461 30.6592
109.725 50.7943 27.6572
94.9322 46.8411 24.9859
67.9895 35.9934 22.6845
81.6409 26.6255 16.7974
88.0026 43.6997 21.7761
76.5876 33.4302 19.289
52.1074 34.4834 28.9079
93.3195 63.96 36.8418
85.2344 28.7167 20.117
61.6882 31.1044 21.6946
103.024 25.3488 8.5249
138.781 65.9555 34.7976
110.561 62.6463 45.4186
96.121 57.1515 34.7034
117.839 69.615 44.3591
106.34 60.8717 42.5205
111.481 36.6601 17.0675
26.4141 9.30985 6.46478
124.687 73.6782 55.0682
67.8933 34.0169 22.2657
97.8784 37.2264 15.5874
141.557 76.3884 48.6539
93.223 47.4646 31.6944
37.4918 17.9975 14.6169
74.2718 48.0206 37.493
75.9248 32.5359 26.8703
66.1156 30.2038 24.5343
108.54 46.4809 23.0285
54.1989 32.7218 26.8185
89.3845 52.47 30.5923
68.2383 34.2412 21.4996
53.1279 35.8781 28.507
96.0213 56.9073 37.6104
49.3189 17.4661 13.6478
91.0228 64.9714 46.2259
65.5289 58.2773 41.8923
58.2308 13.0021 7.91021
94.2135 43.9344 26.8402
35.5114 19.9713 18.717
129.925 60.5309 39.5101
29.7217 29.9204 29.0108
61.3143 45.6742 26.2035
77.7062 69.68 55.2329
81.5762 45.466 34.8203
38.2822 28.0123 22.1819
88.2882 69.8531 41.9152
26.5536 29.9194 23.5262
39.4073 26.3665 23.4961
89.6469 40.6903 32.6186
33.2932 20.9599 16.314
129.523 73.3113 46.8733
25.5957 21.2703 20.4496
71.4628 48.2864 41.2955
115.046 53.5759 38.2891
51.8457 41.4277 25.8389
41.5363 36.3865 30.0353
53.1435 27.7794 23.1306
61.4339 32.5525 25.0375
50.5669 18.1886 17.5442
56.0383 32.688 19.3773
84.5561 47.3552 31.0478
24.1496 29.4765 29.1511
49.4949 18.0215 11.7531
45.8542 26.2829 24.8374
89.5448 47.6259 35.8396
47.0599 34.1558 29.4104
92.7165 51.3169 44.0073
60.9734 52.8008 42.3524
105.316 52.0304 45.3655
43.805 37.578 27.2232
32.0822 23.0687 18.9733
99.8405 58.9367 49.7163
47.7086 34.664 24.8608
60.5699 34.1674 19.3843
53.0063 46.0886 48.2825
103.484 53.6911 49.2504
71.906 52.4903 31.4263
18.8982 17.1878 13.2013
46.6555 29.9572 20.5389
47.3664 44.8637 46.8757
50.1481 32.6358 20.1256
50.7437 32.5637 23.8416
21.6947 15.5847 15.7384
35.332 19.6717 21.2528
62.1815 29.905 21.4547
20.7972 18.708 23.7173
75.9943 41.5016 31.737
46.3462 33.2989 22.5235
20.2893 21.4616 26.4493
54.3419 42.2968 37.4073
51.9345 26.4219 25.065
26.7964 34.7873 30.5784
61.7635 44.2842 33.4632
45.3276 28.0831 30.1324
19.1921 17.8216 18.7856
48.9461 31.2554 32.0851
53.2772 37.4396 35.2845
44.4644 43.6722 40.975
88.2087 42.9494 43.371
52.7395 32.0738 24.2585
42.8787 31.4964 34.4258
91.9942 73.9402 56.2748
34.7775 21.915 24.0034
13.3232 24.769 25.5167
51.5986 39.1106 31.3774
32.0702 29.3754 28.0469
24.3056 21.1743 20.0185
35.464 49.1772 50.5949
106.035 65.7566 61.2279
36.4728 30.6006 19.2971
29.1072 57.207 64.4368
41.4163 25.9119 24.8326
55.0455 39.6486 36.0463
24.0307 30.3099 34.081
31.1533 18.7582 22.0219
85.0285 66.5133 50.8196
22.6571 13.5536 17.5311
43.2281 32.9111 36.1591
23.0552 39.9478 33.843
34.5845 35.1909 33.0036
59.6556 33.8704 26.6546
41.4626 25.675 25.4658
66.9619 69.5581 64.9329
33.5075 26.3526 36.8732
25.4483 19.1821 27.8599
44.8999 32.306 36.5622
49.1158 30.2962 35.6957
41.8407 43.5184 46.9692
75.6043 66.9624 63.5072
44.1571 56.4259 50.9178
34.4568 11.2131 8.98555
23.4172 30.8876 32.4386
26.8923 19.5293 15.9388
30.2772 25.7738 29.9529
12.0094 14.9129 25.8421
38.4374 25.0538 30.253
53.2295 52.432 41.2926
19.7771 20.6427 30.0107
51.6146 28.9912 30.2163
50.7336 52.1297 49.3892
45.667 40.7716 37.9281
65.2631 90.7774 97.0362
19.2656 40.7535 60.361
54.0531 29.2058 27.2715
13.7822 19.3758 28.8866
62.0736 36.1198 37.6526
28.0528 45.9604 46.9099
32.7853 12.4898 12.8027
28.3366 15.4985 20.0443
24.1386 30.872 37.196
21.0172 20.1957 22.2547
34.8632 10.5568 8.91543
37.8973 36.7099 43.9808
28.6721 26.6249 29.1841
50.7172 18.4368 14.6088
32.9977 24.0628 28.2397
23.9906 17.3976 17.5047
34.0074 26.4737 30.5069
33.1593 23.1936 20.7335
40.7062 32.9551 48.3518
19.7404 31.2483 34.1488
34.8653 30.8887 40.9778
54.3116 55.8991 59.8862
32.2526 17.2634 19.2076
23.5869 27.9132 36.4938
47.6808 43.7113 53.3223
22.7267 20.2228 17.5048
38.624 34.5485 39.1745
23.4166 17.921 19.2562
29.8198 15.1613 17.5083
16.5404 22.2206 35.2603
47.447 27.4651 35.5509
28.2383 30.4306 35.0285
14.557 11.3935 19.7514
17.6339 17.1742 20.5351
34.0602 34.4317 35.9298
19.8353 14.7905 14.1784
46.9041 45.4752 46.3434
20.3793 20.7005 35.2509
35.3061 46.643 63.7574
35.7093 22.9416 17.8005
17.3343 20.2168 37.6153
39.7584 29.386 27.7735
27.7613 36.2964 46.867
27.1079 20.489 32.055
53.2484 30.6892 31.7418
31.3474 24.7834 43.791
30.1749 25.3302 30.6423
20.5166 8.30234 8.14545
20.7545 23.4319 26.1835
62.0471 54.4499 61.0114
9.72829 22.9763 39.3467
20.9252 31.0361 25.7285
10.1223 27.0203 38.3955
19.6712 18.0465 31.0353
33.1138 18.1735 25.9707
16.0312 14.8073 22.3846
33.9101 35.9254 33.1625
29.6216 32.9018 50.9562
36.6572 19.3928 16.1459
35.9653 45.2689 69.5123
8.5499 13.7694 16.3505
22.0369 16.3225 14.2787
6.41277 24.0316 38.0671
22.6135 16.2246 28.1889
28.9139 20.6409 27.1321
30.796 16.2745 19.1139
40.3944 32.3257 31.6784
27.6794 30.9591 36.4188
39.5783 40.0393 63.9976
6.43626 12.4233 18.4508
18.0429 19.8436 26.7667
8.56932 20.7873 33.9747
33.3388 42.8556 40.1757
7.10253 20.3865 35.0763
36.9018 35.5039 50.7274
10.6113 10.1804 26.861
46.8418 42.3465 47.0007
16.595 21.3334 21.2357
7.80258 18.8664 46.1836
58.8977 52.4855 55.097
15.5492 12.2185 21.5515
28.9859 30.774 35.3314
18.0441 25.6553 39.7931
13.8562 19.0903 27.7166
21.6034 17.8481 28.1717
17.9401 38.4264 57.5207
26.5334 10.6497 12.622
18.1158 11.9487 20.9632
15.8368 16.4125 20.7684
24.9937 20.3197 35.0925
17.4636 14.4475 22.096
25.0803 29.3884 39.7762
17.7007 9.16695 8.45994
22.4326 26.714 44.7316
17.5633 16.2508 21.2124
11.1148 24.0404 51.5289
23.4607 19.0453 25.6389
39.0427 43.2686 65.7028
17.2385 44.4491 51.6487
33.532 42.5158 59.2016
28.8333 33.7275 67.207
27.8612 24.0916 14.8884
12.598 29.344 44.8808
27.234 13.5946 17.2894
25.4029 23.6496 40.0502
17.6863 28.6593 39.7183
13.2578 15.139 37.5361
36.557 36.9211 51.4526
30.3427 19.2001 20.4387
13.455 14.4279 42.2704
61.9409 73.9177 87.2845
21.3599 46.288 80.0412
29.1228 37.6301 50.6615
18.7173 16.4367 37.3248
15.9839 9.67558 26.4266
16.7605 18.2677 16.7131
18.0503 12.0117 11.0546
13.9435 18.1807 23.3496
21.5871 17.9599 33.2754
39.2605 28.5906 38.9496
11.5655 24.1247 41.0054
15.8262 10.722 18.5665
15.9684 15.5964 35.2948
17.6639 8.39799 10.2707
23.6775 29.8057 57.9301
34.1489 56.5075 103.839
18.8709 16.0671 30.1657
27.1409 39.2186 43.9062
23.1248 47.3462 79.6092
28.1022 18.9538 19.9551
21.2078 40.1016 67.7494
22.5482 13.3333 24.1925
22.4374 36.7461 53.1484
10.7825 12.1875 29.6938
28.9116 35.1198 41.6022
18.9628 7.12734 8.64922
27.5164 31.7729 44.3266
9.89882 11.6923 35.7571
20.2421 29.819 62.4569
28.6386 44.8597 57.8546
20.2166 42.0681 62.242
25.7473 46.8275 97.2854
22.7484 34.0338 64.0369
17.9371 16.6132 30.0081
13.5176 30.0057 33.8167
19.2905 25.3071 38.2915
16.0562 26.5336 32.4284
23.6822 28.7931 62.3309
21.9964 41.66 63.3121
12.3065 15.6013 27.7546
17.5227 19.3727 32.1875
7.85643 7.81739 9.68981
17.5309 26.3887 34.8987
13.9537 21.7259 33.9291
9.24911 13.4526 33.984
19.4172 13.1678 24.0533
23.576 35.7324 70.3421
16.0302 20.2623 32.701
29.5896 31.7832 61.349
23.5651 22.5266 29.8929
4.65846 10.3026 23.5649
8.18062 8.01151 24.4535
16.3748 25.5663 44.287
26.7994 19.3835 29.7012
21.9204 37.7936 55.7269
8.22279 10.557 26.6898
11.8816 18.1745 25.5217
21.5527 26.4183 46.0307
15.8325 16.2355 20.5665
17.788 22.6283 30.6125
6.3251 11.8608 27.1357
8.21663 11.1393 14.9693
5.08941 9.50228 22.7537
13.4131 18.9026 32.1635
14.6737 16.9835 32.1475
24.0435 15.5479 27.8989
26.9148 27.4077 54.7783
24.7821 34.9635 61.1058
8.15405 21.3313 50.0588
12.3854 14.928 20.9205
6.94363 17.5245 38.0804
15.6573 14.2958 29.7834
15.9801 14.0626 31.9987
28.1329 47.5978 71.6368
22.1105 22.7809 58.3035
22.6038 23.9153 38.8199
14.8978 15.6206 29.3917
13.6192 23.3877 38.9782
9.40933 21.4822 41.0799
8.56009 16.1368 56.2467
25.7063 31.5831 57.2615
27.3421 31.9862 39.2055
15.5421 26.2559 52.6646
9.0234 34.7812 80.8874
31.8847 31.4069 44.6593
22.8823 56.1616 89.018
21.2214 26.5192 49.2358
8.60854 25.0554 83.7636
25.6944 23.3584 26.7068
8.35266 16.2817 29.2095
13.0656 9.82712 24.9865
22.6865 29.8421 59.6988
8.66284 6.30649 14.0661
8.46324 6.56494 14.47
11.6609 28.9407 52.6285
14.3409 31.5907 50.0283
7.89221 19.8306 51.0659
26.4808 49.0632 86.7854
18.8465 19.5438 35.057
13.0514 16.9625 39.5585
12.6031 39.5217 79.718
23.4249 34.2769 56.3263
17.2344 35.7322 66.2808
20.0832 17.6794 41.2946
27.7911 35.2576 48.8233
6.09374 7.94851 30.1336
18.9768 25.0317 47.0899
2.86223 16.9721 33.894
14.0945 22.9536 50.7615
19.1057 23.7843 46.1244
17.0911 20.3751 33.8474
6.38286 18.1755 50.2515
16.5072 19.3783 22.9251
5.70857 8.00663 14.9111
16.0794 25.2615 56.2277
13.9613 21.9122 48.1462
7.95157 19.6057 47.8237
17.7166 20.8391 26.8928
7.58143 15.7355 39.8653
10.9335 9.76009 15.6594
8.57839 6.96649 13.6573
7.4664 30.6444 72.7014
25.4525 22.4994 50.2733
16.9324 15.36 40.9919
17.7747 16.0469 25.3358
17.5754 17.3642 29.9663
8.30996 19.2465 37.5045
8.99257 14.4699 39.4316
11.8763 13.046 28.6998
8.69516 14.3923 21.6028
4.38034 8.63217 36.185
18.0336 37.9457 80.7698
28.514 19.1682 22.8952
7.6625 13.2869 45.704
28.561 52.9769 94.1043
9.7892 13.3241 28.6538
5.8316 12.9739 26.6277
7.51994 22.1762 45.3093
12.6327 17.8591 47.1118
21.9539 13.9696 19.6716
12.1705 13.6274 63.1826
21.4417 29.3721 27.5552
15.262 16.8583 30.0482
8.30013 15.6089 33.4567
13.6561 30.7666 65.4054
12.2235 12.7852 42.7845
11.7184 15.3337 36.2718
13.8558 18.9664 39.5725
15.2289 17.8884 33.8375
6.53469 6.25177 18.1041
11.993 15.9887 19.8681
4.21484 12.2922 43.6013
5.34516 28.275 60.2931
19.287 14.9328 26.8091
19.273 34.7892 65.0481
12.5845 19.2484 46.5237
14.4528 13.6944 21.7963
7.22449 7.75496 26.0422
13.7786 22.1376 46.8357
10.3295 12.5381 16.4772
3.62293 21.5399 60.9268
13.4976 8.8007 23.0807
9.75597 29.2878 76.6509
19.0486 23.9939 49.6163
13.8515 33.5949 57.1617
8.1749 18.76 30.093
10.9323 23.7692 82.4321
21.1006 15.649 37.9294
9.77552 23.2798 71.361
16.109 15.8827 19.3424
16.566 20.1642 42.5318
13.1757 18.4836 54.7806
12.8229 25.4117 37.3965
8.19924 16.8976 54.473
10.9217 20.1112 41.3883
9.27927 13.6651 35.3364
7.2081 14.9323 36.9296
3.93288 13.9168 57.4019
21.5695 30.6736 30.6386
9.29148 22.7088 49.7769
7.83392 9.19689 13.5421
7.02717 8.64259 20.0924
12.7136 28.4554 68.0568
8.46577 28.4402 76.5845
21.3808 28.2781 52.6321
14.1864 19.5951 36.706
7.93273 16.0948 44.1139
5.91421 11.3368 29.4898
5.13639 15.1407 28.2554
12.1828 25.4472 67.448
13.8804 23.7621 53.6457
10.4681 18.4788 50.1524
11.4026 7.86445 30.9202
10.8112 16.5624 34.6975
13.9895 21.0221 28.9931
6.34675 14.4715 46.272
8.0074 12.201 38.8035
7.88572 7.63061 26.7509
13.1977 26.6278 42.7861
11.883 22.7094 63.1468
7.31286 5.56396 26.1422
9.9509 17.6986 51.9403
15.9883 36.3938 52.4044
2.2978 13.2242 20.8866
7.41587 16.7412 50.6632
17.9502 37.1654 89.1006
17.8413 12.1476 28.1124
6.49013 13.8119 37.5757
7.66901 3.4833 9.61687
14.829 33.6394 60.0621
6.55193 12.5582 52.5008
16.5004 17.3309 38.0427
11.7903 13.5715 25.9117
7.8212 13.0302 29.2877
5.68321 3.84145 16.9967
5.00042 11.4954 37.0516
7.76882 6.38542 11.9402
6.10206 20.0994 56.3576
15.1746 18.6454 42.9384
12.7958 34.9192 68.8358
12.2096 11.2914 27.6945
9.45319 13.417 38.6081
