# pn-170911/CsIIA-24-PTBB-1280-1959.psd
# Power spectrum* (dif=0,1,2) (really just |FT|^2)
# NOTE: only the first half! (symmetric)
# weeks: 1280-1959
# 3 clock-days, 1 excluded
# PSD: 1441
76152.8 1.83304 0.0169719
2.27412e+06 31.029 0.00998667
1.69494e+07 332.376 0.0252694
1.1488e+06 41.21 0.0193648
330535 37.369 0.0109421
286452 44.922 0.0153227
220428 13.7568 0.0175748
609197 94.7648 0.0556178
174206 65.628 0.0210138
73914.1 16.1185 0.0158484
130873 26.4252 0.0175392
45815 33.4163 0.0291992
25131.6 27.9528 0.0411827
22138.3 26.7099 0.0190821
15289.1 6.91619 0.0100963
97902.8 109.243 0.12164
21414.8 31.3894 0.0772712
25788 53.5652 0.10273
13517.9 17.4317 0.0375978
37150 40.2797 0.0579539
30915.7 59.4658 0.179661
11451.3 26.4108 0.0743364
57560.5 78.8812 0.185807
13623.4 33.9022 0.138715
51080.9 100.782 0.345441
20498.5 71.8662 0.209551
41739.1 89.3796 0.292743
14843.6 27.8879 0.0956781
19632.5 35.3024 0.1149
17602.2 29.196 0.103564
10131.3 21.6187 0.0759128
9494.95 82.817 0.443851
14596.8 40.5602 0.174598
12006.5 38.4763 0.200171
17527 68.3417 0.398882
4893.73 28.21 0.241989
11415 59.5408 0.429045
16230.6 87.0668 0.492845
18021.2 100.24 0.669457
14754.4 79.6126 0.5875
8857.4 27.3806 0.234976
2249.52 14.7096 0.126397
10204.6 133.115 1.02923
8273.82 50.7933 0.381923
5266.35 21.2774 0.242375
5977.23 41.3621 0.373768
1645.92 13.7246 0.137479
8610.7 57.2147 0.638804
3970.21 57.4333 0.695908
9641.05 100.189 1.19266
9768.99 96.0022 1.36407
2737.37 8.44389 0.16147
7280.91 84.1775 0.977181
3158.97 69.5705 0.874648
3851.98 39.8363 0.61214
4342.54 67.9892 0.948782
1668.68 49.6659 0.717607
2980.55 57.5423 0.974141
1970.48 10.9094 0.119422
1492.7 16.7473 0.293352
4668.95 50.0497 0.854289
840.911 13.5723 0.235606
3714.48 37.0585 0.746293
3639.55 45.9553 0.898944
2872.54 30.3536 0.696544
1056.01 8.89309 0.117469
1118.36 23.1941 0.477838
3598.87 75.9559 1.91115
3644.09 45.6472 0.873495
1862.58 21.1908 0.560878
1780.79 22.1439 0.537177
1900.04 29.7947 0.845855
1518.5 49.0448 1.19005
655.031 7.11697 0.186473
2302.99 45.3849 1.26675
1202.86 23.7156 0.68072
2599.23 32.0861 0.973555
2473.98 50.4247 1.35902
1855.62 37.9197 0.913368
868.862 24.9881 0.669876
4249.02 69.7555 2.04161
2490.86 38.0303 1.09629
1575.86 21.8989 0.811205
1169.36 49.8338 1.34532
831.031 27.5998 0.955717
2241.88 59.7814 1.7361
2163.85 85.7778 2.81667
840.55 17.0145 0.674264
1366.92 35.9342 1.28333
1613.38 53.3104 2.17146
383.296 21.0109 0.814687
1577.65 28.7701 1.09119
1080.88 31.7601 1.10433
2419.48 128.407 5.29861
2423.19 66.1774 2.84332
1616.36 27.5241 1.07553
884.031 50.4433 2.0328
1732.89 89.4225 4.10551
1953.54 79.443 3.48142
1093.54 47.8036 2.40677
1547.21 34.7876 1.65554
1349.94 51.6934 2.24952
759.565 33.7479 1.49254
1406.1 97.1811 5.13733
1577.94 27.8189 1.34004
1714.24 93.6119 4.64713
684.994 54.7011 2.88893
2380.35 135.253 7.43243
1656.4 75.8451 4.29009
378.086 16.8187 0.925671
818.618 19.9398 1.13737
839.51 19.156 1.06074
678.953 19.4369 1.16957
718.964 46.8228 2.78982
270.287 50.3294 3.12281
727.961 71.1737 4.6256
3147.69 143.465 9.36373
220.328 32.1023 2.38867
693.069 33.0457 2.18294
340.234 14.0073 1.23417
538.083 19.8406 1.06448
563.395 51.1231 3.46455
625.958 10.3927 0.661243
1544.24 70.9541 5.11998
284.733 15.8534 0.941374
322.255 17.3034 1.31191
963.99 54.1609 3.85808
690.105 35.7447 2.75854
1259.58 50.3347 4.04652
516.921 49.0502 4.1632
861.651 76.6108 6.18392
1369.14 106.595 9.27913
1355.06 76.5299 6.41155
688.916 46.0411 3.80051
527.013 13.6805 0.894582
1063.51 51.3407 4.96468
642.389 73.5027 6.12442
551.807 63.8459 6.42488
1233.42 91.4873 8.03003
540.516 23.1109 1.86784
1214.26 54.0946 4.85849
724.429 36.402 3.33817
273.099 9.78071 0.708174
748.086 38.6022 3.71375
176.099 17.3041 2.07174
1022.37 50.6755 4.76098
753.162 42.9916 4.76918
615.795 36.1745 3.51123
385.06 21.739 2.60031
519.998 41.5142 5.0511
196.454 12.0072 0.85474
371.112 44.8957 4.1619
111.449 38.221 4.27786
504.597 48.9103 5.3238
412.508 37.2189 4.95403
183.819 45.2971 5.68283
697.509 73.5661 8.14111
850.393 83.2944 10.7758
788.148 64.155 7.39849
868.313 68.4261 6.90706
275.164 30.3028 4.33407
497.58 31.1154 4.28578
1303.14 95.2344 11.4276
327.547 40.2505 4.63633
464.349 14.8287 1.93759
1034.18 87.2202 11.0974
709.897 72.9404 8.57895
393.448 28.1601 3.83375
544.295 46.4449 5.56643
398.111 32.2625 4.28852
829.56 52.1311 6.43879
574.436 46.2912 6.54681
533.033 38.4037 6.38674
168.015 6.78702 1.34981
317.118 50.3093 6.91443
438.056 35.1875 5.70897
362.411 66.5045 8.34234
341.768 60.7052 9.98625
691.824 58.3802 8.07026
503.562 38.6112 6.23564
71.5412 27.8082 3.55439
176.35 13.4365 2.22208
522.152 57.0687 8.66346
480.98 31.5489 4.95338
274.584 39.8511 6.57486
561.653 63.6136 10.3596
118.362 15.058 1.89653
480.582 54.6134 9.27486
307.464 41.5253 8.0649
334.699 28.6895 4.01975
58.9786 10.9389 1.82263
538.861 93.7897 18.673
694.499 77.823 11.085
450.841 58.2619 12.434
435.868 57.9221 8.3963
442.384 64.295 10.7681
578.089 121.011 19.5026
302.229 49.1179 9.83936
427.727 34.0975 6.29649
204.907 48.5639 8.56065
519.261 56.3907 10.3649
212.256 48.3733 9.1579
122.661 16.7793 3.39815
378.296 44.8213 8.04179
615.33 93.2712 18.8511
84.8613 8.99194 2.21508
206.449 51.8262 10.0893
252.769 16.8735 3.60412
355.279 91.1338 19.2556
179.871 18.913 3.80413
214.132 34.7675 6.96544
251.909 56.782 10.3105
203.183 45.2215 9.41108
90.6664 20.4859 4.69111
491.284 66.4275 15.1816
204.247 19.1854 3.26422
141.215 11.4388 2.79931
85.914 14.7583 2.65109
72.1159 8.34037 1.2781
490.322 107.844 25.0198
134.006 19.7665 4.5853
493.463 64.802 16.4471
120.946 6.93366 1.12375
218.742 27.8462 6.15884
294.935 59.5242 12.664
291.823 44.8986 11.4077
308.63 45.9581 11.7777
131.592 54.3678 13.8374
150.327 23.303 5.40738
204.898 58.9899 16.9581
168.255 24.8214 3.55303
178.94 25.6328 5.86034
77.1782 20.8249 5.51244
228.479 29.2019 7.0777
141.506 12.7656 4.20637
218.502 86.5871 21.1702
286.737 44.2757 11.2233
123.054 32.0973 8.60951
535.676 113.664 29.028
177.341 36.282 9.46998
123.051 40.8606 11.5223
197.176 49.717 14.7096
266.673 41.8862 11.7174
168.679 74.3254 19.3365
165.629 50.1394 13.8744
169.94 29.1739 8.83094
133.312 19.7953 5.26459
338.323 86.9676 30.083
279.31 72.7488 20.071
107.105 41.9422 13.8282
258.238 64.1498 16.0373
159.49 40.6716 9.80588
73.8316 40.0859 12.0278
268.276 70.1191 25.1275
230.456 62.3838 17.071
115.819 16.111 4.37123
320.794 70.7056 20.6541
152.883 27.0261 7.66192
111.723 22.4569 8.59501
468.472 72.7912 17.3879
434.712 127.98 42.5094
214.685 75.5546 24.8404
243.216 60.6762 17.3352
78.2009 21.5371 8.2034
161.015 28.9651 8.41889
103.944 31.5448 9.35948
55.0658 16.0888 5.84269
9.10478 23.9909 7.72744
175.297 61.5645 19.0002
48.892 39.0981 15.4798
79.203 16.7097 6.23009
199.68 54.8901 19.5133
267.523 62.5148 21.6458
125.52 22.6992 8.87197
238.485 80.8261 26.703
284.166 33.8713 9.72788
91.4108 20.7819 7.05382
178.378 34.5624 12.3928
86.007 22.7191 9.91279
196.511 29.5159 8.64886
215.44 43.3734 16.9754
46.7686 18.4326 5.80462
106.77 41.0405 17.9841
506.327 115.019 43.4467
194.519 70.048 23.9857
128.574 78.0805 31.2258
243.374 46.0285 14.1895
96.4243 41.0852 18.2653
127.993 11.3557 2.55812
109.42 23.7324 8.94851
129.79 35.9901 13.2331
192.461 50.7533 21.8419
39.4819 13.7021 8.30004
118.356 55.4596 25.3254
223.223 38.7181 15.4024
166.322 50.3675 17.6853
137.04 37.1548 13.8785
85.8836 20.7757 8.7653
127.317 20.845 6.0537
60.3716 28.007 11.026
126.92 34.3472 13.5039
201.849 75.7017 35.5759
215.069 61.1891 20.8073
217.233 48.5593 14.6766
251.219 65.5926 28.9128
121.401 45.5118 21.4008
33.1896 30.8775 12.9818
90.1818 10.8167 6.79352
72.3114 52.3666 19.2712
93.1147 55.0756 27.3858
240.34 51.3026 22.0381
124.054 23.2247 8.59309
163.374 94.7308 40.1949
97.334 56.5584 24.1081
35.0502 19.8086 12.2309
126 22.5021 10.8991
93.4212 41.6539 18.1921
52.3286 4.21731 1.93767
124.04 38.3353 20.1422
177.932 59.4758 25.5554
34.7949 19.1872 9.76192
63.332 33.2706 14.1597
19.7507 3.29046 2.99227
20.6593 17.6608 13.0307
137.957 22.4699 8.7078
105.808 13.9164 7.41388
215.603 57.3875 24.3621
103.974 25.7419 14.0535
119.381 23.5197 13.8815
117.44 37.5232 12.0814
153.927 80.9351 40.5255
124.624 74.6343 40.15
108.703 40.0569 22.9193
165.627 31.853 12.1792
64.656 14.8133 6.53178
237.732 64.6541 32.0237
158.732 76.2141 47.2819
191.625 82.2955 36.5411
139.78 62.1418 29.5123
17.6268 15.5763 6.00079
23.5315 39.9261 25.0831
59.8358 9.68053 7.19974
154.81 44.9608 20.8918
193.519 64.5936 33.8307
166.888 43.4977 25.8593
72.1184 38.5496 23.0232
125.138 45.5514 16.818
207.305 100.169 62.9776
46.2632 23.2362 22.1183
64.9377 33.0937 13.8632
91.843 38.537 12.644
95.4622 27.6526 12.8512
101.41 46.0117 21.7832
161.209 91.6116 47.6195
76.9801 21.0796 11.7671
42.6721 27.9416 18.1477
61.0102 19.0077 9.91868
147.654 43.4835 20.2428
110.515 46.8617 30.7227
113.77 35.6768 27.8958
44.948 45.4175 27.121
103.405 41.2597 28.2888
27.9047 13.3155 9.20566
64.3644 16.0849 12.6456
75.0266 26.7764 13.9119
42.0413 12.7394 9.35456
70.4293 27.3732 17.9567
78.1921 22.4933 9.10586
68.4986 24.2693 14.3616
35.5578 11.2255 10.2377
59.3355 26.0359 13.282
44.1737 8.0723 5.42513
150.353 69.9941 42.6069
134.175 67.7039 57.3833
92.0372 32.7976 11.9277
68.3459 21.4729 18.2657
32.0918 13.5125 14.6134
63.2398 35.0636 15.6347
31.0327 23.0743 20.0592
66.4763 21.2272 17.6364
143.059 43.8226 16.6087
124.77 46.8882 31.1519
41.6172 49.9319 30.888
215.133 122.354 76.6822
68.5625 35.7708 27.5965
123.81 33.2971 19.2813
12.9306 13.8386 12.0039
75.4364 11.5102 6.30492
110.119 33.4128 23.7253
38.3837 21.8009 12.899
50.4633 25.8935 20.0012
65.7051 24.964 17.1571
95.0042 34.7994 20.9516
60.3741 37.7384 30.0024
102.872 62.4121 35.0235
82.0119 42.0475 27.6312
47.2467 20.6833 15.1245
64.418 28.915 22.312
50.9473 17.2279 7.95716
102.122 49.1456 34.1391
27.9647 46.4209 44.3946
135.873 53.714 38.5958
73.3393 36.2882 23.7823
74.6377 22.7958 15.5424
73.4427 26.8491 17.0418
80.5875 39.884 36.7123
42.1418 9.23953 7.82362
67.2809 22.7386 16.6117
92.919 48.1895 27.4177
39.6492 16.3181 11.8616
87.6835 35.0466 26.4222
67.7454 29.2854 26.0768
55.5065 23.5473 28.803
20.6464 14.4297 14.9416
69.2805 46.4287 32.5224
36.0123 19.5473 10.5529
48.3143 43.6835 32.1004
47.6966 34.5659 24.8673
38.1912 24.8585 23.7347
32.4459 15.0744 5.67425
52.0962 72.9741 57.8686
59.6294 22.1443 20.4625
86.1845 55.2764 46.1895
100.606 39.3646 23.9287
10.0476 18.627 14.9165
55.8523 30.6542 23.1235
24.9681 14.8819 13.4262
102.006 61.9605 47.0591
31.4946 33.1509 24.0182
39.8974 12.5113 10.6086
65.0143 37.4053 32.3204
21.3933 9.83065 13.7011
47.993 45.3698 39.2591
21.8587 33.3084 23.4365
25.3826 24.7605 29.226
93.5823 82.56 64.0891
64.4493 11.9765 10.3338
57.7562 25.6814 14.2296
24.1145 15.0665 13.5073
25.0976 55.7776 45.6212
51.1028 25.0128 15.7253
29.8893 68.5502 59.2623
50.2317 21.0164 20.3172
33.9081 45.1514 45.9515
58.9185 24.3323 20.8883
63.0732 31.0777 28.4856
90.6118 69.4564 60.9519
109.389 83.6952 78.7894
106.159 28.709 20.9794
19.14 9.06233 13.6285
60.4312 24.3488 25.6758
103.989 71.4219 50.5552
53.116 23.1271 19.8258
28.8145 22.3588 27.5239
44.621 36.7 19.5976
11.147 48.9068 65.7586
130.612 41.2379 23.4332
84.3663 33.6845 26.7199
25.859 22.4692 23.5202
92.4079 49.0258 40.7372
27.3493 21.4785 32.1231
47.0158 12.1908 6.0931
48.4854 28.706 36.3622
79.5203 34.5497 19.7033
31.7283 28.5583 27.468
23.033 24.0203 26.1083
67.6607 29.4973 23.1774
11.2767 8.39749 9.46373
63.9172 27.0314 25.9868
24.9192 21.8231 27.3655
71.0816 44.4056 37.4228
13.6568 3.37836 2.94917
27.8162 11.4672 13.886
54.2281 39.6102 38.0428
50.6563 14.6037 6.80152
58.8872 23.3538 14.2016
52.5028 24.3811 20.5124
10.7997 8.72301 7.34707
42.8277 24.8642 31.3783
62.6073 38.6967 30.3103
31.65 24.8097 23.2099
25.3772 36.033 34.1815
49.9748 28.2701 42.2088
44.3329 41.1014 32.0321
34.097 25.6825 20.5671
22.2819 6.94221 5.2242
36.6674 53.1797 61.3959
34.8781 25.3454 45.333
91.5941 51.2375 34.8943
29.78 28.847 26.931
46.1336 28.0044 34.1127
43.5356 37.4106 38.3578
26.0128 25.4727 35.1735
59.8833 26.9228 31.1955
39.4216 31.9703 25.4047
17.4759 31.5837 33.509
39.4769 20.0004 24.389
68.73 55.4044 45.4806
11.1376 10.5535 17.3508
71.6566 45.8997 64.4394
49.8081 35.2274 26.4147
5.72438 13.0494 17.3561
38.8732 23.3849 29.3099
29.87 15.1421 11.1491
30.7462 8.96515 7.15209
47.446 28.3408 30.6386
22.3621 15.9131 21.2715
27.5043 39.0505 43.2057
49.5059 14.8152 11.2255
47.071 30.679 31.7871
23.5164 10.1666 17.06
31.9691 35.534 31.5521
16.0795 10.5032 7.83811
5.2316 23.4495 32.811
39.4948 30.4429 39.049
33.7861 22.9555 22.3546
33.8523 8.98668 10.5009
20.3538 16.1709 19.4159
36.6721 15.689 19.0173
18.2665 14.2602 24.5048
37.9176 12.8091 19.4904
49.1103 14.1496 14.4344
38.2834 27.103 29.6196
85.8165 53.0968 43.9433
41.7772 25.1841 35.5904
6.98451 3.61955 8.44823
45.5119 19.3471 16.5034
19.8959 14.4025 19.2492
41.4175 22.8718 28.7274
21.8176 16.3015 15.8477
49.5873 23.5694 31.3748
85.3536 48.8965 49.438
24.2607 18.7423 24.7473
14.6947 6.36346 15.4948
10.7022 5.55419 17.48
18.2909 26.3251 16.5224
13.5864 54.7092 67.4777
27.3606 11.7772 24.1848
48.8413 15.7032 17.3495
28.6017 22.3769 39.7196
57.1932 28.3651 22.5132
25.3831 17.6838 15.5203
54.3797 29.247 36.188
34.8462 31.9678 26.0756
45.1155 65.4555 100.243
32.8665 18.7284 24.7229
18.4895 33.0633 38.5347
47.9619 24.9984 31.7253
25.9076 23.6495 34.0911
28.3812 17.7981 19.2142
28.5075 16.956 28.5414
29.7958 7.67038 15.8501
51.4017 24.4169 25.7183
19.6228 24.585 28.5313
19.9278 15.9269 18.2893
30.3902 19.1488 21.1974
15.9466 10.3114 29.997
65.5564 25.0302 18.8822
45.5956 49.8755 59.2188
44.1564 22.4717 19.3857
29.7068 15.2306 21.1124
43.0897 14.4121 15.8794
33.9191 18.426 25.849
18.2972 3.566 11.4344
31.8828 24.7815 37.0892
48.0604 25.905 25.2077
22.4887 12.2457 7.63429
55.8079 63.4396 81.107
60.7733 34.8435 43.5024
28.4356 31.0104 37.9928
54.4765 38.3717 48.0159
42.1168 40.8693 91.4553
25.3255 36.8911 35.265
31.372 13.6266 16.5774
35.3905 25.9745 39.8787
31.4975 47.1213 90.6345
23.0234 34.9427 49.9617
58.8892 28.2429 25.9558
46.9629 61.405 85.9135
3.44495 12.129 19.1176
23.8338 15.1592 15.6949
9.60526 2.21826 8.11635
26.9599 44.3239 53.6082
55.1893 30.7679 32.7206
35.6254 33.485 53.0247
18.2309 27.1558 43.373
25.7455 15.1435 35.3304
29.2576 22.8889 33.0987
28.9894 47.7305 86.6067
23.2173 44.8701 36.9072
6.63747 16.7273 30.3598
34.5482 13.6931 21.5709
24.5959 19.2434 30.8305
11.462 23.9601 22.898
12.3629 14.2426 22.6993
23.1189 3.26416 4.19211
28.0345 19.7803 35.2977
18.8811 34.1832 61.2289
28.087 35.7743 48.3056
31.3054 21.2083 41.5991
38.4997 40.4774 34.888
10.9439 36.7859 58.7697
12.2434 6.16383 9.38226
20.2328 8.40581 7.39928
12.2938 8.41624 7.28768
12.9871 12.4475 24.666
11.7177 6.44125 27.2999
62.0161 44.8507 39.6035
42.7863 41.3479 81.0498
41.7866 41.5895 65.4865
12.3034 8.3791 9.73016
25.8225 25.629 29.1059
20.9724 11.1326 13.7453
28.7394 22.5119 32.5686
7.63356 7.10785 29.9001
33.7373 24.1451 40.8045
7.3099 35.6891 49.0178
48.7856 46.0352 79.3339
26.3135 16.8968 16.7206
22.7475 28.114 36.2008
11.1686 7.31118 24.3206
36.7177 30.3289 44.1869
22.3634 21.887 46.7387
13.0175 18.6389 29.4062
37.2734 36.4882 60.5266
6.93886 10.6748 13.8525
5.82867 19.4661 38.2791
8.08258 17.6048 21.1022
25.9521 17.1671 12.8962
8.15064 3.77823 3.58027
30.1778 41.0299 61.9283
6.77341 7.79089 28.38
7.39496 21.2622 33.3962
18.8921 8.51958 15.834
11.8554 15.2293 29.1671
16.0107 21.3207 13.7857
10.8847 42.1805 65.9658
23.7879 35.0915 64.1921
30.5473 15.4955 18.4471
13.0172 24.1252 48.1093
15.3949 13.3198 23.0229
16.7998 7.96018 9.54442
16.6678 10.3535 9.42362
8.85787 15.3191 27.1357
17.4133 9.27547 14.9427
27.7126 40.6035 73.2373
11.7756 16.6234 25.6532
34.3093 41.1242 66.9154
6.2172 8.74336 26.305
27.9966 24.251 45.8141
22.0779 39.7786 60.1993
16.6826 15.1644 30.821
31.909 17.9078 25.4242
14.6697 16.9266 24.1621
26.4195 32.7029 60.4411
16.0491 14.3676 32.9979
59.8286 70.0614 109.939
9.3189 9.88978 10.8564
8.69553 6.0084 22.4371
23.3187 14.5607 21.8426
11.5435 17.5513 31.7379
10.037 11.9371 20.9968
33.6396 17.7809 27.818
10.1123 8.19077 16.4625
6.59166 14.5692 23.7786
24.4846 20.9975 26.545
5.98711 21.8792 42.9628
16.1982 9.36574 13.9426
22.4049 15.4289 31.2158
17.0037 19.6528 33.5645
14.243 25.2887 32.8137
27.6726 26.4044 49.1126
17.7477 21.2515 65.2193
5.1266 3.00094 27.2489
15.9822 24.6392 19.8675
3.94112 31.7281 81.4944
35.6909 40.904 60.6409
17.457 8.0474 37.8351
60.0759 44.2732 33.4966
21.3492 30.6726 59.041
6.93765 17.019 35.9066
18.4605 11.4742 22.7423
8.24417 10.5918 15.9982
8.17771 6.35889 15.3354
26.0394 20.0537 35.3121
6.54694 6.72666 8.34197
4.85925 20.4341 41.7662
17.5153 19.9885 30.6915
22.2724 13.078 21.6906
8.30598 9.77599 37.8806
17.1627 27.0692 37.7899
16.7171 4.04954 8.00899
28.6832 24.9164 48.0142
10.1999 3.36096 5.94382
16.3186 7.57805 19.1209
3.83454 2.48509 3.1211
3.70796 8.84239 15.4239
11.4546 4.76329 8.98493
19.4386 11.4464 20.1168
7.408 9.13292 21.2212
14.4131 23.214 51.6568
30.4535 29.3534 54.1371
26.618 10.4596 8.29289
19.8007 18.3757 37.7693
26.7235 27.0537 40.0879
10.937 3.66514 7.46714
9.88328 17.1019 62.4976
27.1911 18.2389 23.6115
25.1375 28.5901 43.3686
27.928 26.8021 40.916
20.339 20.8851 40.7645
10.9415 4.86818 20.3466
12.8736 17.2823 32.8149
7.55719 3.69974 19.8055
6.10949 33.3042 61.6966
5.88944 6.27592 29.0077
26.1912 9.1302 18.3849
19.5698 20.7653 31.1864
3.26803 15.6188 39.33
31.4404 28.7745 47.2395
10.8117 11.6197 26.2033
11.1321 4.55902 10.839
11.8199 5.70711 14.6265
8.60757 12.3411 14.2352
23.2818 40.0938 108.604
9.25986 3.4076 9.98127
8.93391 26.5 38.1378
9.98635 9.91084 10.2737
9.49311 10.6144 38.6225
6.89691 20.4703 22.2525
6.91211 10.4979 28.7976
14.7663 5.07839 16.5195
15.3832 11.855 14.6816
24.8951 24.4883 52.4479
13.6706 10.8184 8.93532
12.2986 12.9409 31.5093
5.9467 5.29385 16.8028
12.1733 12.2935 18.0307
12.2667 7.48066 25.6363
14.9705 18.49 33.0924
10.672 19.6173 29.4497
12.6671 20.7661 76.7986
14.2015 19.5759 17.5491
9.69342 7.68311 12.183
3.63011 17.6791 35.1932
10.0908 5.26555 7.763
5.42943 4.68895 14.5067
12.2097 9.27215 30.7284
11.7549 17.649 22.64
5.39044 10.4025 55.2663
36.2906 19.52 17.9646
12.4938 6.05711 18.0972
6.55815 7.61355 13.5033
14.0661 12.5061 29.1263
13.5599 7.07709 17.6948
19.5359 18.6028 35.2455
15.5395 18.8092 50.2214
18.9751 11.1132 12.0208
6.38579 10.8086 39.7306
26.0485 9.27472 6.4583
13.4591 9.76732 14.4109
12.5702 5.89038 18.3873
18.6644 30.7555 59.56
4.23504 6.9737 14.8938
11.3481 7.15725 13.3318
4.97153 13.2372 38.4791
12.7963 4.84054 7.10219
4.22284 6.32946 31.4357
23.5759 26.2661 43.6886
14.5269 18.4502 35.4949
10.0022 13.7462 22.9561
15.5548 16.3969 54.2852
18.4767 26.3384 34.9724
13.5459 13.595 31.8656
14.1902 8.22704 21.1254
7.68409 8.16521 42.356
8.37032 10.7149 12.7533
6.07129 28.8674 96.0489
35.3006 38.5882 57.169
7.62569 12.1907 26.2849
12.2036 1.68922 9.08383
9.41732 7.41701 5.67548
8.34571 12.5727 29.9565
11.3423 9.35956 18.1117
9.28079 11.2195 38.2298
6.3861 29.1093 58.9541
10.1372 5.5335 23.5603
17.456 11.0877 36.6799
9.48868 6.93104 18.615
18.484 10.7126 10.1155
8.31925 4.89778 8.275
7.96559 14.8375 52.6358
8.66251 14.3873 21.1757
4.53943 18.3148 64.1461
11.2595 10.2846 16.8228
12.0081 13.4186 20.3941
21.7056 21.5107 27.4931
13.828 26.3118 66.7363
16.9274 18.7978 24.264
8.1431 7.11875 11.2103
10.73 19.457 70.3509
15.3824 6.52084 11.9023
14.6508 7.3733 15.5366
10.6289 20.4815 31.2509
13.6298 25.168 67.5596
14.6537 7.73262 27.6248
22.3383 24.3416 44.0986
9.55107 9.84387 28.3642
1.85442 4.71715 22.8581
12.1286 7.03574 11.4985
7.91369 7.1138 11.5356
5.57433 8.84498 38.2321
26.2757 23.0976 27.9827
6.67585 9.7072 24.4944
12.2783 11.6529 41.1114
5.82574 7.65334 15.6382
8.99871 4.25279 12.4785
6.7742 13.2357 44.7372
6.26959 8.02609 11.677
8.5287 9.60707 29.3493
15.7303 9.80637 20.3875
4.8152 3.00841 9.71366
5.03023 13.2534 35.977
10.1722 28.9381 79.1118
9.87777 5.15231 9.83782
6.94136 6.21577 28.4435
10.9461 20.9057 38.9084
10.8052 10.0019 22.7281
7.28181 3.36823 16.4995
2.53798 7.63173 45.253
20.0057 16.809 8.33933
5.93002 17.0262 37.7822
20.1043 17.7666 36.9863
