# pn-170911/CsIIA-38-PTBB-1280-1959.psd
# Power spectrum* (dif=0,1,2) (really just |FT|^2)
# NOTE: only the first half! (symmetric)
# weeks: 1280-1959
# 6 clock-days, 2 excluded
# PSD: 1441
46146 4.25689 0.0610756
1.89832e+06 41.877 0.0163238
1.51399e+07 286.07 0.0345311
2.23426e+06 70.6568 0.0228146
1.38499e+06 96.2873 0.0169001
683642 46.7896 0.0333188
432773 62.6089 0.0322501
396704 70.8583 0.0155258
337102 93.7825 0.0430038
222691 41.0919 0.0196068
194055 60.7893 0.0428245
64151.2 36.2215 0.0471476
109512 54.6003 0.0571243
110111 63.391 0.0487291
29973.2 16.3831 0.0501427
136152 79.9221 0.0760714
26677.9 17.8426 0.0406536
43912.9 28.8847 0.0634407
64181.7 51.3358 0.0825834
48661.9 52.3134 0.121999
15595.3 8.66342 0.0313521
15286.4 38.9692 0.105065
46507.1 68.0095 0.191312
20916.6 49.0617 0.168116
19193.7 33.3887 0.0963082
26152 68.6595 0.248401
8373.51 22.2072 0.0929557
21235.9 60.5668 0.257629
26289.1 63.658 0.279188
29124.1 85.4056 0.296368
22265.6 64.4346 0.288864
16677.8 66.4458 0.349915
17105.4 61.2391 0.307893
9346.21 45.0484 0.216061
13308.5 78.3378 0.50341
10303.3 48.7762 0.357661
19604.2 108.268 0.679149
12311.9 40.4547 0.270893
19523.6 89.896 0.672818
16354.8 75.4484 0.567019
11165.2 68.2647 0.579972
8293.65 76.0467 0.735288
6599.29 38.5738 0.404843
4756.77 27.1787 0.260632
10690.4 61.7552 0.671634
6727.42 32.6869 0.301892
7852.01 107.026 1.22353
4715.78 41.8988 0.468156
9439.64 105.555 1.15977
7166.71 38.9528 0.47046
2486.67 37.0319 0.490436
2458.65 50.585 0.598574
3124.86 21.3335 0.310918
2649.07 36.9718 0.51587
5319.09 76.7063 1.1649
7395.64 66.4938 1.04253
6279.49 99.1834 1.32593
4368.13 44.2184 0.650056
11242.2 109.967 1.67684
5204.56 75.3036 1.24385
2524.81 48.7568 0.879703
1787.1 32.4572 0.635874
4546.84 71.7887 1.46479
2826.13 27.7571 0.528331
5033.42 77.8018 1.58591
3459 68.0979 1.36066
4036.99 55.7966 1.192
3786.57 56.411 1.30176
1361.79 37.2737 0.816056
3001.4 35.7924 0.840205
2296.14 61.4562 1.35526
3865.4 105.437 2.60219
5413.15 70.2045 1.70804
2987.44 66.9822 1.6438
4011.12 58.2601 1.53074
2657.24 41.3077 1.1634
2714.64 72.9338 2.07726
2217.07 51.8889 1.61635
4945.16 82.3689 2.52093
1765.79 36.478 1.23644
3038.17 67.623 2.25037
1759.72 52.511 1.84153
2770.56 49.5482 1.55157
1349.3 41.5163 1.49122
930.601 26.3935 1.05529
3856.96 100.514 3.05444
2399.21 81.2207 2.52727
1684.27 65.9751 2.12762
2250.91 91.0293 3.34745
1598.64 30.5895 1.20699
3810.84 100.088 3.84433
4256.1 131.606 5.01219
867.489 37.0248 1.54041
2189.05 71.0279 2.84732
2074.89 67.4714 2.7177
1156.83 20.8845 0.839911
1132.42 68.5703 2.95453
1604.57 53.7387 2.37364
794.96 50.1575 2.4205
1975.58 61.3318 2.80142
1536.7 74.3978 3.55425
1885.15 59.289 2.74654
1134.61 47.2478 2.52828
1946.47 58.3935 3.15718
1639.41 62.4576 3.12419
1448.58 55.9884 3.34984
1098.39 47.3518 2.29749
1485.14 76.1173 4.23767
623.916 26.2906 1.93906
1361.5 56.2194 3.18936
1420.4 64.7936 3.50904
875.105 52.0433 2.98556
956.445 67.0352 3.83645
1414.56 84.5716 5.04458
1870.6 85.0247 5.28027
1225.38 64.8907 4.26017
981.886 45.6326 2.9904
1054.26 57.4456 3.67899
624.902 28.8594 1.97824
2694.45 163.296 10.459
897.092 54.5507 3.94374
848.233 56.4488 3.97184
2299.81 109.985 7.96778
791.69 33.5789 2.53596
811.51 50.1494 3.65878
1257.62 59.6656 4.24497
351.112 29.0901 1.9338
372.47 23.8399 1.92663
1006.5 59.8158 5.43432
1719.86 74.3504 5.62698
770.654 37.3424 3.20063
843.515 36.1863 2.63256
2137.17 115.801 9.57229
779.533 61.1837 4.84609
931.141 69.668 5.73264
569.088 36.8736 3.26363
700.158 52.4752 4.73608
679.459 70.8829 6.51428
1116.24 58.1179 4.82616
683.581 79.9399 7.5614
669.854 55.1173 5.34967
580.124 36.6396 3.54721
1009.93 74.2845 6.81983
496.321 41.0555 4.15274
1277.83 88.8851 8.22218
641.332 46.5049 4.46576
475.443 34.5148 3.85404
789.78 61.7141 5.57069
525.24 33.3905 3.39683
358.23 51.8524 5.78747
689.213 42.7983 4.33535
1426.1 130.099 14.1851
287.944 42.0601 4.74105
397.806 31.0008 3.48098
311.785 25.5548 2.98936
772.074 56.1534 7.00077
1286.1 77.046 7.92798
1016.87 90.3785 10.6379
376.337 48.4531 6.29688
929.385 83.888 9.56082
488.478 45.0572 5.3817
624.169 61.8021 7.23904
343.637 59.6522 7.75889
388.419 32.3715 4.47954
950.586 64.7473 7.78633
532.066 39.3903 5.70498
587.342 64.4624 8.1732
487.274 48.8518 5.93709
641.321 109.19 13.4548
517.513 45.3137 5.85707
596.257 50.5539 7.19457
677.87 81.9548 11.2221
301.773 48.5198 6.89826
516.746 54.8814 7.25336
815.301 59.7605 7.99458
666.776 63.5238 10.0063
353.175 44.338 6.5176
282.284 38.4224 5.7374
620.593 67.0624 9.79039
263.771 53.8337 9.5047
527.667 43.3101 6.33864
175.903 18.9514 2.90416
262.3 57.2333 8.62555
505.348 52.5839 7.25825
278.878 39.9817 6.96706
317.218 20.774 3.14201
546.533 66.7913 10.1507
426.223 70.3779 11.5346
540.328 81.7511 13.039
437.256 99.0359 17.481
493.167 60.7923 10.5523
462.733 71.3115 12.332
113.703 7.28103 1.67808
497.452 38.7971 6.58707
190.533 29.8672 5.89383
311.082 23.0217 3.41279
424.692 34.5542 6.59501
483.456 89.3323 15.9753
847.049 82.3692 15.7561
432.34 97.0051 17.7761
410.704 49.6818 8.88751
217.821 57.5008 11.1463
440.219 58.3443 10.316
564.453 92.6232 18.897
495.657 72.6287 14.0019
322.308 36.7071 7.58006
541.353 77.4577 16.4177
497.309 71.9268 12.9238
476.885 95.0141 19.9599
543.234 78.2666 16.9722
224.135 35.64 6.8641
117.929 21.5169 4.93167
353.007 40.3252 9.11074
648.659 112.383 22.6954
263.87 64.7969 14.4259
322.146 37.4215 8.64849
515.289 59.1527 11.4209
605.304 114.182 25.5501
199.726 28.6855 7.76778
626.957 113.847 22.7708
286.048 52.5788 13.6358
306.954 63.0193 15.7499
275.052 39.9969 8.24386
591.976 102.671 22.6153
361.997 57.2283 16.2455
267.016 60.446 11.3642
283.709 48.7871 11.1638
145.946 50.6784 12.1643
193.976 24.0739 7.14143
187.069 27.7961 6.97826
438.645 112.7 26.122
464.488 78.063 20.804
229.288 45.2006 12.7949
237.382 34.6651 8.84966
448.531 96.1071 22.2512
284.386 47.2429 11.8688
294.898 59.032 15.351
192.274 24.4331 7.93853
226.17 39.2551 8.41159
298.672 48.2666 12.8884
418.198 83.9181 23.07
192.765 32.85 8.00663
344.754 57.5218 16.1655
241.797 38.9173 11.3855
357.722 61.0036 14.7513
199.543 39.8464 10.9293
172.763 44.3389 11.1942
216.794 87.9001 24.2049
141.383 42.5022 12.0144
244.836 88.1343 27.3056
354.893 69.6183 17.7642
294.28 71.5785 24.3393
188.68 21.1165 4.74536
307.569 83.3102 21.5369
377.739 80.8903 24.755
315.068 69.3761 21.5068
204.907 34.2485 8.73603
242.313 41.1433 13.6958
72.8554 47.5792 14.7723
205.693 26.6821 8.64071
361.993 85.5601 26.237
71.1238 15.3587 5.41624
241.246 78.37 23.5552
251.125 55.5078 18.6055
199.891 36.9345 11.9216
157.797 25.9584 7.6563
266.489 80.8157 25.8818
318.754 64.2539 20.1865
206.869 33.64 11.8706
257.565 80.6367 30.0471
152.575 43.5207 15.5572
253.224 66.1091 25.0801
273.63 45.2031 13.7956
192.235 59.3657 18.3274
163.455 37.6201 14.0437
112.61 24.1703 8.44056
278.109 82.2009 26.9104
260.578 70.7501 26.7501
162.414 42.3085 16.5078
158.709 24.3936 9.61603
228.532 54.9905 18.8205
124.747 25.9242 9.60696
95.1374 22.5935 8.87939
380.685 133.356 52.2158
191.874 63.7277 20.6547
247.129 65.3761 19.3021
220.969 48.4877 18.4187
172.115 48.6795 17.3548
164.207 41.6772 15.7875
386.911 88.2113 32.2962
65.5294 13.6512 6.30645
164.962 65.4079 28.6492
186.003 48.5575 18.7691
159.288 49.2433 17.5274
158.968 33.0571 15.3229
109.117 25.1833 11.9285
65.663 22.4552 7.3273
69.837 37.4882 14.0638
168.021 89.9546 36.1532
271.914 85.7965 36.5192
114.617 31.5091 10.3569
159.68 62.2091 25.9506
142.41 56.0376 22.4738
184.855 62.8724 26.9528
114.85 57.8281 27.3419
129.338 45.0822 14.2796
110.315 54.493 23.5718
140.279 65.3446 29.3131
188.241 72.5592 38.2627
202.97 67.1847 29.0225
282.731 76.0628 31.6445
167.881 59.3654 23.5806
89.4283 58.1023 28.7181
179.337 66.4615 33.1488
226.837 46.7995 19.8436
117.94 37.2253 18.0976
46.7206 22.5244 10.1414
175.181 54.3264 21.7523
159.67 67.7989 31.3335
226.064 72.813 35.6766
86.6572 22.0531 8.71133
49.6781 9.94458 6.18687
137.133 24.9098 10.1879
121.718 41.4845 18.5767
190.195 68.1887 32.4145
136.23 47.2009 29.9232
159.586 51.3672 22.9719
146.233 95.327 47.4528
102.231 37.4002 17.2195
125.666 52.9517 23.655
83.0266 25.031 14.2157
167.854 45.9778 19.1978
94.0577 47.1917 22.3946
93.8103 66.9165 32.6411
67.6749 19.5839 14.0827
80.5987 29.5455 14.2288
157.559 48.8566 23.5419
158.248 45.9504 22.3575
71.4457 33.8289 14.1537
101.06 50.9893 25.1607
91.7627 20.456 14.8755
78.9214 35.5799 15.9711
146.963 84.3903 39.8735
98.6141 62.897 32.584
139.774 56.7541 35.9526
81.9248 49.3779 29.5595
128.297 41.0609 24.569
103.734 25.8644 12.8007
70.2428 44.5305 30.0321
78.9285 35.2619 29.6092
167.291 51.6516 22.5884
163.856 55.8237 27.9429
91.9852 28.3555 16.1143
143.716 60.4349 33.0112
78.5762 37.6634 21.4322
80.3216 22.5645 11.1686
88.5058 28.0532 22.2035
142.059 92.5142 52.0119
123.394 59.9319 33.632
67.9913 29.9639 18.9558
122.772 56.3956 31.0345
139.421 81.8827 49.3239
172.071 64.9385 37.3114
69.6962 34.9927 20.8168
73.793 38.6901 33.8589
70.4077 43.1988 26.7952
126.057 50.953 29.8854
136.021 48.1157 37.2755
60.4708 46.2459 29.2669
122.791 38.3635 17.8292
23.6 21.7697 9.3744
68.1935 30.0071 17.2139
88.833 30.1703 15.1968
42.1622 36.3295 25.6467
161.087 89.476 54.8234
77.9918 40.5688 21.8992
34.0532 11.7036 10.0523
121.385 36.5389 19.359
102.287 46.4546 33.5861
116.554 79.2433 63.0933
136.862 54.7037 29.3704
158.649 95.2624 49.489
49.8621 44.4984 33.7322
104.385 45.2671 28.488
42.7606 24.9252 20.4654
96.6809 33.0208 22.3754
160.719 80.81 50.6899
100.193 62.3607 41.039
106.817 60.9527 36.5155
24.8014 22.6181 23.0112
164.432 62.4192 34.9681
84.2063 40.045 27.8132
86.8871 26.371 16.0464
71.3054 41.3704 32.1543
71.2112 35.2686 28.4608
111.797 44.2389 23.8496
91.3559 43.4268 32.995
61.4144 38.7403 26.5333
60.2649 27.2439 18.1391
55.9279 41.7389 32.9089
73.3816 27.6077 17.3825
45.973 27.5703 20.8452
111.352 39.7678 26.7929
57.8489 35.901 30.1776
85.4133 45.2112 31.7219
98.1577 29.8823 19.8167
65.6586 27.6505 20.7745
109.188 73.5832 62.5838
104.111 43.1791 28.4663
62.3441 51.8497 42.7563
123.24 60.4533 50.3519
82.9578 48.4407 34.9885
141.677 60.8428 48.9411
47.6326 16.2888 16.9357
107.289 36.3688 17.5817
57.6445 15.4664 14.2277
66.9644 35.171 20.9372
116.052 47.4303 28.8558
65.371 33.796 24.8131
96.8094 59.3422 51.6301
130.587 67.6143 42.6322
78.6209 59.3773 50.2092
43.1322 23.1164 13.2337
72.7228 39.9548 28.0538
77.5851 63.6304 64.9609
57.4309 39.7089 39.3184
80.7868 77.6948 59.7546
126.641 58.6741 45.5295
61.7694 25.1719 21.9999
52.817 40.6688 29.1354
93.1723 40.6121 31.2255
50.9945 38.126 29.2933
64.555 37.6456 31.4529
58.683 37.3186 40.8325
75.3105 41.2812 32.1499
118.77 69.048 63.151
75.9256 30.885 35.5007
150.167 76.2076 42.4443
37.7174 24.8154 25.8146
80.5675 69.0404 60.2548
129.5 71.489 56.9852
123.712 68.2866 62.9126
77.5486 39.3831 28.3377
120.696 62.1258 43.4044
39.2196 26.9348 25.0632
54.2882 16.7934 19.0689
74.8985 47.9863 47.7949
25.5786 13.9092 22.7486
66.7818 50.2932 39.246
56.9555 57.7307 47.3407
90.7534 43.8373 30.7178
55.1544 29.9534 27.0031
37.1554 20.5338 23.0456
77.1875 42.3115 33.3765
56.7288 37.8138 30.8464
77.0685 47.026 43.7595
38.8536 24.1687 19.7086
54.8492 25.7269 26.9291
55.8931 38.7912 36.0533
73.9427 50.1524 38.8186
84.1531 40.7778 30.4188
28.8481 18.9192 21.5997
48.5498 28.9426 30.7472
45.313 43.3709 37.1433
16.7141 24.916 28.3488
37.7615 19.0093 27.4162
82.9881 23.473 17.0969
45.5307 23.6835 34.2643
136.626 77.6317 61.3388
21.0092 33.9168 36.5685
52.069 36.174 44.7547
73.9168 31.3418 23.791
110.993 80.7829 76.7622
14.5546 34.8234 50.1044
134.18 58.1681 42.9249
85.257 51.5967 56.3413
58.7774 31.8823 34.0885
25.0972 20.402 16.6827
47.1348 33.7789 27.0891
43.5799 32.0647 30.074
43.8885 53.0195 55.5455
83.7281 46.8068 41.4131
59.1032 32.8856 35.0736
59.7056 37.6207 36.2979
50.8904 29.5078 38.9982
58.5143 37.4287 37.7759
55.0328 43.0071 35.0603
89.7984 64.5683 54.13
67.8864 65.1766 76.327
53.1597 41.3613 50.3071
64.6118 39.5509 43.6783
79.1569 88.6533 93.4202
43.8386 19.1935 19.6069
73.5484 53.2123 56.2932
58.8383 54.4585 68.7314
32.1132 23.2096 30.2434
65.3646 41.7037 37.912
66.666 76.7347 76.7965
54.8415 27.6714 25.9848
47.4599 41.2704 51.3543
94.8414 59.7157 63.7834
34.5186 23.9028 28.0616
47.0676 19.6645 21.8504
71.4111 70.4692 82.9433
77.8357 26.3873 31.0289
72.5069 62.8296 55.9454
24.8434 18.8432 32.9975
48.1451 25.7395 26.4855
80.4066 89.6114 112.85
98.5435 66.3298 60.2075
62.5016 53.1645 60.131
63.3661 60.4524 76.2823
49.7882 35.8956 47.5244
76.269 39.3006 31.656
48.6723 43.0137 57.3
95.4119 49.4219 52.5145
48.3933 27.6125 30.7441
52.1952 42.8972 58.5403
89.1028 69.2198 65.2556
46.1547 36.8116 45.8241
29.3447 26.724 27.8292
54.0461 24.7469 24.6011
50.5722 32.7071 38.3234
36.9396 32.2339 50.9123
48.2703 21.5935 27.3887
29.4329 22.8983 51.1646
95.6781 55.6738 43.8822
51.7039 33.8673 35.4623
17.4201 23.0695 29.6913
49.135 41.066 41.6708
48.4864 40.0036 40.4044
44.4725 33.1453 44.8962
30.7797 16.5012 21.6216
50.6986 25.0334 32.0612
42.6164 48.8103 54.1988
45.9775 26.3026 27.9005
24.8461 28.8059 37.6471
59.9998 42.8924 59.1317
31.2898 24.3187 24.5941
30.2114 24.4089 40.6604
54.1058 26.5333 30.5481
40.1292 37.083 29.9845
35.3012 21.4458 27.1183
29.943 41.151 40.7448
31.6622 34.6035 46.3421
43.2599 27.5301 40.3355
52.2925 35.0958 51.8948
53.9881 28.9682 22.2068
46.8511 43.2857 54.4122
51.4484 51.1504 52.3493
36.5079 15.6265 22.2275
43.7057 26.7944 28.4856
62.03 44.1164 55.9526
35.1809 37.9904 49.3472
57.4474 40.3359 47.175
50.5469 31.6477 54.6509
43.2498 35.6961 58.017
32.0278 39.088 32.0233
29.7121 28.715 51.3034
30.8627 24.9055 36.6448
30.47 24.1092 16.2933
60.2553 48.4056 68.4442
22.3943 13.538 14.3121
24.3133 27.6398 48.8291
20.6539 14.8176 12.8089
17.8031 30.8939 41.7002
54.7836 44.5758 69.4014
32.2287 19.8745 15.075
55.881 46.1641 60.845
24.2583 14.0899 15.0999
26.7778 21.1093 35.7289
38.1115 53.8118 82.2844
37.0306 33.6003 48.7836
76.0458 33.556 27.0234
36.0112 29.4265 34.4604
47.1164 45.7891 62.6884
29.5276 22.3751 22.9422
22.519 15.5133 19.7913
18.8464 15.3168 20.936
30.0263 29.8303 48.9792
17.8356 15.2181 20.5363
27.4306 11.8212 20.443
27.3421 18.004 27.0273
19.6815 26.0754 42.587
35.6317 25.9862 34.9198
40.0653 35.5433 63.9629
51.5934 34.7303 39.747
26.2044 28.2607 36.6466
35.1994 31.0228 57.8462
51.8468 42.2514 72.7251
36.7413 52.0949 48.5254
21.6329 16.5671 22.7438
22.0074 39.298 72.3084
49.8869 28.4183 31.5154
33.5884 15.8633 31.0521
38.2165 35.7096 41.962
38.3224 17.4969 29.4723
28.4965 28.9313 41.6352
26.7078 53.1391 76.3203
17.1141 8.7644 38.2386
42.1532 54.4459 61.6968
30.4935 32.9724 67.7651
48.8933 33.3875 28.6764
37.4481 24.4173 36.5821
12.606 15.6522 31.3243
31.4198 13.7437 19.5317
40.572 33.2917 49.8592
17.2545 19.9547 33.1509
16.9635 10.6901 22.0839
39.1323 31.9059 50.5792
38.2768 35.4624 49.0935
38.5916 29.0986 33.956
34.4566 45.231 53.2966
21.863 25.7999 41.5804
33.5457 40.9584 57.5962
40.2255 51.4437 107.878
45.0479 25.5703 38.1081
35.6479 38.0233 52.6512
67.0429 42.7782 39.0545
34.3392 40.5507 68.2459
25.8643 14.1841 23.3351
20.9609 16.3346 34.0218
27.0904 25.7345 35.9669
21.0286 37.6835 70.0565
22.0742 13.0937 40.5778
59.1617 50.5494 69.0738
28.9025 28.3882 35.8634
36.2581 31.7715 49.4455
13.6953 24.7257 55.8775
33.9076 26.5918 49.755
32.9025 55.8313 78.5928
32.6187 19.2278 24.8491
33.2555 59.9987 101.934
17.3058 10.4045 28.8048
34.3927 39.6654 54.9537
23.885 9.10149 17.4047
31.2322 26.1349 62.1545
61.095 39.987 40.3794
31.9708 19.9678 36.9659
27.3837 18.0527 36.1958
54.7695 42.9698 62.6329
25.6036 23.4941 47.9269
36.6188 33.8537 38.6757
49.8593 44.3282 66.2492
28.4989 24.2546 45.2463
51.792 60.3158 73.173
15.8369 17.5885 32.0588
15.8188 25.2314 72.2171
33.997 38.1678 46.4129
13.0956 26.1699 60.7136
25.8334 23.1784 42.429
17.9362 5.44885 10.3925
21.9173 10.6511 23.3378
30.1176 24.9719 35.1085
19.1952 14.3462 20.2432
22.6863 22.1185 61.2802
34.962 24.1735 30.3212
15.8933 17.2883 33.8118
26.2734 35.4934 50.8661
31.3415 42.2394 59.5349
16.867 23.574 36.4805
18.9941 18.9148 44.8632
32.7989 35.1881 60.4294
29.0583 33.3243 54.5027
10.4196 17.9378 69.4739
31.9865 33.3147 43.8197
26.2243 22.7123 40.7777
25.8945 17.1654 21.6099
28.5941 33.1316 51.9885
21.83 14.6136 45.3073
26.5623 33.2403 34.5901
20.1134 27.2496 49.3311
15.7237 13.7525 20.514
18.4747 17.6838 33.1982
31.7559 19.8144 39.7196
15.4786 19.3509 56.5561
29.1336 28.7677 42.8285
22.2141 15.6371 29.5934
27.569 20.5031 23.1086
20.9532 12.4503 24.0309
20.8866 26.9153 46.9599
15.4043 16.1986 34.0597
21.5842 14.5576 24.3665
23.9657 34.1877 75.2011
26.7287 25.2019 46.9505
20.0362 26.9399 45.6244
15.8103 22.6483 40.547
10.5445 27.4372 70.3474
29.2448 16.8422 31.198
40.2503 33.1551 81.3512
36.1893 34.23 40.8242
34.8225 33.6126 60.4043
26.7363 17.52 69.3071
35.2304 49.1493 36.5402
23.9127 39.4873 77.3016
26.1195 37.3084 84.2576
19.6082 39.3588 69.347
22.4225 16.1483 22.6199
18.9827 16.405 29.4832
21.9592 19.6273 46.6077
15.1757 10.9689 29.6949
40.1918 62.8146 99.5773
16.3691 9.11588 23.1983
15.1878 19.7779 56.9238
33.9003 28.62 40.0646
38.0708 47.7206 75.7623
26.4769 26.9766 81.5215
34.0944 19.799 30.6688
39.0078 33.8821 47.2734
13.2169 12.9129 33.6639
19.463 18.9702 53.8609
34.0702 38.2794 65.3253
24.3387 13.0159 15.9054
21.3011 27.6465 64.8827
15.0525 21.3875 27.4587
18.857 16.4836 47.2691
23.4297 32.9471 62.5309
24.009 16.3289 31.878
16.3382 13.3303 24.5629
20.7016 29.6071 46.4234
7.22946 18.9688 60.944
30.8865 26.0694 53.9725
26.5282 12.7085 23.4748
32.6878 50.1977 111.217
20.9728 18.7496 45.2847
29.5107 39.509 51.4202
20.0383 16.9003 40.6843
28.1274 32.2884 55.0872
24.3502 40.606 61.6116
18.1224 38.3957 84.5322
16.1238 18.1031 45.0938
22.2403 32.5536 53.3091
14.2146 17.8039 44.5446
20.9946 19.3516 48.2386
22.2631 25.1498 31.3813
13.1999 29.2653 85.5161
25.1148 19.2043 34.9758
12.0239 11.8129 30.9727
14.334 16.4723 45.5944
19.3321 8.02282 31.1402
18.8857 23.9162 67.8029
18.9968 28.2886 41.4478
29.1798 23.8866 43.3874
11.6597 17.3921 24.4262
14.5923 20.1183 76.6117
37.959 46.2237 64.7605
16.1744 19.9155 48.6893
22.0216 28.6609 65.7797
27.1277 22.6559 38.9549
12.3171 15.9161 53.5695
22.0231 26.4458 66.2221
42.5415 35.142 36.6543
17.8705 30.204 58.1513
18.1894 23.7327 56.0601
20.0864 34.9843 93.0706
31.8282 30.5331 57.7854
22.8174 10.4452 17.0551
21.9587 26.6235 66.7676
17.651 14.4896 33.4605
27.9705 31.5714 44.8779
14.7214 9.36263 20.9377
16.0241 26.3741 51.9507
17.4111 26.9039 70.7896
43.5911 41.7359 65.6747
16.8269 20.513 46.4207
26.5099 29.2893 55.8069
13.1074 9.74803 17.6028
32.3838 95.8206 233.915
17.2157 13.857 63.0433
20.6454 14.858 40.4915
33.4917 57.2543 107.05
25.7985 19.7778 49.9448
15.8819 10.2406 18.0825
17.558 9.95371 21.1817
14.0186 14.0163 62.3031
22.8436 11.4198 30.1319
17.4266 29.5959 54.7665
22.941 13.0924 29.478
20.7427 15.4439 44.5829
21.5081 17.4633 38.9441
17.8809 26.7856 45.0736
28.8141 34.3218 77.4164
26.0088 41.8967 56.4431
8.92976 7.84525 15.9961
12.3491 20.1752 53.9706
16.5918 18.4778 57.0198
41.5337 51.4771 95.2184
21.6497 30.9773 68.8655
21.0214 18.6392 50.7313
30.0349 37.9869 61.5138
24.5643 48.9332 84.9268
12.1606 24.1131 72.9147
10.9654 15.4191 38.4698
13.5122 35.2672 104.312
15.5571 30.6626 77.3932
20.2762 30.3536 60.3128
14.3209 33.7593 110.854
30.8146 37.0043 114.912
21.0546 20.5181 24.6534
16.3125 15.5556 57.0703
29.0901 30.0651 59.2234
15.4839 17.7403 48.3723
19.5092 23.371 60.3197
21.1352 26.3591 58.4986
13.4837 19.095 59.052
24.4508 38.3464 58.861
11.8952 12.6377 48.9305
7.36694 19.1985 48.8998
25.1343 25.4583 58.6144
6.81253 14.3096 17.3805
19.5539 26.2901 38.1542
8.82485 19.2899 42.3383
6.42614 9.5989 50.0272
23.3923 22.2274 26.4045
8.46465 13.0335 27.5008
16.6893 25.4431 62.5103
24.0237 32.1863 77.8925
22.6039 26.1764 50.2711
7.49463 19.9427 34.5915
9.29966 28.7525 71.5469
18.7668 32.1119 89.86
15.1866 15.2181 75.3758
18.6356 8.94387 47.3333
23.0913 27.9159 33.8473
19.3575 26.7664 52.2123
12.5811 19.9402 52.1982
10.0413 7.97699 26.663
14.6469 12.4515 20.4001
13.5721 17.1911 81.3118
6.97453 23.4038 100.039
30.7636 64.6374 104.217
15.3386 23.2519 48.3012
