# pn-170911/CsIIA-31-USN3-1280-1959.psd
# Power spectrum* (dif=0,1,2) (really just |FT|^2)
# NOTE: only the first half! (symmetric)
# weeks: 1280-1959
# 47 clock-days, 40 excluded
# PSD: 1441
321385 5.61843 0.0423663
5.91926e+06 108.702 0.0707908
3.19976e+07 620.676 0.0770389
5.75363e+06 169.686 0.0666939
1.10399e+07 789.594 0.135991
2.09832e+06 198.52 0.0999751
1.69932e+06 271.17 0.107128
1.01654e+06 190.238 0.109871
843013 215.541 0.135205
624084 193.6 0.131541
516181 216.588 0.200999
457781 232.2 0.222523
399850 251.785 0.289164
371306 233.664 0.247015
271776 188.848 0.277542
288107 230.273 0.32188
197607 215.266 0.319477
192489 206.741 0.335041
112667 170.727 0.313814
191879 239.731 0.506539
114505 182.397 0.390135
175709 303.788 0.700972
99111.8 180.243 0.490612
107701 231.492 0.690302
117166 244.637 0.638225
98980.2 254.215 0.860959
53182 138.122 0.484944
80677.6 247.176 0.969149
60000.5 185.662 0.768071
56756.2 185.601 0.827587
64880.2 256.8 1.16129
47089.3 188.272 0.868641
65372.5 271.677 1.51139
37257.2 154.469 0.785914
50303.5 185.201 1.12645
40813 173.303 1.14243
38209.8 215.22 1.40172
44537.9 209.661 1.52004
30485.6 170.865 1.29461
31171.5 187.549 1.35028
34727.3 190.836 1.42295
26091.9 173.928 1.41696
24990.5 167.938 1.40697
34592.8 233.47 1.99141
20706.4 178.407 1.6847
30708.2 214.512 2.19927
28795.2 248.024 2.56217
20729 184.998 1.95105
25134.3 212.922 2.4158
18848.2 150.927 1.75498
21015.9 215.658 2.51333
15833 178.18 2.23841
22146 244.09 3.10788
14612.5 155.082 2.22808
15719.6 194.845 2.73865
13546.6 158.487 2.42731
15230.7 170.258 2.62216
15409.4 203.451 3.17488
15635.6 208.153 3.26256
11962.6 133.025 2.20102
14625.6 188.15 3.18988
9773.63 150.783 2.66339
13840.2 183.207 3.20088
13871.7 211.653 3.99824
11132.2 165.393 3.15406
8546.9 124.445 2.55451
11085.2 170.057 3.55603
13221.8 219.649 4.83671
11221.3 196.643 4.28979
9236.18 163.387 3.74956
9267.1 188.067 4.44781
7334.24 148.705 3.7189
9264.03 176.48 4.30078
9158.76 185.404 4.6855
7679.09 166.73 4.40703
8300.47 174.888 4.53159
7160.54 138.135 3.89932
7974.29 155.589 4.46508
7510.72 174.414 4.96642
7347.01 175.892 5.25623
7537.9 165.792 5.14631
5517.9 130.917 4.16061
6622.56 159.323 4.87766
6323.59 138.113 4.51128
5297.23 162.601 5.60662
5494.29 155.645 5.3026
4830.36 116.372 4.02202
6371.75 161.171 5.77335
5063.17 157.645 5.89178
5982.69 148.537 5.54451
6421.95 193.138 7.38791
4972.8 151.191 6.04508
4006.05 98.0311 4.02976
5422.84 164.782 6.77431
4240.65 137.636 5.53039
3794.74 115.022 4.86839
5212.74 169.834 7.37998
5878.57 202.488 8.96701
4736.82 158.331 7.29953
4180.49 161.883 7.74975
4050.69 155.412 7.30141
4545.46 153.592 7.7799
3814.13 148.386 7.18403
3678.95 135.408 7.23142
3731.72 122.623 6.42397
3938.7 158.418 8.46556
3768.38 154.189 8.26431
3742.05 162.257 8.54759
3058.07 145.773 8.07615
3002.12 125.421 7.60558
2974.89 125.53 6.96654
3469.31 146.096 8.76219
3051.71 136.994 7.98676
3100.27 142.529 9.04195
3185.28 126.112 7.54713
3194.69 140.155 8.8012
3273.95 139.597 8.79195
2224.79 99.3977 6.46616
2218.39 107.522 7.28982
2427.63 120.442 8.0153
1973.36 110.875 7.58995
2624.3 149.664 10.1361
2350.55 124.556 9.00688
1814.46 111.985 7.97612
2150.12 132.034 9.95837
3226.52 163.267 12.1446
2381.91 117.23 8.46618
1690.51 92.1918 7.2209
2774.7 133.12 10.5908
1969.53 132.811 10.0798
1968.66 127.065 9.9854
2091.85 105.532 8.47104
1886.47 131.506 11.181
1975.59 130.079 10.7831
2175.04 131.323 11.064
2028.18 126.743 11.0332
1932.75 104.997 8.9221
1834.64 113.574 10.0778
1421.19 88.204 7.98629
1660.88 129.664 11.7038
1987.52 135.92 12.3987
1725.01 98.7479 9.54522
1639.49 94.0285 8.76099
1874.53 123.24 11.9153
1554.48 118.339 11.2619
1767.81 130.241 12.5169
1477.57 118.021 12.1208
1630.31 127.578 13.247
1487.49 88.4989 8.96144
1477.24 96.3238 9.955
1660.82 121.22 12.9728
1663.57 87.5024 9.34174
1628.78 121.387 12.909
1610.61 132.801 14.4938
1189 86.2139 9.21406
1023.63 89.2242 9.93721
1348.44 87.7553 10.5363
1449.35 124.803 14.2378
1151.99 94.1525 10.7222
1189.99 95.4556 11.8336
1221.88 106.682 12.5625
1117.25 89.0718 10.9551
1237.26 96.9576 12.3245
1040.63 92.9036 11.1319
1473.27 101.466 13.0916
1093.59 94.4777 11.9511
1035.21 94.5334 11.923
856.886 70.988 9.51716
1002.3 88.8809 11.2509
1000.48 105.878 14.7365
1106.93 84.2556 10.9998
765.91 81.4952 11.4497
918.974 86.7876 12.1385
1020.41 99.6679 13.4869
954.023 94.9365 13.5369
1117.74 90.1007 12.917
766.373 84.9171 12.7356
968.992 89.2423 12.8125
779.424 75.9507 11.628
648.067 68.3556 9.79682
764.806 71.7149 11.5253
943.217 88.8897 13.3592
783.443 66.324 10.2993
927.078 75.2019 11.8886
892.449 78.8942 12.5231
666.109 61.5449 9.57038
948.82 101.134 17.1269
917.502 95.3071 15.7966
864.077 79.5369 13.0221
622.192 58.415 9.65634
804.248 57.8273 9.7605
810.507 82.8109 13.9055
788.467 92.5935 15.8223
820.127 76.2318 13.0597
637.578 70.9431 12.5318
896.479 81.7369 14.4485
586.921 62.5332 11.7924
708.777 62.8118 10.9675
679.965 63.6544 11.9053
588.604 55.3611 10.5553
776.497 71.2505 12.9069
595.444 74.5012 13.969
562.314 68.1412 12.8834
639.736 86.4834 16.091
559.931 71.0171 14.3937
501.245 59.1704 11.1562
631.272 85.0435 16.9229
824.486 80.8597 16.9113
507.397 51.6856 10.3383
533.774 66.3129 13.4575
506.561 59.5105 12.5168
527.661 62.636 13.2899
667.759 61.6994 12.7322
561.768 61.7389 12.649
479.722 65.7655 13.5263
433.28 61.6511 13.3999
504.446 67.987 15.1117
692.912 82.6543 17.3967
444.194 55.6998 12.8251
503.257 61.4141 13.4289
532.682 62.5844 14.0012
502.733 75.5547 17.628
475.165 54.213 12.7542
484.373 70.3056 15.7466
465.698 64.5001 14.7901
448.873 52.0176 12.8394
404.781 53.7315 11.5208
452.333 59.282 14.1478
494.66 55.5489 12.7465
565.463 73.3263 18.4561
433.603 61.6413 15.3345
423.895 69.0547 17.1371
359.256 43.3675 10.6787
494.582 55.5012 13.3853
457.345 52.8976 12.8332
404.859 70.1541 17.3555
354.464 54.8018 15.1424
415.558 66.9179 17.8557
383.027 47.8936 12.0717
461.634 62.7375 16.9371
379.316 50.6972 14.0882
325.633 62.6275 16.8379
444.157 50.4498 12.6928
366.657 54.9635 15.308
384.842 53.0362 14.5827
329.748 42.6336 11.6434
342.723 43.8041 12.0354
339.899 43.1647 12.4804
403.458 49.1698 13.2632
418.874 56.2746 16.0752
327.799 52.5834 14.7846
383.844 61.4751 17.3896
313.261 42.3097 12.4256
328.91 57.6661 17.4022
363.145 46.3664 14.2683
342.985 52.5704 15.7361
305.312 39.6972 11.8028
402.026 56.7507 16.4998
404.594 49.5343 15.507
320.746 48.1844 14.7021
288.641 48.802 15.6591
283.443 40.2466 12.8865
302.449 37.7124 11.5949
333.992 49.1816 15.6725
300.73 50.0555 15.9545
222.697 47.1238 15.1293
292.913 48.4214 15.8937
276.484 44.2853 15.1099
339.622 45.8217 14.9781
328.876 41.1009 13.4077
320.402 45.969 15.3851
259.514 47.4687 15.5065
289.284 41.1555 13.3135
236.75 37.2621 12.6534
252.027 41.1545 14.2739
272.089 43.1119 16.0851
292.852 47.8006 16.2428
345.44 56.119 20.2438
317.91 50.9666 17.8338
256.417 44.3292 15.597
314.363 36.6234 13.1329
295.222 44.3063 15.7999
282.874 38.6397 15.0902
280.016 45.2578 16.0773
272.135 42.2375 15.2918
191.352 40.2509 14.6709
198.857 38.358 15.7069
243.442 38.2133 14.2174
211.794 39.1635 14.7527
272.19 44.9532 17.6864
250.362 31.7687 12.2058
251.457 46.6133 18.3135
287.281 44.7246 17.4078
237.125 38.0826 14.9877
235.504 34.9522 12.8867
229.584 33.4338 13.5074
260.309 37.5731 15.2197
206.585 31.7564 12.4005
251.481 41.9085 16.1447
218.781 40.062 16.4967
286.147 41.8858 16.7285
186.17 25.4515 10.8022
234.286 39.7452 16.6349
222.489 35.8532 15.3485
183.147 30.8207 13.9399
191.708 39.6745 17.207
212.841 38.6616 15.96
203.362 30.9296 14.0082
238.754 49.1815 21.0141
151.805 32.6545 14.7961
223.227 36.0898 16.3048
164.717 28.8971 12.6995
241.594 37.7657 16.3491
218.028 34.8036 15.5005
278.181 41.8832 18.9086
207.591 33.1417 15.2297
219.015 37.2193 16.9829
193.312 32.0875 14.7556
175.391 33.7019 16.2339
219.833 37.529 17.0071
139.926 30.4642 14.4047
177.987 33.3088 17.2064
219.742 43.447 19.7906
192.368 35.6976 16.4388
207.962 33.2555 14.4505
199.777 38.8181 18.0435
240.802 36.7289 17.7422
186.186 31.3128 15.8119
239.472 38.8437 18.7033
164.776 24.8553 12.5424
178.277 35.1548 17.1845
203.407 43.4664 20.2347
148.278 34.1865 16.92
154.58 34.1585 18.2829
144.115 28.9002 14.7682
196.57 33.4486 17.601
185.595 38.74 20.4162
157.015 35.0687 18.4215
201.709 35.9598 16.8851
161.216 27.8237 16.0217
190.735 32.6554 16.676
148.048 26.9905 14.3705
187.282 38.0563 19.6009
160.033 34.1645 18.1398
154.55 32.8119 17.3303
168.651 35.3382 20.2735
126.995 35.8795 18.5437
150.875 30.1664 15.8947
108.698 25.3249 14.5117
139.537 27.9233 15.3368
172.762 27.0129 15.2831
177.336 25.0248 15.9628
170.66 30.7564 16.0458
166.933 47.9068 26.5464
168.224 27.4257 16.7669
138.532 33.2096 18.1239
103.499 18.563 11.0447
123.167 24.6153 13.5845
133.636 29.1178 16.2306
125.772 26.4947 15.1173
121.668 22.2029 14.2916
203.577 34.3212 19.6054
132.675 26.0002 15.2743
183.739 31.338 18.1168
126.597 22.1492 11.8392
145.281 26.0504 15.4174
138.473 35.5921 20.7045
110.221 26.0592 17.6329
143.651 27.5807 17.9895
137.953 31.6623 18.0405
119.413 26.5948 15.7412
141.34 32.1106 18.8708
149.342 28.2663 17.5473
132.004 26.0672 15.8728
106.801 26.2531 16.5004
143.82 22.8693 15.438
122.463 27.2194 18.2235
143.467 29.7779 18.1489
138.653 21.4058 14.5233
134.371 24.4813 16.7171
104.719 27.1326 17.1828
125.08 30.2889 19.9433
162.472 24.5551 15.7401
113.479 25.2354 15.3676
111.074 27.1025 16.6772
123.429 25.6365 16.5714
123.845 23.2103 15.0692
117.565 30.4626 21.1006
120.673 17.8721 12.36
143.793 22.5154 15.4751
108.807 28.3761 18.14
116.644 15.1667 11.675
105.605 26.7245 17.785
108.305 21.3386 14.6489
101.497 21.6891 15.0598
97.8577 24.5157 18.3264
143.24 34.7728 25.1362
119.606 24.2492 16.8408
141.574 26.6524 17.4477
129.999 21.2114 15.8442
140.636 23.8708 16.9773
127.052 24.4681 16.473
118.011 22.6985 16.3188
102.668 25.0018 16.7129
119.037 28.1706 19.8358
105.578 17.7902 14.5647
115.496 31.2229 21.105
118.837 21.8757 16.5692
93.624 22.3899 18.1247
105.07 27.6623 19.2978
136.213 21.1086 16.0612
101.082 18.0226 13.7273
132.59 21.3451 16.8636
97.3131 22.8979 16.1721
111.842 22.2953 17.3579
92.5822 22.439 16.4361
81.7442 17.2773 13.8036
101.684 23.2359 16.9886
89.3109 26.5576 20.7121
105.395 24.447 20.6116
108.605 21.341 16.2129
122.744 20.2212 14.2021
123.772 21.1903 15.7837
112.068 14.73 12.8585
122.692 20.4432 16.4445
101.395 25.8142 21.3349
95.1483 19.7579 17.2183
82.9621 17.2431 13.0231
82.141 18.4944 13.8325
91.9528 18.7691 13.3702
84.5371 20.4737 16.7662
106.801 21.8051 17.9352
106.364 21.889 18.4385
103.633 21.5539 17.5868
96.8961 19.8943 15.8311
94.2131 17.9784 14.1605
101.552 22.7429 19.4289
81.478 25.1762 21.8466
102.704 24.4781 20.067
82.1765 25.1004 20.0112
93.7395 19.7146 16.6579
80.6572 16.7839 15.0574
95.5179 18.0848 16.6475
92.1581 19.2237 16.606
106.557 20.5581 17.5732
125.666 17.1687 13.9962
84.7462 19.2662 17.1237
104.841 19.4899 18.5202
96.1978 15.2927 12.6608
93.5303 22.6254 21.1068
79.6155 22.8026 20.1523
80.0335 23.2706 20.4729
90.8985 16.5173 16.1285
74.255 18.6295 17.1663
107.366 19.5456 17.0926
78.3308 18.0198 15.1327
85.8598 18.905 17.6422
91.8515 19.2206 16.2963
79.9837 17.9086 17.217
82.2088 13.4579 13.2319
89.5263 22.4139 18.4803
88.7665 15.649 15.8111
80.4669 17.5249 16.4028
78.6229 16.2311 14.0892
76.6096 17.8553 16.8852
70.5615 15.1605 15.1835
79.3656 18.8397 16.945
71.2019 19.4599 19.0204
101.965 21.6432 20.413
71.18 20.8247 20.1982
92.7084 14.7178 14.0762
87.8783 17.1776 16.4161
83.25 17.8996 18.2255
97.9672 12.7335 11.484
64.8635 18.731 18.5528
85.5976 16.6896 15.7783
68.2536 19.7491 20.9619
69.7519 18.6328 18.1243
87.5044 19.2644 17.0323
72.047 12.8183 13.2142
88.2852 16.9377 17.728
76.1561 15.5381 15.3973
85.0908 16.2703 16.8317
84.6831 21.9883 21.2836
87.2365 18.6716 20.4369
79.5556 14.5474 13.9188
55.9679 14.3076 15.8661
79.313 19.0539 19.1095
59.3819 14.7926 15.7689
73.7354 15.6545 15.5348
57.7539 12.6168 13.4312
81.0208 19.9817 20.1269
82.6601 17.7784 18.7199
91.1878 22.8853 23.1571
86.1602 15.2408 16.2648
78.8751 20.4549 22.4746
70.7838 16.2393 15.1329
55.6349 13.8359 16.7816
58.5508 14.7978 15.4061
65.2341 16.0153 17.2502
74.2455 15.1496 17.4126
82.3284 16.4458 16.9883
70.1711 12.3587 13.9414
79.8476 16.8376 18.2675
68.5411 16.0438 17.3728
72.6055 17.2177 18.6778
59.6027 11.5175 12.8003
52.4616 14.2449 16.507
64.2127 13.1507 14.9823
64.9604 14.47 15.3669
66.4596 11.1214 13.1193
62.4371 16.5178 18.4337
58.4804 12.1189 13.9932
75.0731 18.3967 20.3555
72.0098 14.0188 14.4136
77.5398 14.9253 18.1802
74.9016 13.6122 14.3684
82.6964 11.7447 14.7669
75.5361 14.2182 15.3267
68.5433 11.621 12.5606
58.025 12.5623 15.4161
60.4735 11.5117 14.1522
67.445 14.8357 15.9126
62.9623 15.8816 19.4071
57.4735 12.4327 15.3045
64.0249 17.9148 20.1524
70.6358 15.4508 16.6264
69.0275 14.3629 18.8709
54.6104 14.1547 15.5867
65.5237 11.4105 14.8285
70.8319 14.9848 17.29
67.915 12.8789 13.7245
56.121 18.8605 21.6206
58.5895 13.811 19.6504
68.5876 13.8473 15.5302
53.9249 12.9364 15.4105
55.7859 13.285 16.7721
60.9645 14.3842 16.4666
63.0616 11.9771 15.8234
55.2293 15.6397 18.4512
71.1689 9.73279 13.0399
85.5545 12.6009 16.0563
68.3667 10.6582 12.8404
69.7122 12.4874 14.6979
53.8504 12.655 15.6653
66.3646 12.963 15.7736
48.8029 14.398 18.0685
56.8114 14.9702 19.3277
66.6123 13.0873 16.6937
57.2103 15.1431 18.7608
60.1947 11.5019 15.1427
49.6296 8.6087 10.7484
62.4376 13.4914 17.4058
58.017 18.3409 22.0484
68.6411 13.3229 17.1171
63.8013 13.1869 18.0883
62.8307 14.31 17.5131
55.9607 12.9713 16.0872
38.6404 10.8173 14.4525
56.7432 13.7008 16.94
47.0124 15.7593 20.5007
70.7745 14.072 19.9326
65.2948 13.4807 17.8671
70.0323 11.56 16.7339
77.2455 11.7207 14.7421
60.4535 12.353 15.6771
58.9672 12.0967 17.3597
49.021 11.593 14.5089
54.4086 11.8149 17.0344
48.1253 14.8406 18.8742
50.7061 9.57337 13.3006
58.1412 9.9075 12.684
53.371 10.7804 14.1093
63.2539 12.7711 16.9152
59.5324 14.6648 23.2191
67.8521 10.9691 15.012
60.993 10.7522 14.1166
52.5 12.1014 15.2889
50.6422 9.96558 15.6303
49.5628 12.4494 17.0857
52.7858 12.4636 17.5868
39.9285 11.6304 17.161
52.5043 11.0021 14.1221
55.1098 14.556 18.9704
49.9421 10.1379 14.5189
57.2138 11.2182 17.1574
57.3463 10.5466 15.2437
67.0299 14.1269 21.1469
58.7619 13.4491 18.5718
58.9471 12.5827 16.324
48.8271 9.629 16.3935
46.8098 11.5096 14.9404
45.4962 11.0244 15.7083
44.0082 9.5692 13.516
57.8125 11.432 15.5916
53.0292 11.9651 16.529
48.1227 10.7341 16.2504
49.3462 10.4172 15.4344
49.9119 9.14499 13.3815
58.1701 12.4495 19.2915
47.9768 12.9495 18.8829
53.747 11.7869 16.2003
52.6561 10.6629 17.2876
59.6086 10.8238 15.663
46.8436 14.6841 22.0405
46.9525 10.4813 16.5376
55.9029 15.4971 24.8048
49.0152 11.0164 14.8048
48.9684 10.9466 17.0404
44.577 12.2695 19.6553
55.5264 10.5904 16.902
66.6436 12.6357 15.7764
47.3 8.56322 14.1354
64.2574 9.31417 13.1185
47.7035 10.8057 16.6526
46.8856 10.5903 16.9425
39.7223 10.7815 17.1046
46.965 11.521 18.5749
44.9869 13.6353 19.2912
39.4882 12.9022 19.3617
52.4838 11.1939 18.5121
40.3063 11.6672 17.4691
52.5735 11.138 17.1479
42.1822 11.3446 19.655
56.0389 13.1164 19.1853
50.1271 7.04077 14.647
45.988 12.8875 19.2031
45.2407 10.1866 15.2585
32.3539 10.126 14.3965
45.3247 8.35902 14.6424
32.034 9.35174 17.4882
45.6127 13.1786 20.0523
54.3287 12.0224 17.3063
53.5729 11.5569 20.0317
54.2884 8.75722 12.8988
50.559 10.84 18.146
55.7232 8.20236 15.1316
45.7556 9.66974 15.3044
49.7893 10.2719 15.4657
41.3522 9.21113 16.3631
37.3563 11.9824 22.0254
41.9977 11.5877 20.053
38.6635 10.2283 15.4023
50.3201 7.02783 10.8284
48.6228 9.73186 15.4635
57.9217 11.7746 19.0718
42.8192 8.92337 16.1906
47.6526 8.925 16.8512
44.8795 10.9568 16.5473
38.773 11.3347 16.2921
40.3901 9.26517 16.8627
38.1863 7.75319 14.211
49.2108 10.5719 15.979
41.3312 7.66722 14.5459
43.9661 9.48527 15.7225
49.7611 8.12947 13.5931
50.6801 10.9748 17.7534
54.0499 8.74951 15.7898
45.6028 8.6994 13.369
48.1057 9.5222 17.1637
47.2369 7.97117 13.6181
42.5508 8.82151 15.7043
41.7237 8.99761 15.2105
39.4118 9.89042 18.2347
45.2006 8.40755 16.1899
38.0653 8.34305 16.6638
44.1722 10.9234 15.9615
41.0426 9.13693 17.494
41.3823 9.45077 18.3753
43.514 9.41107 15.6196
34.6814 8.32278 15.3419
46.977 10.7602 18.1209
38.8106 7.64424 13.5031
40.0112 8.7845 16.7028
39.1286 5.99113 11.0418
39.8839 7.81324 13.4544
42.9854 9.77121 16.3144
26.7898 8.34753 14.3483
42.7644 8.55068 17.8364
33.7493 10.4734 16.5606
46.39 9.6051 16.8164
44.1791 6.39844 14.4019
53.6944 7.79024 13.3511
50.8263 7.83069 14.0793
41.4726 9.19204 15.2186
53.1166 7.81696 15.7929
37.3468 10.9514 20.0456
39.6473 8.70793 16.3354
32.4553 8.27192 15.4551
34.7111 8.20406 15.6804
44.1594 8.14761 14.4794
33.0087 8.78132 14.4901
38.0295 9.39895 18.2631
43.2165 7.32612 13.6515
45.1379 6.33478 14.9076
45.6119 9.34392 15.138
39.2095 5.84624 11.8517
44.8499 8.14175 16.7662
32.9749 8.80655 16.8494
39.9193 9.59507 16.3255
28.8713 8.78768 15.0833
35.928 8.21974 18.3757
43.7493 8.30434 14.4857
45.3956 7.71088 15.0508
48.6104 7.89114 16.1669
43.4905 7.06459 12.6775
55.1276 8.44947 13.6495
38.9174 6.30111 13.3968
38.7585 8.88062 16.8255
37.4041 9.23684 20.8588
32.1167 8.15648 15.6604
34.4794 8.6932 15.0401
35.7347 9.15264 18.6737
44.0137 7.00307 12.4634
33.1131 9.026 16.1777
43.4742 6.87055 16.2701
40.8313 7.54965 14.5306
42.0781 6.17032 13.6869
40.2937 7.6386 13.4086
32.339 6.51699 12.6029
37.4142 6.66563 12.3944
32.3175 9.23003 18.1282
34.6602 6.00814 13.8331
33.8823 7.43181 13.9924
35.655 6.66556 13.9447
40.6072 7.29233 14.1266
29.2687 5.24228 10.2557
43.4634 8.47002 17.5715
42.719 6.37912 12.4642
44.2755 8.31115 14.9821
37.5005 5.41592 13.0877
40.5251 5.4028 11.1301
41.5737 6.76898 15.9096
34.1359 8.1724 14.8441
40.7354 7.91848 15.6601
36.1837 7.11261 16.2261
37.9539 6.73727 11.3154
36.6192 7.9993 16.2978
33.316 9.2603 19.4663
36.9033 6.59232 13.8896
33.8063 8.15866 15.4403
34.2071 6.51751 12.4598
29.203 8.08228 16.9355
40.7492 5.95747 14.0205
35.2684 6.00049 12.4079
36.1974 5.29787 12.0047
39.0294 6.78264 15.1747
28.1962 6.86184 13.895
39.4306 9.51716 18.8555
29.5827 8.39943 18.8305
39.9437 8.04201 17.0771
36.1881 7.12866 15.7053
42.174 6.04105 13.0361
43.5521 9.26522 18.2865
35.3276 7.54457 17.2806
43.7831 8.3644 17.8501
35.776 7.3303 16.4401
33.1391 7.01758 14.7663
32.859 7.05663 15.7606
30.2543 7.55025 15.9668
34.4311 8.10408 17.5176
30.2639 6.82949 12.293
40.2239 6.96224 14.6551
30.6512 7.6358 17.6615
38.1286 5.02244 11.7316
36.2381 9.42815 20.8795
38.3371 7.65755 17.1156
36.3435 9.49486 20.6322
28.74 7.76975 17.5272
29.6312 6.35211 13.9656
24.8493 6.71265 15.3302
31.0612 7.02262 17.1832
31.2619 7.47498 16.8483
35.4691 7.13154 16.1994
38.7948 6.44026 13.418
32.6365 5.49641 12.4008
43.6075 5.67233 12.0277
37.3306 5.94646 14.8775
40.3116 6.66937 14.3238
29.0141 3.78954 8.07497
29.2653 6.18327 12.9453
30.1562 8.12302 16.9111
25.8277 5.7389 11.9205
32.7562 7.43886 16.6893
28.7014 7.08894 17.3043
36.5357 6.75865 15.5066
34.4696 7.62494 15.0589
33.127 6.51126 15.8193
34.671 4.94216 13.7313
33.2386 6.96637 14.808
32.9826 6.62824 15.5606
26.3203 5.31559 10.4841
31.6693 7.09152 15.3319
30.5132 5.93259 15.9548
31.236 7.30472 18.7152
35.8735 5.52221 11.2142
28.8315 6.13321 16.804
39.2231 7.02403 15.7373
37.263 6.45776 17.7949
42.4674 7.31935 14.7205
33.0989 6.50336 13.589
34.268 6.48748 17.3032
35.4964 6.62712 14.318
26.8547 7.12709 15.8833
34.4508 5.20517 12.0328
27.4717 5.53239 13.6699
30.2601 7.89706 17.9519
28.711 6.16622 16.0443
32.1634 6.23529 16.6071
33.7138 6.59223 13.3006
26.0391 6.30419 13.8888
32.4865 6.91551 16.6743
27.2863 7.09692 15.8892
34.4496 5.71921 16.3245
27.3304 6.50187 14.3452
29.1012 5.41867 14.0129
35.9349 6.93817 16.0319
27.6505 7.50066 16.2417
26.2389 5.61085 14.5373
24.6574 6.13374 12.3581
29.8475 5.14207 13.7645
26.1233 4.0802 11.1475
33.5258 6.73594 18.534
40.5406 6.62792 15.3937
34.7142 7.52423 20.0974
36.3407 6.95862 14.0201
29.1466 6.64633 19.2393
35.2897 5.9624 14.0445
27.3286 6.66961 15.314
24.648 5.9535 15.6554
28.795 7.35549 17.1853
28.7396 7.52746 17.8831
34.4153 7.64368 17.693
24.4759 5.11538 15.8917
