# pn-170911/CsIIA-35-AMC2-1280-1959.psd
# Power spectrum* (dif=0,1,2) (really just |FT|^2)
# NOTE: only the first half! (symmetric)
# weeks: 1280-1959
# 19 clock-days, 1 excluded
# PSD: 1441
81676 1.28984 0.024719
2.73132e+06 48.3199 0.0160976
1.37567e+07 338.152 0.0235781
1.82096e+06 63.5059 0.0188707
1.27051e+06 81.3668 0.0176458
996588 100.118 0.0224699
561265 79.6795 0.0352343
438456 49.1005 0.026941
358562 89.0074 0.0380845
189010 26.4117 0.0229016
227377 57.649 0.0435691
149059 71.1549 0.0580771
118442 47.1767 0.0379983
125678 77.1516 0.0793642
63977 39.4338 0.0530556
93984.1 73.4753 0.073801
97947 61.0591 0.0999045
77031.2 95.935 0.159407
64961.6 77.4238 0.141468
49710.5 62.7166 0.133574
56040.1 59.6496 0.137558
29303.5 46.5698 0.12932
38906.3 75.1169 0.173133
42112.4 78.8113 0.209709
31167.5 55.2214 0.170196
30764.4 53.7272 0.181261
38284.9 88.4333 0.273914
24339.2 47.2682 0.161559
24133.7 78.4134 0.280112
25973.8 68.2369 0.323506
14681.2 57.654 0.242263
22732.8 64.5047 0.289641
13738.6 56.9404 0.297456
16184.8 44.9313 0.25446
20159.2 69.1736 0.367269
16492.6 81.2178 0.469252
12918.2 61.9174 0.403237
12106.3 52.5967 0.369985
16124 66.6683 0.426291
12482.9 67.6005 0.531084
10141.4 57.9398 0.509976
10735.8 55.9837 0.477766
9824.31 54.3085 0.46121
12438.4 74.0505 0.667216
8985.97 56.0139 0.516005
7758.36 44.5948 0.461377
5882.63 47.0355 0.484471
7908.49 68.6316 0.799689
9827.5 72.267 0.764602
7725.59 66.6524 0.794373
6584.46 56.7093 0.704453
7366.78 49.4263 0.603916
4949.06 55.0961 0.703531
6754.12 53.276 0.739959
6719.24 68.4976 1.00201
5000.41 41.6134 0.591574
7212.38 87.2087 1.33993
6636.15 66.5525 1.03795
4588.64 46.3039 0.76292
5699.78 56.6825 0.979772
7221.15 75.0024 1.29364
6039.95 72.3755 1.24625
5069.64 63.9306 1.21408
4758.22 56.1947 1.07695
4515.49 42.9606 0.784304
4097.36 51.8366 1.09446
3783.24 69.9444 1.4921
6743.83 104.456 2.28486
4428.44 63.8647 1.46291
3676.17 52.468 1.25791
5050.18 79.0599 1.7678
5124.17 81.0098 1.97364
3019.9 45.9138 1.17783
4013.42 68.5367 1.72643
3323.95 50.415 1.36722
3232.45 52.4341 1.48824
3521.12 67.28 1.79149
2925.35 41.998 1.09513
2389.23 59.7208 1.66558
2533.29 60.4616 1.75231
2247.91 39.4249 1.23694
3772.92 70.8573 2.22426
2328.94 55.6221 1.86198
2510.19 42.1113 1.2512
3117.11 93.4985 3.10033
2719.63 71.4892 2.37339
2041.36 49.7619 1.74371
1723.54 51.508 1.76248
2548.37 63.413 2.45534
1780.07 58.7498 2.1564
2057.63 53.8214 2.1758
1775.29 34.9016 1.36374
2489.52 53.5876 2.17401
2544.7 56.4714 2.37147
1763.83 43.0882 1.77597
2093.95 47.5481 2.13939
1613.04 55.0938 2.26883
1573.61 59.6644 2.65567
2072.91 67.8482 3.0645
2029.58 43.8155 2.10183
1582.14 67.9121 3.31554
2577.36 78.7799 3.93911
1993.91 64.6025 2.9632
2397.31 72.2085 3.67158
2070.08 77.5456 4.07863
1335.51 58.6034 3.20288
1808.51 40.0663 2.02527
1321.52 50.6129 2.5524
1385.33 49.1638 2.90751
1563.09 56.0802 3.0818
1437.36 55.2722 3.02871
1811.4 81.659 4.83016
2165.41 73.363 4.32532
2113.99 87.3664 5.37736
850.109 37.7808 2.32711
1693.95 67.7309 4.42648
1509.02 59.3277 3.4854
1595.29 88.69 5.7061
1471.64 81.9622 5.47227
1145.16 40.7855 2.63588
656.259 48.5801 3.37759
1643.1 61.5975 4.23282
1245.69 54.4402 3.88874
994.501 44.303 3.20851
921.609 64.7103 4.72217
1168.36 42.82 3.04676
929.261 38.8405 3.04242
1128.09 52.5399 3.91199
894.419 39.5574 3.04198
868.016 39.4249 3.15117
1190.96 58.5449 4.71784
675.081 46.94 3.92446
1325.5 56.7404 4.5409
1151.95 49.0568 4.05925
894.53 58.3229 5.27171
1332.27 65.7579 5.40854
1749.06 85.0359 7.58556
1222.66 57.1024 5.14298
1237.69 58.3769 5.3865
1061.38 55.3574 5.03277
877.03 42.7517 3.84062
630.305 51.5516 4.80688
961.522 67.3108 6.48754
833.165 44.018 4.34386
999.77 59.501 5.87449
741.971 46.3786 4.4526
924.109 55.4435 5.40599
933.574 63.7383 6.79924
963.563 52.1383 5.61037
631.195 51.2384 5.45222
734.034 34.6101 4.02006
703.881 55.6899 5.68148
1006.31 67.084 7.3971
599.316 46.4026 5.29203
781.598 60.686 6.73879
706.886 49.4972 5.61578
712.747 66.3202 8.05497
561.069 46.3205 5.22259
476.322 48.8485 5.36654
712.678 59.9271 7.58922
493.348 29.6078 3.56937
574.22 46.3482 5.84987
713.207 52.9377 6.26139
811.878 54.7339 6.95005
548.516 57.6594 7.34536
487.337 61.0488 8.2465
584.244 41.4328 5.73436
704.965 58.3892 8.05351
601.075 63.3168 7.60346
523.403 40.7723 5.80013
340.83 31.3801 4.11636
653.925 59.5993 8.60286
570.999 34.6193 4.84771
566.657 50.8058 7.04761
374.583 47.3845 6.29931
432.893 55.1631 7.66208
542.424 34.6935 5.16401
462.505 62.0338 9.10964
548.64 51.1192 7.64615
530.445 51.6853 7.53328
445.781 45.5976 6.83327
452.858 54.7656 8.2299
474.626 42.6775 7.19465
370.1 33.0422 5.0726
478.988 48.6601 7.4561
713.471 74.9819 11.8588
487.617 61.0297 9.97905
367.077 54.4395 9.30839
421.217 52.3777 8.64892
474.924 49.4516 8.7498
399.578 40.3849 6.98947
313.529 30.4303 5.44764
474.818 43.8783 7.50658
343.536 46.1988 8.04029
353.463 45.5369 7.64086
412.995 35.3087 6.73314
346.568 27.5364 4.94396
332.486 51.9177 9.62409
380.865 47.3129 8.62104
369.732 34.0495 6.2178
307.264 38.9015 7.41063
348.466 53.2186 10.1395
397.923 55.0811 10.7251
346.129 42.9316 7.8827
344.826 33.7571 6.54511
309.743 43.4657 8.50532
330.335 48.1422 9.95681
331.919 31.5954 5.97371
292.072 26.1931 5.74728
371.292 48.8391 9.99617
377.268 42.7048 8.38098
404.847 47.4627 10.0127
325.453 42.5695 8.15693
257.419 31.6466 7.46752
460.177 50.6677 10.7338
383.557 65.6852 14.0426
213.928 28.4259 6.57674
211.876 45.7395 10.8357
468.057 60.0067 12.8961
490.37 68.3386 15.9433
281.366 40.4419 8.20002
278.169 38.9759 8.90956
351.22 58.6824 14.052
282.528 40.3176 9.04299
265.713 45.8501 10.7219
273.81 41.9003 9.84827
251.779 39.1944 9.35954
334.218 56.041 14.1038
335.793 41.9081 10.4635
298.264 52.3516 12.5159
433.396 52.3485 11.4345
304.08 42.787 11.6964
235.521 46.6576 11.4742
255.593 35.0152 8.88257
244.223 34.5633 9.47737
234.615 48.0679 11.8263
255.623 32.5513 8.33986
267.203 51.1934 12.531
273.768 37.9071 10.4533
186.53 34.6132 9.81355
232.498 40.8081 10.9353
265.314 35.9143 10.0608
220.641 28.5511 7.55312
308.916 36.978 10.0885
232.641 32.0293 9.53962
210.344 36.8305 9.75146
327.688 49.5127 13.7266
181.026 40.8899 10.864
262.677 54.2435 15.61
253.856 49.282 15.127
232.974 37.8428 11.3389
200.662 33.7804 9.65007
251.436 43.818 11.9616
186.566 27.3046 8.95959
223.672 34.7986 9.85712
202.331 37.3775 11.1778
152.699 30.6582 10.4487
276.985 39.7184 11.3085
281.798 50.9125 15.0351
173.634 30.7359 10.6128
215.614 27.7642 8.69954
156.191 31.2101 10.2055
245.623 35.1004 10.4801
158.275 27.1729 8.13914
196.964 31.0203 11.2982
176.343 49.7159 14.8335
231.807 35.1238 10.9094
262.049 48.9896 16.5352
237.572 54.1741 18.263
172.481 27.8804 9.85276
286.37 41.6512 13.2745
140.927 30.9428 10.2913
212.506 46.7204 16.2463
213.801 28.8798 9.5966
170.33 50.0442 17.6217
230.973 34.0021 11.8748
159.325 32.7214 12.7484
154.675 29.1298 10.1819
223.946 49.3876 16.1139
172.294 32.0232 12.0222
154.185 38.3996 14.5548
230.468 36.7845 12.4808
179.73 34.8458 13.2615
245.75 58.5695 22.0324
228.992 35.6851 12.5799
167.873 48.673 17.166
128.356 28.0256 11.3861
109.947 23.9513 9.77777
162.503 48.0918 17.7873
173.696 29.8486 11.3814
240.149 54.2746 21.4771
129.608 30.8337 12.1434
138.105 23.4634 9.14532
162.182 28.3626 11.2815
116.744 35.3991 14.541
206.851 42.838 16.8183
117.1 15.6269 6.78364
162.685 30.1229 11.509
176.776 40.0029 15.4473
166.038 41.9565 18.9063
130.978 36.1851 15.258
115.713 37.2452 14.8824
212.646 49.7469 20.397
122.779 34.4819 14.3095
148.4 28.5219 11.9162
124.886 23.6431 10.7645
113.439 30.8146 12.2834
135.67 33.4137 14.868
118.091 22.2188 9.46078
102.373 24.4094 11.957
126.786 23.9015 9.54971
143.792 34.5892 13.8669
101.996 38.2789 18.0857
131.236 31.6869 15.6592
95.1196 25.0513 11.9917
136.544 36.2015 15.1451
105.9 24.9751 11.5633
112.47 27.3557 13.4581
209.551 42.8297 18.0817
140.852 45.5259 23.6488
131.918 42.325 17.3025
147.84 40.7363 17.8758
124.731 39.258 18.6829
144.768 28.6671 14.9737
99.9265 26.3853 12.3962
143.42 31.1215 15.9465
127.599 34.9728 16.6133
148.439 32.4792 14.6029
107.486 29.3659 17.8512
127.258 46.3631 19.7498
133.438 26.154 14.3455
129.092 37.984 18.1625
91.6925 31.2687 17.4226
122.26 37.7203 17.5719
119.66 33.3542 16.4636
117.168 28.861 14.929
118.638 33.7788 18.2139
135.405 43.6921 23.1956
134.662 36.6867 18.314
115.816 22.6407 11.8814
91.833 23.3747 11.9583
75.7383 18.5632 10.0422
74.559 18.4135 10.9361
90.8463 35.1351 17.9232
149.403 33.7133 17.8568
124.143 31.6916 17.6839
65.8564 29.9182 16.872
128.453 36.5698 21.9673
163.342 39.8049 19.1879
119.304 40.7883 23.9081
124.752 26.1146 14.044
112.653 27.9772 16.2645
92.5632 25.055 12.763
134.502 39.4905 20.9827
100.667 22.989 14.6031
80.1222 20.4125 10.3011
110.103 30.3027 16.2914
74.325 18.1662 10.4078
106.887 27.1845 16.0899
102.536 34.3435 22.2174
100.688 31.5538 19.5023
70.0996 28.3559 15.8438
118.762 29.9075 17.19
95.0126 22.7823 14.5371
100.282 22.028 14.0453
120.931 31.8337 17.8979
88.7416 22.6005 16.1529
108.545 17.8096 9.23459
109.891 25.0572 14.9277
88.1868 20.1521 11.1614
80.8064 23.3848 14.2493
87.7933 25.3884 15.7431
107.127 26.5116 16.0527
82.8185 29.125 16.8654
109.565 27.4038 17.4007
67.6769 17.1223 10.5754
73.5166 20.7367 13.4038
89.2506 29.8048 17.4333
88.6581 32.0019 20.192
117.733 31.85 20.7001
81.1989 20.7191 14.1355
65.0844 31.7087 20.8699
81.7327 31.2869 19.9381
94.1498 29.6039 18.1779
90.1561 33.2784 23.4251
43.8522 26.1407 17.7749
67.7185 20.6473 16.1888
109.534 25.9446 15.6103
66.7044 22.3701 15.644
117.609 37.3512 25.8087
86.5043 28.9441 18.6393
75.7034 25.4169 18.6698
65.3738 18.8713 14.4368
112.189 24.5364 15.1744
67.5442 33.4178 23.4969
79.6943 20.0491 12.4476
69.7577 21.8666 14.0172
52.475 16.7313 13.2034
69.5612 22.9888 16.0088
86.4737 23.8858 17.2499
71.5159 17.6882 10.7486
67.1126 19.6432 13.9197
105.046 39.6116 29.45
105.634 26.6846 20.6244
104.855 31.4321 22.7829
73.213 23.4166 17.5407
57.2045 11.2421 9.29891
72.9939 27.8468 19.8646
90.0799 24.8235 17.7298
61.5677 27.4806 19.5028
49.2103 22.778 17.3465
52.1895 16.4169 13.7122
80.1024 28.5026 19.9953
73.2474 26.7602 20.4475
73.6867 27.5951 23.0627
55.4653 21.8116 15.1477
62.5912 23.5572 20.9004
54.1706 20.5464 15.7741
55.5318 19.0974 16.1312
54.696 17.9415 13.4521
57.1951 18.3619 15.6623
77.7562 28.9027 20.6611
66.4249 20.8096 16.9224
62.3545 16.4517 13.9955
66.6557 26.5529 19.3601
58.9464 22.9184 17.4968
74.0528 26.7294 24.9741
83.9182 29.2012 23.0219
86.2712 23.3303 18.7477
85.5565 29.5263 24.263
61.2839 26.4736 19.376
68.0663 28.6578 24.5164
61.4686 25.0061 22.9996
67.5599 23.5363 20.3781
54.3066 29.4823 20.1888
45.4652 19.9652 19.0576
81.9143 27.9432 27.9802
48.4223 22.1242 13.9975
50.4231 23.7806 20.0023
66.8506 28.3862 21.2558
57.6463 26.4201 22.0895
64.3826 25.1318 21.9668
60.685 31.4187 26.1201
67.3427 26.3371 27.2603
59.0483 17.5818 12.4216
48.1192 18.3994 16.0418
61.2695 24.2855 22.0991
48.1705 17.089 15.9654
43.3198 19.0881 18.3281
61.6292 19.7587 17.9085
48.7881 21.7985 17.3821
57.6332 24.6719 22.2101
50.2108 23.7555 19.5988
55.3589 23.8812 19.9044
37.7941 15.2323 14.2618
59.616 17.1841 15.6703
49.3737 16.5694 16.3459
41.5273 18.7526 16.3269
48.0462 30.0194 27.1026
53.5974 18.9255 22.4288
48.6992 22.9339 21.7253
85.2316 25.7535 18.5095
48.212 14.9149 14.2845
47.5426 17.0386 17.6388
48.7656 17.9663 19.2808
58.8658 25.5642 20.7346
51.4146 15.9882 14.7891
55.7727 26.5067 26.6677
49.675 16.7397 13.4009
43.94 16.1624 18.0586
66.7137 25.0312 24.568
34.561 19.8253 18.1784
52.6651 14.9945 16.1359
50.2941 15.3866 13.1219
51.8482 23.4096 25.1843
52.9414 26.0657 25.394
59.118 23.6374 23.5012
45.587 17.3392 13.6097
35.96 14.598 15.4155
63.5218 21.1936 20.0852
38.6188 19.4014 24.5216
48.743 29.4471 24.2571
48.4186 21.3407 20.6365
37.2366 12.6211 14.9073
36.4109 10.5518 10.8289
56.5961 26.4572 24.9224
48.9534 19.518 20.2028
39.3826 17.2777 17.6413
41.5352 14.3832 15.593
36.9824 18.8751 19.0728
50.4092 16.4646 19.2539
47.3462 21.8287 20.3571
66.6834 25.294 28.5203
38.9919 25.2286 24.2666
45.5009 19.7228 22.8159
48.9506 19.5623 23.102
38.2219 16.4348 15.3582
47.4788 16.5167 18.4902
37.7029 12.9891 13.8937
42.4004 13.4353 15.8032
39.514 23.9245 26.6158
65.2289 25.9377 25.3245
54.3592 20.1227 20.0299
46.4025 19.9426 21.1742
41.143 13.814 14.0301
28.2713 11.8014 14.9624
51.0763 21.4703 23.2559
41.3419 21.5226 24.4043
51.5941 19.4913 19.8445
47.1767 21.9326 22.7399
46.5577 21.5073 26.004
39.2553 16.6595 17.163
49.8365 16.8711 19.5844
47.2826 22.0945 24.382
42.4077 24.7389 29.6987
33.642 15.2084 15.2731
29.8734 16.1019 20.0667
48.2507 24.8521 24.9679
33.3809 16.8221 19.794
30.3935 23.0579 27.0589
50.9457 23.8079 28.5705
37.2124 14.1461 18.7225
53.607 20.0284 21.3383
46.2346 14.803 17.9149
47.979 20.0632 23.7405
40.6503 17.7167 19.2009
24.3527 10.2522 16.9314
38.8638 18.5412 18.3383
37.3508 17.4287 20.6052
37.9141 17.9812 17.6924
17.9533 11.6571 16.061
31.6142 14.2047 16.3074
36.6636 15.9761 19.7477
33.5961 12.9205 16.2745
50.0844 25.1437 28.4967
27.2875 15.1582 17.8856
29.4629 9.27244 10.3568
37.5748 20.3412 24.7948
31.0764 17.4888 20.4656
30.1938 14.108 17.8288
41.4471 21.9045 31.0123
38.2467 13.2913 16.9115
34.752 11.7204 20.8449
50.0462 20.471 20.9213
50.8339 20.8133 21.2511
43.9045 24.5552 30.7599
32.6051 18.329 25.9617
28.1931 11.9366 17.5076
32.0199 20.1337 26.6266
41.0762 22.1479 28.9799
32.4282 21.7396 28.1665
44.1226 15.7803 15.9648
35.3375 14.8212 17.4471
34.3781 15.6769 19.2781
39.4113 17.8968 21.4955
39.4834 19.8185 26.1766
30.1145 18.4059 25.7252
32.2142 19.9271 22.0965
26.4321 19.5018 27.1634
32.4832 14.9698 21.6089
38.555 11.7366 17.9737
43.2809 24.6583 28.2318
32.8574 15.4799 25.7934
30.849 16.8077 18.8805
39.1744 13.9671 17.5557
27.9926 15.8739 21.3304
24.7629 9.7247 15.5461
28.6229 15.8672 18.3636
33.9775 14.8132 20.8166
22.2949 12.5588 17.3218
22.3514 12.2341 18.8981
32.4226 18.3361 20.336
18.2311 6.92201 12.7165
23.7835 11.9805 14.8899
36.2983 15.0152 19.5449
27.966 17.5504 24.494
26.0322 16.3666 25.4552
27.9282 10.7291 14.4892
27.4551 21.1527 28.7613
37.6714 17.8806 25.506
32.1518 18.0154 24.5682
30.6607 8.13646 13.8113
24.2801 12.1554 15.3568
33.5178 15.1557 20.6461
27.1037 12.1026 16.2406
30.2342 14.4478 18.8353
28.1506 15.8829 24.0899
25.0542 13.5258 18.2588
24.5272 10.9304 14.5607
32.4411 16.0159 24.5595
35.9518 19.1081 25.1742
42.053 23.4046 27.3391
30.2236 11.7231 21.5217
27.233 15.5674 21.6667
25.8233 12.2691 19.6361
27.7222 11.2506 21.8131
25.2536 14.01 19.3857
25.9074 12.851 19.0791
29.1315 13.592 17.5838
25.5057 10.3123 21.0189
28.6582 14.8117 23.5908
25.5347 14.688 18.0796
23.9979 14.2575 21.0128
26.8416 11.9214 21.2135
24.1477 13.9326 20.5921
28.1056 6.68036 9.70268
24.4697 8.48596 12.3692
25.0909 16.9916 20.3138
21.3913 11.902 19.508
31.8287 14.4882 21.6423
31.5973 13.1127 17.6507
28.0413 13.4926 18.8523
29.4459 12.8387 21.0418
26.421 10.3511 18.7786
25.0651 15.7572 24.5307
29.8046 12.9932 20.1304
20.9377 10.3671 19.2113
23.7818 16.2406 26.0358
29.387 14.1016 24.2171
27.5605 18.7821 22.6532
22.2836 13.4708 21.8025
23.3021 15.091 25.7317
25.8543 12.5931 16.5993
20.8195 14.0739 25.0851
27.8866 19.6507 34.1594
36.9165 17.2621 25.9014
25.2484 10.2946 16.2375
25.993 12.3206 17.09
23.9071 9.32107 13.613
23.1074 7.89306 15.5468
25.5521 15.2794 18.2366
22.4802 13.914 23.3314
31.0288 14.8033 23.9312
27.8839 12.8927 25.667
24.2855 11.1724 18.5754
22.5731 8.11618 12.6842
24.1691 12.5042 19.9639
26.1191 11.2882 20.4172
25.2538 12.1654 20.0534
24.6837 10.5669 14.7268
21.6785 10.0689 15.8769
24.9682 12.4601 22.2609
27.4191 13.1118 23.4462
21.3059 13.7123 19.864
29.4288 12.2067 23.2564
26.3769 14.1677 21.5468
22.0454 9.56909 15.2901
26.8764 11.8907 19.5539
24.0982 7.62457 16.3008
23.4096 11.3431 16.2053
27.0186 11.2518 19.7496
24.6333 16.4675 26.6286
27.8994 13.7726 23.0129
26.3929 11.0687 20.1124
24.4597 13.5187 21.8462
21.2777 9.92253 19.0108
21.4689 13.354 25.362
25.2872 10.3042 15.554
29.0462 17.6181 31.5419
18.7238 14.8661 23.2147
18.8473 8.3216 17.9543
23.9839 11.6843 23.089
17.4874 9.83671 21.389
24.4765 13.4638 18.2694
19.4645 12.5046 23.1274
16.9404 10.2414 13.731
18.7388 10.1039 20.0531
20.7865 12.3769 17.7596
15.0001 10.0078 21.3018
22.9631 11.4585 20.187
24.6459 9.66204 17.1733
21.8684 8.36775 12.7333
20.3168 9.15406 18.2678
27.7535 12.8713 21.5174
20.4069 10.3628 16.3427
20.5078 13.2759 30.749
19.587 10.817 19.9666
22.5883 14.2535 23.9083
26.3598 11.0509 18.2255
19.605 8.46233 17.8608
23.4811 9.48343 13.1695
16.8022 6.55673 16.0245
20.9332 14.6579 25.6385
19.7901 10.2552 21.9845
19.7834 11.3907 16.2103
20.0713 8.85215 14.7751
23.7103 12.5651 29.6889
20.6747 14.1643 22.7991
17.524 11.314 17.9535
17.2718 10.8955 18.485
20.901 11.6283 25.9213
22.9067 10.0857 17.8962
18.8001 11.0834 24.6197
25.1023 10.844 19.4096
21.9053 8.13894 14.511
16.4576 7.4973 14.9776
16.2595 11.3931 21.1293
19.0429 11.3121 23.21
18.7654 8.3067 14.8455
24.7653 13.3703 23.0869
15.3453 8.16261 14.8285
22.1098 10.1966 16.8369
17.2656 9.10107 20.0301
19.2196 8.40179 18.6115
23.4712 12.5777 21.687
16.4812 10.4412 17.924
18.7994 12.4048 28.0422
23.5649 11.1378 19.267
17.6042 8.28654 15.7957
21.3754 8.68909 21.5114
16.4384 10.6515 23.1644
24.3689 12.9944 21.8405
23.2623 12.1947 25.0907
14.4351 9.92935 19.711
15.4577 11.1401 23.3704
14.1091 6.89425 18.2115
25.8039 10.9827 18.7694
18.5219 11.5202 20.3451
20.6845 10.4973 17.5115
18.3251 8.85338 19.6926
18.1719 7.44772 15.404
22.7683 9.95905 17.4256
17.9366 7.97409 16.9923
23.0653 7.24073 13.0076
18.7912 5.4581 9.65788
18.8166 10.0425 21.1714
16.8437 6.85284 15.4304
18.1285 8.83324 17.3907
17.7241 9.03979 22.4906
21.0259 10.3517 18.9749
16.7923 11.5812 28.8055
19.0111 7.16948 16.5928
17.1302 11.786 26.4531
15.7208 11.7055 17.4686
14.2895 7.93795 23.2216
21.4412 8.80562 17.5016
18.2428 12.352 16.9309
20.7752 9.54304 22.8988
12.4213 6.84929 13.258
14.14 8.02625 17.8838
14.8386 7.80726 14.5704
17.4958 8.73777 18.7898
17.3526 9.8982 17.3066
16.1098 6.1648 13.8615
15.0828 7.5654 20.7556
20.3025 8.63117 16.0043
16.7236 10.8827 23.9076
18.1342 10.3323 24.3466
17.5569 9.52538 15.0657
13.9811 9.43954 20.9969
16.8661 7.72486 15.5083
16.9286 10.306 18.828
15.5447 4.89793 14.5086
18.0087 9.73402 20.2038
16.0787 10.5494 26.6427
18.6685 8.34126 15.8558
15.5492 7.68124 14.838
14.5662 7.08451 17.8167
13.5286 8.16418 16.3331
18.3657 7.33571 17.2363
15.6965 7.6444 19.3438
15.7013 10.9345 18.6243
17.4793 10.2208 17.257
12.5139 7.62293 15.8476
16.2587 10.0938 30.9512
24.2795 10.0978 16.1758
14.7816 6.22779 15.452
18.3844 6.71388 13.7168
19.4984 7.7384 15.7815
17.814 10.7127 24.7309
11.8339 8.18077 18.6854
20.5382 10.9978 24.3337
18.3774 8.39253 20.1109
18.3194 9.95385 18.4054
16.7983 6.28537 13.8459
12.1909 7.12349 19.8303
15.5541 10.8163 23.8155
10.7822 7.5771 17.9894
14.5119 6.97685 16.262
13.1744 6.46816 14.1968
16.1153 6.24613 14.8161
17.5311 8.29928 19.8896
16.8048 9.29658 18.2948
17.0492 9.26489 20.5581
15.0751 6.09235 13.133
16.4907 13.4693 23.1915
17.4047 7.63741 18.9401
17.5053 9.15246 20.2855
16.3536 7.1239 17.6864
13.6034 6.88756 18.0174
15.7405 7.58474 26.7538
17.6666 10.2023 14.8427
15.966 7.35908 19.8892
14.9663 5.78546 11.7941
19.9165 10.6582 28.4811
19.3923 8.80209 13.3545
13.2582 8.33966 20.0506
12.4239 6.80229 12.586
15.3153 9.77519 24.5679
13.9434 6.85718 13.3369
15.0178 6.46081 15.5797
14.0483 8.58838 18.1435
17.7179 8.60668 23.9214
14.9305 10.0817 19.0566
14.6925 5.72047 14.7009
14.8172 9.6894 23.7313
15.1829 10.1491 21.7338
13.6887 6.36633 17.1094
15.1163 8.90435 22.4469
10.2926 7.88877 18.9568
13.8973 8.71297 17.9848
13.5211 7.7293 20.519
14.4945 6.66991 14.0097
13.2339 5.8767 12.9893
11.9476 5.05816 10.9319
12.7 5.16616 15.4309
13.1036 4.52105 10.9255
14.285 7.86375 19.6746
20.2782 10.7165 25.8922
12.1618 6.1877 19.5129
15.1086 10.6398 26.6351
18.3753 11.14 22.3713
12.6726 8.11248 19.8121
14.8983 6.95438 17.4689
13.9375 6.01298 11.83
13.2237 8.5642 22.3844
10.9079 6.61725 17.9979
16.207 7.45271 12.6762
11.8414 4.10365 10.4791
14.7483 8.737 18.8512
14.5599 7.22247 18.2395
13.6167 4.90486 15.5563
14.6482 8.29284 19.4219
