# pn-170911/CsIIF-av-USN3-1280-1959.psd
# Power spectrum* (dif=0,1,2) (really just |FT|^2)
# NOTE: only the first half! (symmetric)
# weeks: 1280-1959
# 625 clock-days, 145 excluded
# PSD: 1441
15198.3 0.429031 0.0407374
649425 15.4917 0.0237575
1.80132e+06 31.7563 0.02455
833367 31.1328 0.0228021
524503 34.6208 0.0260128
286165 29.4726 0.0263994
226489 31.5345 0.0294433
156020 31.3964 0.0298239
124490 32.2066 0.032349
96478.4 30.2884 0.0359167
72238.9 27.9852 0.0364354
63783.5 30.5317 0.0397811
53957.6 30.9605 0.0427455
45093 31.0675 0.047507
42361.8 33.5519 0.0558733
33706.9 30.4958 0.0552105
30464 31.4396 0.0602729
26350.9 30.3415 0.0645755
23328.9 30.1617 0.0676065
20262.6 28.5118 0.0717876
18338.7 29.8431 0.08124
16377.1 28.6677 0.0802366
15200.6 29.334 0.0890677
15968.9 32.2278 0.106198
13369.1 30.9256 0.104374
12792 30.9093 0.116683
12078.5 31.9372 0.126999
9646.58 28.1162 0.117952
9637.6 30.7047 0.134224
9401.96 31.8908 0.148916
8689.95 29.7244 0.150619
7627.8 27.86 0.152033
7565.2 31.2723 0.172497
6983.88 30.918 0.184363
6498.73 30.1227 0.186131
6174.23 29.259 0.191528
5913.44 29.742 0.20685
5414.41 28.8574 0.207873
5255.38 30.2904 0.239454
5173.54 30.9506 0.251923
4696.78 30.8852 0.254893
4287.61 28.4096 0.252297
4456.08 31.2042 0.29034
4012.03 29.406 0.283364
3905.88 30.9412 0.310041
4102.89 32.6533 0.337905
3574.67 28.6677 0.319496
3406.93 29.4671 0.32862
3285.84 30.0492 0.35445
3101.84 28.2357 0.344858
3068.3 30.5213 0.390025
2762.88 28.2168 0.359276
3088.01 32.0954 0.433656
2703.79 29.7037 0.419604
2677.46 30.9132 0.453919
2495.46 30.6256 0.470555
2399.05 31.0008 0.487345
2292.36 28.9348 0.461317
2249.97 29.8832 0.496095
2077.96 27.9038 0.483452
2240.74 31.8372 0.561198
2118.1 31.1598 0.578592
2090.68 31.5898 0.598071
1846.94 27.7501 0.545946
1930.78 31.2747 0.639075
1693.02 29.0932 0.607214
1706.8 28.9257 0.623119
1593.82 27.7779 0.608512
1629.62 29.1985 0.653176
1541.36 29.2031 0.67744
1456.47 27.6183 0.671192
1451.72 29.2869 0.724716
1415.37 29.098 0.74319
1471.38 31.0686 0.809241
1423.23 29.3459 0.78332
1237.87 26.6936 0.738446
1314.36 30.6099 0.85081
1283.06 30.4773 0.877249
1214.39 29.5499 0.874167
1235.1 29.558 0.896324
1232.73 30.6658 0.95734
1135.05 29.9499 0.972182
1142.69 29.867 0.981216
1144.83 31.3252 1.06062
1100.53 30.5492 1.04676
1098.21 30.703 1.06194
1114.87 33.2888 1.19707
1057.18 31.4892 1.13545
1009.76 30.4407 1.12786
993.024 30.9136 1.18221
933.089 30.0892 1.18523
921.763 30.7704 1.22674
918.62 30.747 1.26146
865.088 29.9466 1.25111
873.818 30.7657 1.30721
879.174 31.9326 1.39007
806.233 29.5538 1.31278
790.697 28.4245 1.27832
810.281 29.9161 1.38665
794.407 29.8887 1.40301
729.968 29.4878 1.42236
722.662 29.8519 1.46969
735.595 30.2334 1.50917
721.188 30.5216 1.55128
685.412 28.9146 1.49581
700.515 30.8264 1.61967
685.265 30.4943 1.63951
701.724 31.1872 1.70193
681.202 31.2923 1.7582
663.697 30.7126 1.76038
631.702 30.0575 1.73089
627.769 30.922 1.836
599.382 29.9134 1.79796
644.283 32.9523 1.99074
578.284 30.7228 1.90555
550.235 27.3601 1.75278
549.087 28.5654 1.84126
551.108 29.6865 1.94557
551.903 30.7388 2.02681
524.195 29.0398 1.96957
560.632 31.4087 2.14936
538.558 31.4168 2.18602
494.147 29.9339 2.10711
494.625 28.661 2.0849
494.293 30.03 2.18338
502.007 30.7865 2.32534
462.579 29.5175 2.24653
475.855 29.5856 2.26645
482.394 31.7752 2.47689
460.426 29.4461 2.33367
429.948 29.4598 2.37495
438.782 29.7638 2.45846
438.136 29.2737 2.44517
425.47 29.0014 2.44069
432.826 29.8968 2.54609
422.954 29.6419 2.57286
428.465 30.5175 2.69885
390.589 28.9774 2.59498
409.726 30.0354 2.70778
383.394 29.6605 2.71959
410.5 29.958 2.79167
414.509 32.4509 3.06176
393.783 31.9033 3.02344
384.568 30.0282 2.90774
394.267 31.5753 3.10113
368.315 29.947 2.98193
384.668 31.4202 3.20819
375.752 31.7218 3.25181
361.339 30.5848 3.18035
337.382 29.7586 3.13353
336.998 28.8212 3.05714
353.399 31.7883 3.43014
334.77 31.5595 3.45517
330.206 29.3263 3.26658
314.482 28.0212 3.19906
324.557 30.8151 3.49925
311.588 29.5913 3.40871
316.057 31.3188 3.62804
293.609 29.1716 3.38885
313.654 30.6986 3.66249
291.368 29.7179 3.6481
279.793 29.5535 3.62355
295.731 29.5197 3.66557
293.331 32.1633 4.05253
281.097 28.826 3.70001
277.976 31.2425 4.00548
270.816 30.4186 3.99763
274.175 29.1243 3.80356
275.797 30.9298 4.09338
258.441 29.3177 3.96109
253.841 29.7776 4.07499
271.373 31.6091 4.34272
253.367 30.0588 4.28736
256.041 29.6133 4.18667
247.054 28.989 4.12681
243.322 27.4677 3.94891
257.018 29.9055 4.38747
249.414 29.8642 4.38387
232.442 28.8163 4.34332
235.372 27.723 4.18101
227.93 29.3911 4.54631
245.538 29.8822 4.59237
240.785 31.168 4.84723
232.13 29.9021 4.75257
230.833 30.7586 4.93952
219.034 28.9963 4.59077
217.765 29.2182 4.88603
222.347 30.8877 5.01952
214.985 29.3718 4.92517
215.508 29.8 5.03058
226.198 31.5793 5.35735
207.175 29.6768 5.12302
210.859 30.0649 5.12512
196.071 29.297 5.17794
208.487 29.3563 5.17447
207.51 30.6427 5.4337
197.079 29.3298 5.33582
194.925 29.1303 5.31822
195.872 29.4165 5.36948
193.002 30.1195 5.62037
195.917 30.8816 5.78145
186.807 29.0919 5.54509
176.113 27.5518 5.22997
188.291 29.9304 5.78091
179.507 30.7953 6.01042
178.545 28.8061 5.69525
184.777 29.4776 5.85311
186.526 31.4848 6.44303
197.671 34.0544 6.86423
176.674 30.462 6.12595
174.119 30.5412 6.27532
164.68 28.7883 6.07608
167.112 29.4414 6.15688
166.95 29.2213 6.24113
165.794 30.2598 6.52806
170.492 30.3306 6.67423
156.368 28.6569 6.19621
157.382 29.2232 6.39888
156.684 29.0415 6.53928
159.678 30.2823 6.79903
161.864 30.4679 6.91072
160.056 30.2682 6.90954
160.885 31.2216 7.21054
163.303 30.9968 7.1527
147.934 29.1431 6.86614
142.143 29.0975 6.92676
166.332 30.8274 7.31945
145.938 29.7466 7.1243
144.63 29.3564 7.13095
144.156 29.4073 7.20381
139.654 28.5857 7.03437
146.961 30.0407 7.4698
142.516 29.3297 7.44567
135.474 28.9232 7.46258
138.342 30.6132 7.87708
139.988 30.0754 7.70786
125.961 28.6705 7.46624
133.265 27.8148 7.34852
135.75 29.5611 7.69207
132.724 30.289 8.10004
133.822 30.7501 8.29173
136.223 30.0981 7.91915
127.672 29.3201 8.1155
131.339 29.7893 8.24182
120.264 28.0164 7.83727
127.422 28.6286 7.96884
125.545 30.5592 8.64404
122.019 28.4453 8.12656
122.291 29.8461 8.46279
115.84 27.2114 7.9623
121.995 28.5471 8.18174
113.628 27.5091 8.15652
118.705 29.817 8.87149
118.851 28.7402 8.38457
121.511 31.421 9.3687
126.99 32.4581 9.74837
117.078 29.599 9.11383
122.069 30.5035 9.34149
116.428 30.9476 9.65592
121.435 30.9128 9.56046
117.096 30.1471 9.47367
117.011 29.5418 9.21942
119.93 30.906 9.88617
116.194 30.2739 9.69367
112.061 29.3411 9.48203
111.459 29.1202 9.54333
116.158 31.0444 10.0667
105.063 29.5401 9.76922
112.826 32.2381 10.6568
103.716 28.155 9.64056
100.77 29.0506 9.72006
103.683 28.343 9.81935
101.876 28.8148 9.81659
98.6937 29.0108 10.108
104.363 30.8603 10.7649
101.32 29.5579 10.3444
99.1253 30.0159 10.557
97.26 28.6053 10.3517
104.945 30.5515 10.7654
101.044 30.2192 10.8344
101.675 30.6392 11.0822
100.408 30.591 11.2488
101.719 30.664 11.351
101.269 29.9416 11.0706
94.1908 28.6708 10.6155
93.7055 29.5888 11.1168
88.849 27.8245 10.4114
93.5802 29.3942 11.4562
94.1636 30.9483 11.7969
98.7384 31.6588 12.0739
91.7728 30.9513 11.9049
89.8572 29.1731 11.4753
95.1537 30.7607 12.0509
87.1859 29.7405 11.87
86.1702 29.1287 11.7044
92.2187 30.9392 12.4498
85.4886 28.1226 11.3314
91.4422 30.3837 12.1952
85.5062 29.8406 12.156
82.3591 28.5046 11.9458
80.7347 28.3866 11.7871
94.0338 33.2812 13.5536
85.4621 29.534 12.54
87.8048 30.5367 12.8977
84.2788 29.1722 12.4466
85.6047 31.0442 13.3515
84.0078 30.1283 12.9823
85.451 30.2264 13.3749
78.7346 28.1244 11.9646
80.0139 28.8003 12.6199
81.4039 28.6494 12.7066
85.539 31.6327 13.879
86.5505 30.2549 13.5744
78.87 28.7634 12.9058
78.3004 29.4772 13.1475
77.2683 29.5338 13.4843
82.8062 30.2451 13.7665
81.3213 28.7217 13.2316
78.7677 31.904 14.8437
70.8862 27.8875 12.9426
75.3734 29.6283 14.1913
80.8939 30.9103 14.7063
77.0523 30.5024 14.3189
78.5268 30.2845 14.2597
80.0752 32.0186 15.3751
76.8016 29.9303 14.2639
76.0583 31.5084 15.5096
76.3623 30.5354 14.6455
69.6992 27.6727 13.7543
72.2081 30.6046 15.2235
70.9352 29.2881 14.5184
66.3038 28.109 14.3319
72.7643 29.0066 14.3131
68.0162 28.4615 14.259
70.8167 30.1023 15.4073
72.2551 30.9145 15.7359
68.8573 28.9495 15.1536
70.1887 30.1839 15.5504
64.5784 27.5866 14.6893
67.1822 28.9949 15.1658
68.153 28.6882 14.9972
68.5205 30.7162 16.4551
65.3194 28.8868 15.5148
66.9091 28.0991 14.7984
68.7258 30.6028 16.5214
66.7851 29.1496 15.8048
67.191 30.032 16.499
67.7282 29.0882 15.7866
65.9157 30.3089 16.548
63.5177 29.7665 16.5014
67.6973 30.2189 16.639
62.8953 27.2168 15.3474
62.3082 29.2798 16.3019
61.0324 28.9602 16.6632
64.8504 30.006 17.0637
62.1186 29.8339 16.7097
64.3809 30.2912 17.3592
63.4931 30.9499 17.8292
59.4788 28.7655 17.03
59.3036 29.8048 17.5676
57.8928 28.0953 16.3198
62.6425 30.2719 17.6539
59.586 28.8805 17.2937
60.2306 29.2651 17.4025
59.1657 28.7721 17.2939
59.1847 29.7715 17.8666
62.4744 31.6549 19.2696
59.219 29.8104 17.9639
53.2968 26.6167 16.3095
60.3921 30.5885 18.5594
57.4454 29.4858 18.3897
55.2133 28.5482 18.0816
58.2307 29.3799 18.4116
58.4259 30.5119 18.8217
55.6315 29.6764 18.8846
58.0341 29.2703 18.4224
57.0537 30.3135 19.2965
53.0205 28.2324 18.01
54.4696 29.5408 19.344
54.8056 28.832 18.5336
58.1864 31.5437 19.7489
51.3044 26.8308 17.6765
53.8021 29.3645 19.8546
55.8458 28.8492 18.7215
56.5008 29.27 18.9348
51.9072 29.4561 20.0087
55.0997 30.1502 20.141
50.4437 27.9688 18.9631
52.4618 29.8689 19.8884
48.5894 28.1841 19.2764
49.2767 27.9498 19.4526
53.2141 30.5786 20.9614
51.094 28.2639 19.669
55.8829 31.0144 21.1278
49.7907 29.3366 20.509
53.8184 30.494 21.2975
48.952 27.5184 19.4069
48.6772 28.5159 19.7889
49.1951 28.9601 20.607
53.0917 31.0506 22.0267
47.368 27.9777 20.0303
49.6876 29.1537 21.272
48.7289 29.7408 21.7237
48.6341 28.9832 21.102
50.6127 31.139 22.7768
48.498 29.234 20.9524
44.9146 26.4998 19.9739
47.9652 29.3372 21.5437
50.453 31.7671 23.2412
47.8985 29.3523 22.0087
46.9643 28.913 21.5181
46.4136 28.1298 20.8316
44.049 27.1851 20.9203
46.0888 29.3178 22.4879
46.1832 28.1877 21.8011
45.4659 27.9893 21.0364
46.0364 29.3047 21.9816
42.9858 27.8604 21.6226
43.2614 27.8876 21.7904
43.6577 27.989 21.8449
44.1366 28.8888 22.452
45.8249 29.2084 22.839
44.6311 28.3444 22.7141
45.8555 30.0866 23.7764
41.3542 29.1748 23.5939
44.8552 28.9171 23.3242
45.5081 30.1499 24.3118
43.7899 28.8885 23.3691
44.2728 29.2054 22.9458
42.3089 28.8677 23.9836
43.0006 29.712 24.6398
41.8599 27.2123 22.0304
41.9541 27.8803 23.1854
42.4799 29.5268 24.5966
44.4781 31.0817 26.5271
41.8691 27.8563 23.0623
41.1488 28.6916 23.628
40.6517 28.6941 24.8429
43.2316 28.432 23.5896
40.5922 28.8219 25.0255
43.9235 29.7499 25.2655
41.5613 29.2943 25.2649
39.3748 27.7553 24.4585
42.0806 29.0239 24.4804
37.929 28.9064 25.7749
41.4055 28.9781 25.3486
39.2391 28.0996 24.4141
41.3311 30.0893 26.029
39.4323 27.5885 24.1061
39.2551 27.9947 24.3146
38.677 28.5059 25.2713
36.3983 26.8272 23.8403
36.0524 27.2368 24.556
37.8472 28.6682 26.742
41.4961 29.6794 25.9807
40.466 30.4347 27.3639
35.4341 26.5507 24.572
38.571 29.4066 27.5795
40.103 30.9279 27.9186
39.1643 29.415 27.0163
36.9464 28.3344 25.9921
38.0895 29.6184 27.8065
37.7827 29.9006 27.7253
39.8571 29.7305 28.0881
38.7827 28.7209 27.2436
39.4055 29.9503 27.5224
33.8785 27.3936 26.3753
36.589 28.4559 27.3467
36.0531 28.5401 27.5575
35.2051 27.08 25.8242
36.9875 29.2005 27.2481
34.214 27.876 27.6381
36.5308 30.5033 29.3231
34.2903 27.6229 26.1922
34.5267 29.0297 29.3485
35.52 28.5667 27.5825
35.2944 28.3406 28.1119
34.7092 28.4471 28.1961
34.3177 28.7371 28.3139
34.0349 28.2769 29.1546
36.8414 30.0228 29.4114
34.8784 29.4008 29.3688
34.229 28.4915 28.634
34.1329 29.1911 30.202
36.4677 29.5065 29.5345
33.8524 28.5586 29.042
36.8769 31.5589 31.9659
34.5062 29.2931 30.1424
33.5357 28.287 29.3085
32.5476 27.9617 28.6678
35.7486 30.4926 31.8663
34.243 28.9368 29.8909
32.9251 29.0159 30.5752
32.6916 30.1786 32.3808
35.0705 30.0682 31.5413
34.086 28.9245 30.7161
30.2428 26.7688 28.9834
35.0422 29.4827 30.536
30.2873 26.7097 29.1402
31.9282 28.0477 30.9529
34.8149 30.19 32.0244
34.1893 29.6927 30.7881
32.0145 29.2085 31.93
30.9002 27.6995 30.7788
32.2952 29.3848 32.4219
31.1475 27.1887 30.3727
31.1993 28.7111 31.3994
33.9302 30.1868 33.3832
33.0754 29.1457 31.4519
31.5461 28.5145 31.0752
28.3072 26.0039 29.3692
28.8414 27.2095 30.5922
30.6346 28.5354 31.6672
32.0839 29.8366 34.4675
31.2048 28.5641 32.0071
30.1001 28.2848 32.3133
30.7624 28.9123 33.2337
32.6507 29.9712 33.0611
29.7685 29.2063 34.5895
31.6357 29.0338 33.414
31.2316 29.7261 34.1447
31.7793 30.6262 34.4977
30.3626 28.6336 33.3852
28.9133 28.7241 34.2431
28.9146 27.935 33.6061
30.5167 29.0872 33.708
28.2123 26.8987 32.2584
29.3909 28.9138 33.9574
29.3686 29.124 35.3324
29.6568 28.5563 34.3518
30.9227 30.0746 35.5914
29.2465 28.8619 34.1276
30.474 31.2863 38.6196
29.2042 29.0224 34.8016
30.7685 30.6551 36.6451
28.9185 27.4 32.742
30.0834 29.0639 35.0682
26.7817 25.8657 32.3244
27.4898 26.5638 31.849
27.2286 28.2079 34.1638
26.2551 27.8016 36.3793
29.0416 30.2662 37.831
29.4537 28.9755 35.3697
27.7454 29.2552 37.2317
29.6935 29.9915 37.3868
26.8937 26.9842 33.5954
26.7955 28.2997 35.9289
28.0668 28.6563 35.8951
27.4274 28.924 35.9737
27.2319 28.5665 36.352
26.6079 27.7629 35.7732
26.7745 27.2226 35.1168
26.9106 28.616 35.7628
26.6718 29.1829 37.8267
27.1463 28.6551 37.2916
28.4053 29.8595 37.045
25.9622 27.1397 35.8479
27.4907 29.5743 38.5113
26.637 29.124 38.0783
26.4083 28.4849 37.8624
26.1382 28.3568 36.7598
26.7603 29.5889 39.0061
26.8749 30.2955 41.248
26.1333 28.7776 38.3157
24.453 26.7811 36.8421
28.362 29.8641 39.7009
25.7831 28.3972 38.9428
26.5377 28.7495 38.5528
26.4394 28.1538 37.2966
27.0346 30.418 40.8218
24.8609 28.9949 39.3328
24.6036 26.6967 36.7657
26.2332 28.8777 37.9617
24.1252 28.0077 39.2072
25.8461 29.552 41.1216
25.1678 27.6448 35.9693
23.1746 26.282 37.6538
24.3264 27.9092 38.3944
24.7219 29.616 42.1317
25.8017 29.5552 41.6632
25.9326 28.9751 39.087
23.7964 26.724 37.3994
24.0773 26.8725 38.3274
25.5684 28.9606 40.4607
24.5719 28.2972 40.8018
24.4142 28.4178 38.8823
23.071 27.6436 40.4179
24.2894 29.8543 42.2248
23.5548 27.5936 41.4338
24.2701 26.6392 37.5576
24.2008 28.7104 39.8976
23.6308 29.5714 43.579
23.4022 27.2139 39.3142
23.379 29.549 41.2846
22.2767 26.6229 40.1595
23.1605 29.0044 43.1964
25.0516 29.309 42.6205
23.068 27.775 40.3212
23.5968 28.2209 42.3666
23.0178 27.7056 42.2173
25.5262 31.0284 44.9274
22.4596 27.5558 40.2736
22.9718 28.3191 42.7902
23.933 29.4456 43.888
24.3342 28.4791 42.8237
23.4027 27.6878 40.7303
21.4767 26.5001 41.2182
23.3791 29.0851 43.8667
22.754 28.7987 43.7502
22.7947 29.0571 43.855
21.7468 27.2565 42.8825
23.8463 30.9377 46.1735
22.7474 28.2237 44.1606
23.2252 28.8334 43.8843
22.8687 28.658 43.2387
20.6873 26.2511 41.4968
21.9454 27.5576 43.2119
23.12 29.1747 42.9768
20.7116 25.843 41.1927
23.6237 30.4071 46.3368
21.3145 27.135 43.1397
22.489 29.4113 47.3854
21.9296 27.1279 42.3281
22.8702 29.9378 47.1965
22.339 29.8854 47.5203
21.9804 28.4167 45.656
22.5369 28.8342 45.0428
20.3819 27.7446 45.2373
21.9638 29.4338 47.7154
21.3886 27.9758 44.1743
21.0574 27.9505 46.0638
23.2792 30.2125 46.9338
20.7962 28.7466 46.0096
20.7938 28.4368 48.4397
23.0257 29.8585 47.2259
20.7738 27.3348 44.6276
21.8441 29.5616 46.2753
20.1982 26.6299 45.9617
22.2929 30.1718 48.1698
20.7353 27.084 43.6131
20.6664 29.9635 49.5249
20.5293 27.3045 47.6477
23.1317 30.2351 48.743
20.4992 28.3568 46.6905
20.0925 27.318 46.0944
21.141 30.2 51.9003
22.5642 29.342 47.5711
20.3287 27.9362 47.5007
21.9157 29.7989 48.4128
19.1085 27.2147 47.4271
20.2015 27.6374 46.3903
20.5742 28.5512 47.5055
19.5936 26.718 45.8949
19.6795 28.8983 50.521
20.9983 30.3272 51.8307
20.365 26.667 45.5687
18.5053 27.4026 49.3136
21.3254 29.3404 49.7016
19.1221 26.7973 47.4426
19.01 26.793 46.8053
20.5493 28.436 48.1167
20.5367 29.975 52.7541
20.4561 28.9759 49.5835
20.0176 28.5303 48.426
18.9333 28.0694 50.3528
20.3856 29.4509 51.0756
20.1079 29.0579 50.3839
18.5155 27.0317 48.4559
18.8132 28.6858 52.792
19.9885 29.2233 51.345
18.9763 28.3281 51.4207
19.4259 29.021 50.7008
19.6893 27.7498 51.0075
19.1666 27.9458 49.5754
18.681 28.007 51.1818
19.4777 28.4959 51.3807
18.4842 26.546 48.0343
19.6445 28.6345 50.2277
18.3244 27.3124 51.039
19.7952 29.0176 52.4193
18.7315 27.6019 51.4878
19.3964 29.7374 52.9939
17.6599 27.2952 51.4988
18.4985 27.8497 51.3039
19.1034 28.3726 54.2298
19.1737 27.0008 49.0964
18.4578 29.5194 54.7065
18.905 27.8585 52.0559
18.5671 28.635 53.6042
19.8785 28.8087 54.032
17.4644 27.2655 53.0315
19.8959 29.0271 52.279
18.5077 27.6419 52.2912
18.0399 26.6044 48.035
18.8082 28.4775 52.7419
18.4876 26.7107 49.358
18.6094 29.1807 55.148
19.048 29.2485 54.3075
17.5777 28.3768 54.1497
16.9005 27.9791 55.1518
18.3418 27.845 51.9536
16.8959 26.2301 50.9731
17.7854 27.5309 53.0422
17.5668 27.0137 50.8909
17.7776 28.5768 56.0273
18.3506 27.3327 53.9283
17.4728 27.5797 52.7634
17.9036 28.4253 55.5076
17.75 28.2643 54.8009
17.2904 27.3165 55.2558
18.5505 28.7179 54.8163
17.3781 26.2749 50.6348
16.5606 27.2057 52.1664
15.9033 25.4106 51.5569
16.873 28.2371 55.8855
15.892 25.9126 52.694
16.7987 28.3109 56.2393
17.5045 28.1368 57.1248
18.1635 29.0067 56.123
16.7486 24.9388 51.3059
17.8566 29.5398 58.5002
17.0223 27.6255 55.2335
17.0826 29.4429 57.763
16.2089 27.9962 57.2611
15.7838 25.3886 52.5994
16.535 28.7405 58.2496
17.4097 28.9789 60.3868
17.929 28.9074 57.7734
17.71 28.3501 54.9971
16.3935 27.3138 55.6784
15.4469 28.0006 57.7786
17.0486 27.6344 59.9871
16.9769 27.8753 54.5738
17.033 29.0909 58.1768
16.411 27.0257 56.7566
16.9759 28.7518 59.1759
16.5993 28.1313 57.6814
15.9861 27.2717 58.4299
15.6985 26.6112 54.455
15.3177 27.3068 58.1152
16.4119 27.9009 56.9363
16.5315 27.9726 57.4948
15.5272 26.4525 55.358
15.6634 26.9631 56.7372
15.009 26.501 58.2441
15.9043 28.1736 61.1475
16.5032 28.7451 59.8967
15.3329 27.0386 58.9422
16.6399 29.0822 61.4169
17.0556 29.4403 61.3664
15.7302 27.1503 59.667
17.0149 28.7908 57.562
15.7397 26.6651 57.1443
15.7778 27.1808 58.0101
16.2448 28.4174 59.9057
15.2277 27.1442 58.9791
16.0688 28.9848 61.1384
15.8978 28.6971 62.9743
16.0331 27.4849 60.3419
16.431 29.1603 63.4282
15.1676 26.4367 60.0797
17.0018 30.1354 64.9442
15.8389 27.6516 60.7174
16.6679 29.0258 63.6594
16.3464 28.2927 62.7673
15.819 27.8463 59.6841
15.7053 27.0919 58.2374
14.5867 25.6718 56.8161
14.9174 28.6391 64.555
14.7943 25.8336 59.3411
16.3244 29.7059 63.658
14.702 26.4334 61.6744
16.1655 28.4415 61.352
15.2091 26.2605 57.3128
15.6363 29.9575 68.4535
15.2114 28.1776 63.968
14.8128 26.2621 58.5421
15.2348 28.2491 61.3671
15.0639 28.4413 65.2772
14.923 26.8458 60.9419
14.8886 28.3282 63.7407
15.5389 29.0519 64.593
14.2624 27.3497 63.2174
14.8425 26.6092 59.4528
14.3129 26.2774 59.3615
13.9162 25.954 63.1931
15.2461 27.8239 60.5851
14.1748 27.229 65.384
14.5859 27.1648 62.8041
14.9657 27.678 65.5082
15.3262 29.2179 63.7177
15.1904 26.8298 62.1075
14.7281 27.5381 65.8942
15.2453 27.2151 59.7581
13.8408 27.0413 64.6799
14.6543 28.5689 64.0757
14.3985 27.1995 60.6961
13.7051 26.3221 64.7201
14.3963 26.2603 61.7133
14.2484 27.8501 67.8418
14.9009 26.9873 60.8255
13.4101 27.3979 63.8947
13.4693 27.4132 67.3611
14.7411 27.2172 63.4983
14.042 26.8944 64.0079
15.0913 28.5179 63.9713
13.7255 27.8113 65.6916
13.7983 27.7663 67.3952
15.3675 29.5357 66.7539
13.638 27.7373 71.1892
15.4262 27.505 63.1557
13.4287 27.2812 66.4974
13.6753 26.1002 62.8692
14.5118 28.8223 70.5988
14.0477 27.3108 63.7057
12.8383 25.4234 62.2668
14.193 29.4399 70.3982
14.0242 27.5247 66.6784
13.7445 27.5338 66.2997
13.0459 26.5348 67.2021
14.4227 27.5426 66.7609
14.3054 27.305 66.4812
13.9615 27.4346 64.6792
13.2224 25.2871 60.8784
13.1177 26.7144 66.6876
13.8213 28.3349 67.4915
12.9242 25.9562 65.5673
13.3638 26.3536 65.9863
13.6604 27.0936 65.3258
13.1334 25.6552 66.1869
14.1966 27.7954 68.673
13.5226 27.7255 65.6191
12.8413 26.0683 65.4449
