# pn-170911/CsIIA-33-AMC2-1280-1959.psd
# Power spectrum* (dif=0,1,2) (really just |FT|^2)
# NOTE: only the first half! (symmetric)
# weeks: 1280-1959
# 86 clock-days, 15 excluded
# PSD: 1441
80150.1 1.15868 0.0404053
1.68987e+06 24.3092 0.0211506
7.97433e+06 163.774 0.0238691
1.18062e+06 44.1224 0.0229285
1.1062e+06 74.0568 0.025285
583238 58.3432 0.0309501
297337 41.8245 0.0273406
285499 57.005 0.0349259
189825 48.6756 0.0377315
158520 52.8397 0.0420124
117709 44.0109 0.0439198
78628.8 41.3942 0.0444045
114419 69.6776 0.065404
72240.5 52.4313 0.0598377
66451.7 48.3395 0.0689016
54081.8 46.3717 0.0744144
54680.9 55.2509 0.0787179
44117.8 52.5471 0.0908382
43502.4 52.7956 0.0973553
39036.5 58.9255 0.11249
31768.4 51.9929 0.116511
22524 44.1891 0.111064
33403.5 62.4404 0.144934
26009 53.1104 0.147113
22612.1 53.85 0.16589
19821.8 48.3894 0.171121
17599.6 49.1349 0.177735
19615.2 56.6811 0.232114
13071.7 43.3415 0.177706
15514.2 50.0499 0.209523
12019.7 42.8496 0.209134
12790.2 48.1971 0.22583
15147.7 56.5679 0.308615
9335.87 42.6746 0.253213
10993.9 56.319 0.351254
9272.24 43.5863 0.287471
11286.3 57.8801 0.396596
9201.66 53.3012 0.370525
9260.18 54.0721 0.398675
8930.16 52.4816 0.365885
7394.38 41.0365 0.339855
7214.53 48.3894 0.393034
7564.31 52.0856 0.458296
7450.27 50.6333 0.459101
6762.47 51.9833 0.508409
6301.11 53.4117 0.530339
6326.1 53.3043 0.588582
6751.36 56.1598 0.645906
5318.63 55.5253 0.621802
5889.26 52.5485 0.615598
5973.13 57.3075 0.721984
5229.97 54.46 0.69725
5744.3 62.681 0.82966
4147.17 48.6493 0.698051
4805.77 59.1491 0.816483
4927.26 58.8693 0.849346
4563.98 57.2971 0.883087
3594.19 49.1606 0.799348
3437.91 48.0072 0.766817
3443.53 48.5461 0.823637
3943.72 64.9564 1.08308
3036.78 40.77 0.749556
4312.21 62.3177 1.15525
3640.87 55.0627 1.07837
2843.36 51.7065 0.96371
2563.36 46.8552 0.982207
3176.88 51.5421 1.11206
3239.19 63.7013 1.38105
2439.22 48.9498 1.11062
2957.7 58.5419 1.28943
2499.88 45.1442 1.07909
2658.55 50.408 1.23629
2431.49 49.2343 1.24777
2490.96 58.3455 1.46865
1881.82 40.367 1.02699
2083.36 48.1423 1.25327
2367.44 52.0786 1.47311
1868.93 43.4141 1.29477
1566.19 39.433 1.16728
1778.33 42.1279 1.25395
1636.43 36.899 1.13827
1973.14 51.3849 1.61359
2259.33 63.7754 1.9943
1619.83 46.0533 1.55032
1867.15 48.4229 1.62461
1622.78 46.3738 1.61992
1677.43 50.189 1.85799
1623.3 48.8218 1.74078
1527.72 49.6836 1.90169
1419.91 43.9971 1.67859
1858.06 65.096 2.57673
1457.84 47.4369 1.85845
1808.31 61.7447 2.46438
1666.28 56.9361 2.31603
1426.99 48.5076 2.05991
1462.71 53.7151 2.35453
1322 46.1357 1.99995
1519.27 60.1161 2.76463
1216.45 48.5042 2.21053
1482.78 54.5639 2.48466
1083.25 39.065 1.87985
1409.25 54.5969 2.58849
921.073 42.4176 2.15801
1330.89 53.2786 2.66215
1149.23 48.6607 2.48694
1107.19 51.1516 2.69665
1004.42 44.2182 2.38863
946.65 43.2701 2.3301
1071.35 52.2097 2.86403
930.642 47.8223 2.71752
1116.88 55.6538 3.26448
870.195 37.6341 2.28299
1031.26 51.3862 3.03958
860.676 45.2795 2.72486
832.153 43.1274 2.68804
854.298 41.9064 2.64099
856.172 46.8117 2.99036
940.373 52.0505 3.36468
851.539 48.4766 3.27866
924.853 48.1168 3.23325
783.815 42.8858 2.98752
835.282 55.9133 3.85442
778.742 44.8985 3.18904
830.014 45.8025 3.30511
794.499 50.6088 3.73089
683.788 38.9251 2.9584
918.789 57.2781 4.36852
807.421 52.1392 4.06152
796.918 52.4366 4.04672
1085.46 65.7506 5.11035
750.126 45.8021 3.7035
775.257 51.1132 4.13625
703.322 51.5943 4.31964
679.324 49.8004 4.08833
664.528 47.413 4.03678
629.333 46.5977 4.11955
695.46 46.6309 4.0815
700.815 54.6515 4.85191
668.144 51.8943 4.65786
536.086 43.256 4.10637
691.606 55.9897 5.19574
706.051 50.6801 4.75388
666.964 54.2484 5.23961
734.634 54.7257 5.30963
550.219 44.9342 4.49796
517.667 40.7707 4.05341
710.443 61.0159 6.06676
485.168 44.1329 4.4734
535.303 44.7542 4.6289
490.707 50.2112 5.35889
487.092 42.4405 4.37621
473.763 37.9487 4.00567
521.759 45.8768 5.09416
560.03 51.6885 5.70516
595.31 55.2639 6.1787
447.183 38.4753 4.32321
483.421 47.4588 5.47979
470.725 43.2207 5.0907
439.957 43.8124 5.02134
474.293 42.1074 4.86074
495.168 49.8494 6.04514
484.775 50.7167 6.23436
546.179 57.0813 7.34636
522.223 55.7167 7.14982
488.189 50.3271 6.413
466.514 52.7104 6.9103
479.351 48.5649 6.09144
420.294 45.7699 6.19051
509.698 49.3513 6.20793
430.74 49.7489 6.79447
449.736 50.6613 7.09594
473.528 51.4961 7.09705
470.989 51.055 6.97764
476.948 55.3633 7.81911
468.861 55.2187 8.04366
407.072 48.3099 7.03029
416.897 51.3821 7.59677
412.694 43.6556 6.36921
377.477 41.1503 6.16784
395.469 47.7103 7.07344
337.6 41.4894 6.31014
375.339 45.1612 7.02806
390.626 54.9207 8.55842
425.611 58.7436 9.28461
345.067 50.428 8.02235
362.098 47.4409 7.67693
296.613 37.4973 5.94699
264.344 36.124 6.05204
359.387 43.7235 7.22283
289.817 37.6557 6.49781
287.925 38.6873 6.54264
338.382 51.6096 8.97889
320.411 47.5496 7.98658
272.236 41.668 7.12909
304.623 45.9514 8.23795
301.497 43.33 7.7498
305.729 44.4687 7.80336
304.189 50.2979 9.18719
294.174 41.4054 7.55884
302.116 45.022 8.3128
283.058 46.0441 8.49507
259.404 41.8544 7.90811
290.3 47.6561 9.31357
332.442 53.0622 10.4006
241.044 42.4948 8.06398
283.121 45.3129 8.94652
265.897 43.834 8.55058
256.629 44.6447 9.06367
304.07 52.6978 10.3752
305.31 54.1766 11.1057
289.045 50.0115 10.1891
295.482 47.5965 9.87436
261.984 45.1582 9.55825
270.077 42.3345 9.01828
241.519 44.0685 9.37835
246.896 48.8125 10.8699
267.903 48.2634 10.3507
250.284 45.1144 10.1353
211.526 38.2053 8.65078
265.284 48.4676 10.9284
235.949 46.3833 10.498
211.27 47.0945 11.0119
254.204 42.1954 9.2363
233.7 45.114 10.1528
216.188 40.9821 9.82362
184.415 34.6687 8.52374
241.122 49.3685 11.9844
215.81 46.17 10.537
229.385 47.688 11.7471
190.951 41.2284 10.2172
220.391 44.3996 10.8475
187.62 35.7842 8.75425
239.703 47.8182 11.9589
188.453 40.2231 10.661
244.917 48.4212 12.4894
211.336 41.8401 10.7165
218.035 44.0035 10.9618
205.245 45.9761 11.9785
207.388 39.3538 10.3456
195.586 44.8864 12.5184
208.037 47.3023 12.1933
228.352 47.2858 12.1881
198.226 48.9945 13.9877
181.11 43.9117 12.3397
207.106 45.3807 12.288
191.547 41.3494 11.2549
216.314 51.9642 14.8385
183.482 40.3504 11.3046
180.057 44.8828 13.0432
179.927 46.0727 13.5133
184.81 44.0279 12.2397
185.448 48.2762 14.4454
171.976 38.6598 11.4867
188.16 50.5269 15.1567
148.245 35.1841 10.6271
167.539 41.3659 12.5566
222.546 51.9141 15.8405
164.294 41.141 12.4807
152.276 39.6487 12.2642
168.624 47.7321 14.932
190.487 49.3264 15.8061
156.729 40.7142 12.9604
190.79 54.0155 17.1263
142.701 39.2616 12.0216
166.872 37.6157 12.0243
174.911 49.5779 16.3326
178.8 45.1827 14.8751
135.999 39.3747 12.6093
181.864 49.9481 16.2729
146.514 41.896 14.7082
126.691 36.05 12.4537
157.584 40.6069 13.7576
169.277 49.17 16.889
153.441 42.4247 14.9959
145.943 43.7921 15.4042
157.65 41.3944 14.0586
136.853 39.5862 14.3721
154.889 41.2809 14.6455
172.092 46.6751 15.8396
131.908 40.2323 15.7415
134.673 39.8043 14.6727
142.836 42.6408 15.5033
145.231 44.2061 15.8115
140.964 40.1978 14.9145
143.378 41.8654 15.5449
133.294 41.7819 15.3648
140.526 42.9249 16.5403
169.756 54.7691 20.2587
125.571 44.5553 17.7813
114.316 38.6746 14.9926
118.084 36.6446 14.3151
126.979 43.5593 16.652
137.007 45.1888 17.9578
115.92 36.6668 14.5366
110.032 36.5835 15.5424
138.222 42.1474 16.541
113.344 39.1523 16.2264
129.553 38.8653 15.3461
160.769 49.5855 19.721
121.017 40.381 16.5858
117.895 35.5805 15.0687
145.785 42.5797 17.3893
101.451 36.6279 15.6573
109.577 44.5303 19.2798
125.8 38.5226 15.8682
127.011 39.8605 16.8652
130.114 51.2313 21.276
125.394 43.469 18.6633
123.251 48.3021 21.522
127.397 43.5299 19.7111
113.901 39.7566 17.8744
107.054 39.8714 18.4251
115.129 39.9384 16.6842
95.2409 38.4086 17.6138
109.945 42.8369 19.3029
98.8619 36.161 16.3384
117.174 44.2499 19.9168
118.167 42.6238 20.1786
102.577 37.8224 17.2893
117.983 42.4752 18.719
112.886 44.7683 21.4249
111.083 40.3478 18.7185
88.854 35.6325 16.9726
102.462 40.9397 20.2761
109.177 44.5817 20.7829
84.7697 33.5446 16.3672
95.1242 34.9275 16.8018
98.0326 36.1966 18.1195
95.9327 33.8164 16.7268
103.526 40.0348 19.6096
100.247 43.8823 22.1276
100.741 40.733 19.5864
100.741 44.3736 22.6338
111.985 41.4768 20.3452
97.6644 39.332 19.4699
120.789 48.2105 25.2091
87.3723 39.5296 19.9905
74.218 36.4927 19.0826
107.979 43.6457 22.2722
102.623 45.7074 24.5927
80.5261 35.8335 19.1578
85.8421 32.9854 18.0709
104.787 45.2206 24.4802
103.94 41.3366 20.5502
80.9102 35.2508 18.5405
84.2273 41.478 23.1096
94.8156 35.7585 19.0651
94.1564 38.4691 21.4991
101.461 46.8781 24.4969
92.1873 38.6661 22.1335
98.4635 42.6212 22.8365
81.1872 36.614 19.5674
91.2981 43.8402 24.3426
86.4815 38.7158 22.796
85.302 37.3197 21.2826
86.265 38.0819 22.4506
91.8699 43.6895 24.8711
82.9568 40.889 23.4896
74.1648 37.5768 23.8395
99.5124 45.907 25.195
89.132 39.7241 23.8492
97.1034 48.0063 27.0111
91.0366 43.8152 24.9188
72.3506 32.3411 19.2679
81.7553 42.4706 25.8713
74.8113 34.32 22.0446
70.4954 32.2133 18.0676
81.9592 38.4001 23.2716
84.771 40.9128 24.9596
70.9375 34.111 20.7366
67.101 32.4763 19.9964
92.4201 47.6959 29.9004
69.4434 34.2418 22.4765
85.6041 47.6874 29.6728
88.5743 44.2332 28.0066
79.2004 39.3461 24.793
75.3662 35.9657 22.9726
79.736 41.4646 27.8171
74.4456 39.2238 23.2382
78.5944 40.489 26.2585
82.3127 44.0996 28.7133
63.3443 34.0744 22.4939
73.4855 38.277 25.1009
75.7555 40.7307 27.5363
70.0044 38.0876 26.3369
59.992 33.6652 23.3702
81.6873 40.6955 24.1319
77.725 42.6827 28.6309
65.3273 37.8434 26.185
70.9467 40.7532 28.8932
64.8944 33.0499 23.2805
69.5733 37.0496 23.4648
81.8857 43.6882 29.4121
72.3134 42.0732 28.5103
61.9256 34.5181 24.0546
67.1806 40.9548 28.9134
66.1681 42.5712 29.8716
65.7612 37.8078 26.7232
56.5465 33.0162 23.5651
65.0295 33.4597 22.4771
59.6607 38.9867 29.6454
57.9239 36.2491 26.6634
78.7754 44.3107 29.8577
66.5526 34.0847 25.9183
57.2204 31.0249 23.6563
67.8593 41.7956 30.9201
69.1609 39.837 29.0322
70.1703 33.9114 23.4391
64.066 41.3376 31.5608
62.9829 35.0709 25.7946
64.7364 39.7912 30.9234
64.3683 41.161 32.0638
61.7121 35.4351 24.6566
58.1118 38.8412 30.9791
65.1391 43.6905 32.2953
65.4222 40.0686 30.6801
57.6256 32.475 24.6225
72.5688 43.3033 34.0266
71.8201 39.4876 29.5102
43.6994 27.6609 21.7575
42.5124 24.1456 19.6575
57.5513 32.8437 25.0324
58.5271 37.1161 29.1687
59.8794 36.7223 28.2843
57.6933 36.2084 28.7415
53.5081 34.4523 28.5491
61.9269 37.2768 27.7275
40.0196 28.3461 23.6342
55.7248 32.7152 26.4673
45.9941 33.332 27.164
48.3809 31.6827 26.9038
61.5426 38.4666 29.4198
47.7147 40.5901 34.2998
61.9631 39.119 31.2593
47.449 34.0549 29.7107
49.4844 34.2369 29.8199
55.6638 33.1378 26.7617
55.9764 35.9308 31.256
63.4791 46.0247 37.8588
56.3126 37.6075 32.4762
53.2688 36.8984 30.79
44.0746 30.697 27.9563
52.7154 32.578 28.877
55.7905 38.686 34.1075
59.6562 34.974 29.0154
48.7124 32.3176 28.3846
54.017 33.6425 26.9238
53.1458 34.8323 30.6873
41.2081 26.6392 24.4365
50.39 36.7285 33.0314
59.5696 35.0113 29.0615
45.9633 34.1298 32.0818
53.1694 40.1014 35.4488
51.3951 42.2564 39.0798
49.9978 36.7564 33.3479
42.3915 29.0282 28.5469
53.0185 32.3682 29.7979
56.8189 39.7647 35.39
45.2801 26.5837 23.7101
38.9289 28.319 27.0638
43.669 32.0998 29.0973
46.2345 35.9121 34.3274
57.7898 36.3907 31.2388
46.9363 32.0527 30.3622
45.5589 35.1166 32.6255
45.7507 30.59 28.6813
42.9535 30.1413 28.4358
47.3848 32.9837 30.206
46.4084 33.395 32.2571
43.7869 32.0144 30.8816
43.4505 32.9939 32.8966
41.3293 34.8937 36.861
48.1651 34.2231 31.3323
46.2068 36.8749 34.9107
45.9268 34.0688 32.8487
44.8557 38.1588 35.5702
48.1729 40.4191 39.9255
37.425 36.3068 35.9758
42.4536 34.1216 36.8226
42.7575 32.9549 34.1637
43.0621 31.33 29.8545
43.4938 32.5617 33.2217
46.3873 39.8296 40.0607
38.1153 31.8838 33.6903
46.4704 33.9616 34.4622
49.4652 32.268 31.6802
42.4039 36.8637 38.4655
44.7261 38.803 39.1515
36.9005 27.4456 27.3534
36.5253 30.6377 33.5131
45.1276 36.371 39.5185
49.5775 35.1556 33.9696
45.3551 33.205 35.7125
40.7926 32.9369 37.1816
47.4387 37.3451 36.0052
29.2725 29.077 34.4471
40.6691 31.2696 33.2152
48.061 39.8097 39.3268
43.8422 32.7791 34.9678
42.6369 33.6043 34.3551
39.3859 34.9655 39.1978
41.4644 33.4054 36.9192
41.304 32.423 33.2434
35.1285 28.5411 30.9207
35.1364 34.7323 37.6215
38.3276 29.181 34.0787
44.3863 41.6854 44.559
45.8241 41.6086 42.0824
34.4547 26.6733 31.0825
41.1616 39.0395 45.019
35.4823 32.4862 36.7311
39.2732 34.8933 37.7185
37.5852 33.7463 37.1902
35.0223 30.6859 35.6274
30.5499 28.9652 34.2191
37.1418 31.5326 36.9199
42.899 33.8401 35.3703
30.9612 29.5054 32.8959
34.5344 31.4844 37.8877
35.9812 27.6384 31.8298
38.0872 29.5074 33.205
33.5536 29.344 34.046
37.8679 30.1847 33.5872
35.9903 26.7037 32.0429
34.1799 29.8145 35.3456
30.4887 29.441 33.9474
28.9076 26.009 32.3649
28.8543 28.2239 32.6177
35.1418 32.074 38.0924
31.5197 32.912 39.263
30.9231 25.5031 32.282
36.8448 34.1329 40.3768
33.5395 35.2014 42.3381
37.7023 34.944 38.0623
32.0305 31.6473 35.9229
26.3679 27.5876 36.2387
34.9507 31.8208 37.3933
34.6656 36.0943 45.1271
33.8548 31.7965 41.2483
38.465 32.7721 38.1753
27.8553 24.5207 29.6692
30.9638 29.4963 36.2104
30.789 29.8738 37.408
28.6316 27.8058 38.8311
27.9722 28.8907 35.3867
31.1116 29.0369 34.9901
29.4499 29.3957 41.0931
33.0193 29.2367 36.8758
29.8131 28.1766 40.7097
36.5386 34.1371 37.6368
30.9307 31.9907 40.6839
37.4371 37.3609 47.9737
30.867 30.3495 39.162
36.2643 34.0195 43.0878
28.1444 27.0835 33.5873
29.6641 30.5805 41.5813
28.2322 31.335 41.4917
27.7123 27.8656 35.602
31.7587 28.4481 36.8707
30.4323 31.4279 42.678
32.0871 34.4523 43.3586
25.5965 27.2615 32.6754
30.0672 42.071 55.9007
28.1979 29.3638 44.6222
25.779 25.8217 35.574
34.3789 35.6673 43.9471
27.622 28.8662 38.0545
27.8141 24.7485 34.4458
33.721 32.7897 43.9187
26.5775 26.5723 35.5592
25.767 24.6261 31.6162
28.5349 30.7309 42.7689
23.6366 25.6581 38.3888
33.1151 34.3047 43.8294
31.6155 29.8279 39.237
28.0797 31.1058 42.39
24.0776 27.2135 40.721
29.0601 28.0267 41.5319
27.6952 26.5812 37.2418
29.5599 31.0051 39.376
27.4016 29.5857 44.7045
30.602 31.7922 43.8434
24.5153 26.8268 35.0198
27.1982 29.3179 41.4856
29.4514 37.4091 52.5982
30.3651 28.8128 40.6093
29.2171 32.1346 46.0067
27.7127 29.3842 43.8021
27.96 28.7242 40.7659
25.4192 31.8404 46.6612
26.8765 31.0589 44.6185
28.4652 29.5618 42.3934
27.5358 33.2464 50.229
28.7301 31.5622 44.1275
26.4614 26.2928 42.3146
31.0959 33.7222 49.5265
30.8777 33.5443 46.3791
26.4346 27.5187 39.9221
24.9856 25.4127 38.4081
31.0564 38.8413 54.4921
28.4268 30.4835 45.9099
29.643 28.4976 42.6023
26.6383 29.6703 42.6708
25.2152 27.9755 45.3278
24.1127 24.03 32.9635
21.7799 26.1544 39.1154
24.0308 27.1925 41.8553
28.5572 29.1182 42.3204
23.355 30.9864 47.3375
21.5282 25.495 38.5078
26.9325 30.8101 48.0265
22.9081 28.4658 46.5863
29.7429 28.3829 40.1341
29.4755 35.3181 52.2008
21.3454 23.3945 34.7961
20.0521 25.3128 41.7011
26.2964 35.2675 56.0269
27.259 29.8729 42.5809
24.3826 30.0415 46.001
20.763 24.3008 40.4815
23.1091 30.9532 47.9804
21.9473 31.0933 54.9926
23.9241 25.3658 41.394
29.1982 27.9889 40.1021
31.7738 42.0775 66.0525
26.6287 25.8272 41.9279
24.3543 25.9146 36.0032
17.7632 23.6213 41.6081
24.4545 30.791 45.1693
25.1299 33.8994 50.7082
22.4378 27.8983 51.4881
23.0129 25.8719 40.7509
22.7302 27.7177 43.5956
24.6952 30.792 48.8881
21.605 27.0868 48.0761
23.4747 27.7184 44.3193
21.5224 29.9991 49.3885
23.0726 29.9459 51.8769
23.8333 28.3737 45.9693
22.1571 25.6285 39.4416
20.4447 26.4682 48.4319
22.4151 26.7014 45.4945
20.6379 23.2938 38.8202
22.86 30.358 48.6507
19.4052 23.4639 45.1949
24.7261 29.3994 44.9628
23.4812 32.1908 49.3379
19.0604 23.2723 43.2043
19.0349 24.1094 43.1589
28.2711 30.9619 52.6655
25.9001 29.504 46.8108
20.9177 25.4687 43.9349
21.1634 28.8572 50.7089
22.3238 29.1232 46.522
21.839 24.5583 40.4597
25.9757 35.3113 60.8781
21.5433 27.2938 49.8023
23.8474 26.4849 43.8359
23.3833 29.6231 48.9454
17.0344 25.6233 42.8427
21.4287 30.4053 53.5434
21.9109 27.8549 49.0445
23.0109 30.469 55.2885
23.8394 28.382 39.8697
16.727 22.3401 46.3978
22.5601 29.4273 50.0063
21.0065 28.0325 51.2319
21.6837 27.5816 50.0856
21.2955 27.1663 48.9941
20.906 24.87 40.5547
20.8218 26.7522 48.0221
20.1597 27.3396 49.0564
20.975 30.2343 51.9674
20.9357 25.8144 43.6759
18.7868 27.4945 53.4621
17.1562 20.175 37.0383
20.5072 26.5994 45.852
21.4854 30.1963 53.4323
18.0602 25.309 49.4227
20.1993 26.6118 51.1613
19.5105 22.8176 40.0377
21.9189 30.9793 57.9724
20.7571 26.9353 50.4613
16.7038 20.4339 37.9728
17.3214 24.7418 49.3697
20.6776 24.7046 48.9388
23.3114 29.0901 51.9168
18.8828 24.9099 43.8473
19.7949 24.3751 42.2016
16.5953 24.5369 44.0584
17.8354 26.701 54.0553
19.7005 26.9229 54.1173
20.0286 25.1965 44.8143
20.0686 26.3939 52.1911
17.8002 27.4194 55.2156
22.5506 29.441 54.2377
20.9358 24.1539 42.2849
19.8627 29.6656 54.6056
17.6687 25.6985 48.9371
19.2891 25.9715 47.9907
20.134 25.7833 50.4516
19.1283 25.7463 53.2826
20.0549 29.7983 53.5497
19.3888 26.1492 55.3683
18.1841 25.1824 43.467
15.7601 21.2539 44.0154
18.4186 29.9538 61.5629
20.7255 27.5355 47.6566
17.8067 28.7142 61.4713
20.3998 30.5406 53.9295
17.8353 30.269 62.0805
19.6811 30.3877 59.6031
19.9081 27.4913 53.4073
19.9701 24.4531 45.4937
19.7741 28.823 59.1692
18.2831 26.71 55.966
22.7477 25.7432 45.7091
16.3704 22.9806 41.6617
13.4761 22.9953 48.9375
18.7571 26.5301 56.3258
17.6865 22.1595 46.93
18.1572 25.2867 48.0283
18.0123 26.1593 49.6289
19.1164 28.1351 54.4184
15.3167 22.5447 49.3474
17.5342 24.8904 46.361
16.2712 24.5769 50.3491
15.9948 21.9452 47.2706
17.4602 21.7719 39.1979
16.3189 24.6951 51.2728
16.9836 25.0504 56.7496
17.8332 27.476 56.6032
18.0232 27.4398 58.6064
17.5661 22.6352 49.5562
17.2316 28.4599 58.0151
18.3414 24.0227 46.3741
15.8495 24.0245 48.4732
16.4812 26.3578 56.3488
17.176 29.5451 67.0184
17.0044 25.4388 49.5751
18.2573 29.3282 58.7778
14.4584 23.541 49.4425
16.2409 25.5063 52.4406
15.4718 26.7052 61.3735
17.3341 25.1126 54.5957
17.5791 21.9113 42.4031
15.7209 24.9415 50.4217
15.1966 22.8244 47.1177
15.078 21.6699 43.7056
12.669 19.6084 48.3957
16.7285 27.2139 51.3625
13.7575 21.0897 48.7799
12.9365 21.2706 49.7775
16.3253 27.8173 62.4894
17.6709 23.4973 53.8872
20.1674 28.3624 53.3074
15.9758 23.9184 49.7676
15.8864 24.8134 52.7174
16.5778 24.7221 51.5098
16.7089 27.3918 58.4066
14.5829 28.6983 62.9178
16.7343 29.4357 60.4652
16.5395 25.9966 58.3747
17.2375 25.1532 48.8859
13.1176 22.6534 55.4197
14.9734 21.5362 52.5236
18.3803 27.2926 58.3063
16.2998 26.9814 53.8257
12.6834 23.2599 55.8109
15.0597 19.1716 42.2451
14.3717 22.2574 49.977
13.6161 19.6174 39.1717
12.1729 23.3567 51.5299
13.582 18.0974 41.3638
13.7669 23.2662 59.4063
15.8154 22.1303 46.1605
15.9525 25.8338 58.2326
14.7398 22.4394 51.1688
15.4821 24.3839 51.6718
12.9948 22.6652 51.7619
13.4598 24.3836 54.9365
13.6471 23.8483 54.4203
14.8118 24.6833 51.3425
12.7507 21.1005 53.7354
16.5172 26.4207 60.122
17.7592 32.6294 69.1144
14.9509 21.3317 51.3014
13.8594 21.5679 51.1542
14.64 22.0231 49.9011
13.2457 20.632 49.4801
15.2816 24.935 54.5133
15.8437 29.5413 64.4569
11.6357 21.1687 53.7992
13.7304 22.0832 49.4513
13.9076 23.9211 55.1095
14.9272 22.5675 60.5716
15.476 20.8263 48.9325
15.644 28.9706 57.7778
13.141 21.8416 57.9766
15.1573 25.69 59.6773
13.7248 24.0239 58.5277
14.6107 18.5139 46.4207
13.3449 24.8286 59.4333
16.1358 25.8325 54.8454
10.7462 20.3831 55.5704
15.5286 24.1077 54.6918
14.2315 23.9017 53.5111
13.318 20.1218 55.736
15.2222 24.5678 58.722
15.6972 24.3345 50.2787
13.7011 21.0528 56.3069
15.777 23.5403 46.698
12.8097 25.768 64.5353
16.084 25.0888 62.7672
17.7329 28.0769 65.5398
17.7717 28.2127 63.9396
12.6165 18.7104 46.4045
13.1472 25.1885 56.6279
10.855 18.1336 47.7535
11.9515 23.5822 55.9773
14.7127 23.2357 57.6266
14.0835 25.8877 72.0659
16.1495 22.5493 49.6174
11.3977 20.8672 51.5204
12.8978 22.9356 56.6814
15.3853 26.3764 63.8381
12.1661 22.7258 58.3987
12.7316 23.9015 58.176
12.4977 20.2727 50.3774
11.3527 20.5252 54.3868
12.761 23.0976 59.1414
13.4475 17.9885 44.3471
13.037 22.6903 47.2542
