# pn-170911/CsIIA-38-CsII-1280-1959.psd
# Power spectrum* (dif=0,1,2) (really just |FT|^2)
# NOTE: only the first half! (symmetric)
# weeks: 1280-1959
# 513 clock-days, 255 excluded
# PSD: 1441
178287 5.16101 0.071263
4.47858e+06 74.6774 0.0881913
2.84219e+07 556.246 0.0924663
3.84342e+06 146.647 0.0840425
2.84006e+06 196.479 0.0922822
1.41038e+06 137.18 0.0982729
991911 150.466 0.108269
701312 141.34 0.121929
591067 147.665 0.124197
392413 129.009 0.123526
399831 148.37 0.15163
293784 132.83 0.153548
254880 135.385 0.171963
209380 138.359 0.189583
201287 137.778 0.200425
155615 122.829 0.210319
156437 138.711 0.261148
132969 141.924 0.27316
116752 131.034 0.274384
98044.4 130.397 0.309339
95567.3 127.4 0.306016
78297 128.721 0.34192
82334.8 140.754 0.398841
70146.8 138.994 0.444399
67110.7 139.15 0.453918
61307.3 140.878 0.514391
61313.6 142.943 0.554793
52942 138.416 0.548269
51958.6 141.723 0.617411
40360.1 125.687 0.562806
41980 140.07 0.691756
38595.9 139.227 0.720017
36704.8 128.967 0.703379
33879.7 137.156 0.787934
30099.8 129.124 0.79903
28469.3 130.423 0.848534
28055.6 132.784 0.923943
27336.2 141.287 1.01061
25162 126.384 0.9184
25535.4 137.79 1.07354
24480.2 143.017 1.17936
21965.8 136.257 1.17374
20046.7 131.151 1.19706
18473.5 128.526 1.20177
18041.9 132.732 1.30333
19550 139.025 1.36947
17707.1 136.188 1.4822
16879.7 134.992 1.49293
17313.6 136.722 1.61259
14872 130.846 1.56067
14803.4 140.894 1.70179
14349.8 133.101 1.73932
14321.6 131.491 1.79298
12995.1 136.732 1.89083
11506 119.09 1.69892
11916.3 132.835 1.99927
11657.1 134.117 2.06355
12337.7 145.474 2.37691
10306.7 118.797 1.98201
10120.8 123.496 2.09434
11322.5 136.531 2.41991
10322.1 132.723 2.44415
9616.03 124.46 2.34749
9076.86 129.92 2.48376
9683.43 132.862 2.63409
8770.02 129.913 2.65716
8371.66 128.994 2.70183
8158.37 128.995 2.86033
8452.28 126.487 2.89151
7899.9 137.351 3.21337
6839.28 114.638 2.73852
7175.26 125.995 3.12905
7325.18 126.09 3.14526
6791.49 134.535 3.40578
6478.63 122.359 3.2717
6727.38 130.903 3.54255
6698.26 133.32 3.73609
6269.91 133.432 3.7996
6080.76 127.516 3.78139
5458.69 121.441 3.69623
5938.71 133.914 4.13275
5782.81 138.794 4.26859
4899.79 117.81 3.85429
5001.28 132.062 4.43771
5447.78 134.079 4.59002
4607.98 123.735 4.26088
4754.99 125.172 4.50049
4558.82 126.099 4.55841
4371.9 119.653 4.46238
4282.73 122.21 4.64372
4523.04 123.527 4.86048
3836.97 121.016 4.78323
4164.45 124.078 5.03641
4077.13 124.965 5.25714
4071.43 128.116 5.47343
3790.25 121.199 5.36307
3891.17 116.318 5.20191
4048.67 130.326 5.89518
3558.67 118.9 5.51275
3685.47 129.003 6.06924
3604.36 118.23 5.68356
3596.95 126.028 6.17201
3202.48 110.663 5.57337
3085.65 114.336 5.74203
3369.5 117.092 6.0749
3431.61 122.521 6.46482
3269.15 124.835 6.72743
3004.16 115.263 6.25853
3255.42 123.247 6.92496
2830.18 114.479 6.48543
3034.27 123.633 7.17591
2754.37 114.016 6.71928
2620.57 113.199 6.77226
2702.83 121.409 7.40224
2706.4 115.974 7.19201
2473.82 111.232 7.08696
2570.39 111.699 7.11908
2565.46 120.81 7.88586
2549.67 118.726 7.93967
2372.69 112.7 7.64169
2445.78 116.371 7.94203
2111.74 114.809 8.08262
2342.02 119.792 8.55408
2239.28 115.85 8.43104
2180.63 114.282 8.24464
2191.76 116.396 8.65033
1972.29 110.149 8.29244
2160.16 122.555 9.35279
1984.95 117.457 9.22551
2062.18 119.87 9.40043
1906.28 109.218 8.77932
1843.2 104.677 8.5509
2046.34 118.308 9.89884
1854.81 119.29 10.1121
1888.99 115.782 9.8763
1914.46 120.266 10.4003
1850.82 109.305 9.51334
1910.33 108.911 9.68893
1710.02 109.475 9.92168
1698.9 107.361 10.0048
1775.87 109.409 10.1406
1667.72 104.472 10.0042
1670.72 114.781 11.0805
1798.41 115.747 11.3387
1698.76 110.66 10.6719
1694.01 115.539 11.5278
1603.08 113.119 11.5015
1612.23 111.306 11.3332
1511.98 110.023 11.5521
1512.96 104.962 10.9949
1558.38 110.366 11.6839
1473.27 109.874 11.9256
1518.6 106.573 11.7959
1457.7 104.305 11.6133
1327.3 98.8532 11.0711
1347.04 108.49 12.3164
1403 113.557 13.1358
1225.62 98.7394 11.6855
1312.36 106.524 12.6053
1377.38 113.9 13.7541
1248.29 109.819 13.2104
1296.04 107.924 13.3108
1176.71 104.502 13.0901
1216.2 104.394 13.0495
1138.23 100.966 12.9528
1202.93 100.469 13.0552
1134.09 107.736 13.8069
1198.82 107.215 14.1207
1085.61 100.486 13.2096
1046.24 104.673 14.1336
1084.24 105.667 14.499
1027.3 104.13 14.4494
1013.34 97.8317 13.4308
988.669 100.998 14.2662
1048.6 100.878 14.3462
1030.71 105.731 15.1552
954.504 92.6926 13.6452
1102.47 111.836 16.4186
970.692 102.71 15.3796
1015.19 101.55 15.3125
1044.04 101.598 15.5165
968.842 99.7157 15.2905
1071.54 103.825 16.1207
907.028 96.508 15.2669
946.689 97.1751 15.3892
898.975 99.4031 15.9569
976.38 98.2983 16.0273
967.608 99.9999 16.212
862.315 98.5453 16.4422
826.404 96.4788 16.3602
886.52 97.3826 16.5293
818.04 98.4968 16.9318
901.241 98.2311 17.3203
814.635 95.8054 16.7348
814.463 92.0515 16.1451
829.672 96.4036 17.3111
857.588 104.238 18.7749
815.68 100.916 18.2956
844.533 102.939 18.9549
746.345 93.7478 17.3778
735.017 92.1335 17.262
727.76 93.7086 17.8468
753.735 98.6885 19.0612
725.015 92.2525 17.6311
689.453 90.773 17.639
712.376 95.3523 18.7586
687.901 94.0274 18.5833
690.12 93.7702 18.8252
694.859 93.0362 18.9984
629.101 89.5037 18.2523
632.225 94.5181 19.4492
642.348 93.394 19.3862
655.201 95.9001 20.305
626.405 93.2175 19.8485
596.811 87.4312 18.9235
625.666 95.3469 20.4051
619.169 88.8297 19.5155
662.802 91.6237 20.0217
624.372 91.5146 20.3986
649.953 94.5759 21.1619
623.933 86.989 19.7617
606.466 92.5601 21.0446
630.069 90.0072 20.7266
588.981 89.6921 20.983
585.919 87.4516 20.6133
617.741 93.0217 21.8179
591.436 86.749 20.8563
551.15 84.5751 20.3284
578.587 89.4146 21.6736
580.362 92.8436 22.5743
576.475 89.6993 21.9419
549.168 88.2038 22.2463
547.176 87.5294 21.9054
509.385 85.4661 21.9107
560.225 97.6571 25.0794
551.16 91.766 23.8199
553.117 89.0965 22.8879
463.679 88.262 23.4173
493.587 83.541 21.8731
486.756 82.5888 22.2157
519.623 85.7566 22.9215
485.415 91.4385 24.7336
482.069 82.3449 22.3427
470.583 84.7878 23.5133
469.177 87.8071 24.5889
427.476 80.9082 22.6793
447.531 85.3576 24.3958
463.282 89.3142 24.9296
456.511 83.1488 23.5771
469.005 88.0166 25.3204
419.582 86.5993 25.0678
464.111 89.4211 25.8492
395.826 79.2014 23.684
416.047 83.5956 24.8812
415.187 81.1195 24.2525
394.711 81.3924 24.8606
422.466 81.6579 24.913
423.94 83.3154 24.9733
430.344 84.4853 26.1026
410.256 87.3098 27.1703
397.985 85.3612 27.4572
387.631 82.4589 25.3554
364.562 73.2739 23.4223
365.141 78.6856 25.4142
430.028 81.9098 26.0849
378.426 81.7156 26.4436
427.915 86.8891 28.1481
385.424 84.6753 28.0508
407.892 77.6546 26.2389
369.198 83.9361 27.9525
378.978 75.7808 25.4148
348.901 75.5059 25.8776
402.317 77.0276 26.118
354.418 80.8536 28.1418
405.962 82.4626 28.5689
344.237 79.5294 27.9082
357.998 80.4698 28.0712
333.528 81.8805 29.2097
368.599 74.3695 26.6585
353.296 80.8674 28.5965
346.832 79.7679 29.2138
314.564 76.6275 28.3039
333.221 74.6314 27.2791
299.556 74.647 27.878
324.171 70.7628 26.0792
293.805 80.5354 30.3215
308.861 75.5175 28.2454
328.695 82.1931 31.3548
294.552 76.1937 28.8234
293.775 78.6401 30.0175
269.756 76.5237 30.4358
274.591 70.3013 27.4428
298.694 79.8875 30.974
284.927 75.8911 29.7887
293.999 76.4909 30.5382
282.424 80.9994 32.7782
288.093 75.45 30.0119
263.888 72.6198 29.3612
261.29 70.1959 28.9086
252.331 75.1168 31.506
256.602 71.9588 29.907
261.284 75.075 30.957
285.482 76.1607 31.6925
280.708 78.6715 33.1793
270.359 68.5967 29.5325
278.791 71.9735 30.7018
279.097 73.7173 31.4695
249.787 73.0116 31.6626
292.113 78.2626 33.644
263.132 72.4041 31.6682
296.728 77.6059 33.8623
245.966 68.5969 31.1034
279.643 73.0004 32.2997
255.254 71.9641 31.7527
271.593 73.8413 33.6927
224.16 69.2629 31.5052
282.954 77.778 35.6806
249.329 74.1831 33.2676
254.856 69.0443 31.6641
246.511 75.0856 35.4203
265.013 70.8873 34.2264
235.645 72.027 32.9013
258.142 73.0719 34.6311
229.664 72.5508 34.8586
232.528 68.5753 32.3312
224.691 68.1927 32.8553
233.158 72.3669 35.5764
226.014 67.9375 33.1386
220.918 69.9244 35.576
225.001 72.4819 34.743
222.298 72.9318 36.3466
203.046 68.7327 34.8182
216.09 68.6438 34.034
208.266 69.0493 34.9551
215.748 70.8309 36.6965
210.262 66.632 33.5469
212.398 73.8004 37.1119
190.761 64.945 34.992
200.965 66.3469 33.7897
199.487 73.3592 38.1065
205.361 65.6624 34.3074
201.501 67.2734 35.5082
205.559 69.2339 36.2257
213.488 72.7923 38.9476
213.42 71.6961 38.7194
196.335 67.6119 37.254
210.221 65.5988 35.0543
199.182 68.3668 37.0315
214.255 68.3985 37.0342
197.606 68.3839 38.2464
192.322 64.5698 35.5871
179.922 67.5542 37.3185
212.357 65.6579 37.3246
190.636 60.8081 34.1581
201.676 63.5909 36.0138
194.136 65.1718 37.9439
210.737 72.1982 41.5931
200.67 67.1936 38.5496
197.779 61.175 35.3004
190.599 67.1168 38.9026
200.449 66.6782 39.4932
191.147 64.6747 38.717
192.311 61.8993 36.277
176.844 62.7886 37.6233
200.251 71.5363 41.435
180.41 65.443 39.5229
171.383 61.3038 36.7176
178.913 67.2902 41.396
169.3 65.6157 40.3305
176.512 65.6168 39.6367
176.481 63.0528 40.0841
168.219 62.33 38.5137
176.999 64.9135 39.3725
166.99 63.5118 39.5961
167.433 66.0327 41.8005
157.59 61.6181 39.1556
164.013 61.8964 39.3395
165.058 63.4666 40.2231
167.422 60.6911 39.3898
157.481 60.8724 39.1516
159.999 57.9555 37.1894
152.082 60.3435 39.9813
174.067 64.3111 41.9278
161.432 65.8645 42.8704
171.699 62.0506 41.9956
154.34 63.2208 42.2054
167.907 60.5306 40.5021
159.924 60.8453 41.1649
155.518 60.6854 41.248
158.076 63.9078 43.6462
160.752 60.3579 40.6001
153.671 63.6617 44.641
172.059 60.1437 40.3975
153.671 58.444 40.5094
173.503 62.2805 43.2705
153.147 59.4849 41.5997
176.887 63.6408 43.6755
158.59 60.9314 42.4778
165.859 62.7813 44.0404
159.797 61.7831 45.0054
168.367 63.2694 45.1055
149.665 59.7827 42.5687
153.448 60.1207 43.3539
158.977 60.2614 43.2311
151.56 60.8874 43.8156
142.201 58.6123 43.1525
152.242 65.8469 47.9638
142.306 60.5851 45.851
142.667 57.0325 42.0475
131.792 57.9027 44.0093
139.637 60.8159 45.5379
140.669 61.4531 44.5877
129.548 57.1993 42.6137
133.633 54.0598 40.952
142.117 62.7972 47.5328
128.259 57.8567 45.8209
137.97 62.1451 46.5959
127.234 56.2525 44.8806
137.684 58.646 44.7934
127.307 55.5372 43.6022
138.02 59.7326 46.0332
119.156 57.2219 44.3362
135.754 60.3118 47.3658
139.881 61.2063 48.8049
135.522 58.7623 46.2724
138.765 58.8208 47.0472
133.456 57.2739 46.6266
129.894 55.7167 45.0221
129.661 56.7899 46.7259
124.914 56.9499 46.6125
124.524 54.5148 44.2546
133.484 59.833 50.4996
134.489 54.8708 44.3457
132.142 55.9584 46.5272
129.017 52.9466 45.4946
132.706 56.5833 46.1131
127.268 54.3957 46.3148
121.488 58.4799 50.1594
138.612 54.9804 45.5494
127.94 59.3801 50.2439
139.48 56.8689 47.7938
120.072 56.2796 48.4067
133.644 60.9152 52.3821
113.946 54.6436 46.3994
117.66 50.6369 43.938
116.844 52.6857 46.046
117.239 58.2447 51.8986
121.55 58.188 50.0273
115.856 54.019 47.1211
117.433 54.2285 47.1797
115.81 54.2621 48.3554
107.873 53.6287 48.3281
119.364 55.0137 49.2953
112.496 53.655 48.7602
109.339 55.9221 49.6161
113.009 53.0745 50.0729
116.249 57.0974 51.397
113.119 54.6798 49.806
113.369 59.767 54.1043
111.841 55.0172 50.664
105.128 52.4133 47.9705
115.498 54.3565 50.7538
102.159 48.7753 46.4679
101.514 54.9178 51.3561
117.268 57.0231 53.875
106.861 53.9376 49.7602
100.913 54.8672 52.0871
102.109 50.4635 47.3465
97.1187 48.8072 48.1707
104.683 52.522 50.1773
113.534 55.3568 51.2343
100.271 53.6726 52.1878
116.703 52.9226 51.6597
105.43 52.9039 53.0898
115.644 55.191 53.2811
103.019 47.2751 46.9223
107.596 49.2998 48.3887
102.243 54.2457 52.2962
114.045 50.3926 50.1487
113.115 54.5804 54.8249
114.68 55.625 56.1339
93.2477 48.4473 49.0018
113.627 52.5888 50.1842
100.777 49.3688 51.0549
103.544 48.7885 49.8749
98.3056 53.076 53.9707
100.42 51.1666 52.9761
102.957 53.7107 54.076
101.519 50.0677 52.3365
106.328 52.691 53.2198
92.0762 49.4129 52.5028
86.8529 47.7304 49.5551
97.6062 51.2023 53.2559
88.1025 46.6847 50.1903
98.4547 51.2114 53.6901
87.325 47.7141 50.0436
93.159 50.8902 54.5888
87.2476 47.4901 49.4305
88.1102 51.2153 54.4513
85.4241 49.4766 53.3207
89.4476 54.2551 57.7114
88.8886 49.9505 53.1886
83.0508 45.5776 50.9575
88.1628 48.4028 53.6492
89.2122 49.8326 52.7059
85.0623 52.5812 58.0288
84.0705 46.7137 51.298
91.5478 47.88 52.9679
92.1146 51.6741 56.523
91.8447 51.9693 57.7666
91.5118 54.5736 61.3555
88.0274 50.3462 56.7984
88.1968 46.8241 52.8296
98.0169 53.1253 58.0555
89.7907 52.0591 59.7807
85.0275 47.3679 52.9204
92.2789 50.6411 57.1161
84.7036 45.5063 53.6506
90.204 49.8456 57.2127
89.5636 48.3415 55.2767
86.193 47.6048 55.0171
88.9584 47.9566 54.6379
90.8483 47.0208 54.56
81.2985 45.3691 51.2163
87.8623 46.7408 55.7652
82.5596 48.0307 55.6519
94.4579 48.6561 57.8963
72.7968 42.1226 50.1404
87.3276 47.0538 55.9104
80.4936 48.9071 57.2796
80.0271 44.1624 53.6981
80.2439 46.1511 55.5767
81.4 42.7288 52.1402
82.1594 53.6885 63.2209
81.4762 51.044 63.9227
75.4195 44.3682 53.6171
77.5018 47.5425 57.757
75.6224 46.8734 57.8746
71.0838 42.8868 52.8341
73.8524 46.9012 57.4263
74.7275 42.7945 51.83
73.2755 46.13 57.7862
73.9379 47.2577 59.1144
71.9777 48.5799 57.5198
74.8418 45.343 57.639
72.8563 47.7456 59.2303
75.2694 43.9374 55.2388
65.6587 43.4142 54.9167
76.8597 45.3367 58.155
70.9947 49.3006 61.3403
74.0677 46.8788 61.3795
72.0395 44.6719 56.9573
76.8787 44.6261 57.9083
66.4025 43.0047 53.9146
75.9291 43.5193 56.1461
67.9458 40.7274 53.2149
75.6041 46.3071 61.0209
69.6662 45.3107 58.8319
80.0511 44.3971 57.334
68.1987 45.6442 59.4754
74.564 42.8824 57.205
69.801 44.543 59.566
77.937 45.2368 59.6813
68.2977 42.3345 58.4173
76.7724 43.9819 58.0176
68.1258 44.6945 58.9955
74.6131 45.8182 60.388
65.445 42.0471 58.7349
78.8744 46.0357 58.9403
66.1376 44.1069 60.6189
70.0946 41.2348 56.7531
67.7402 42.8583 57.8685
70.583 43.0253 56.5197
61.6798 43.6832 59.493
66.9778 45.0196 63.6245
65.1175 42.4509 57.2586
64.5085 41.4916 55.5278
59.6874 42.7788 60.8448
59.6769 41.8254 58.0828
62.3394 45.6169 63.619
66.1599 43.7779 59.3655
53.5155 41.5956 59.9235
60.4373 41.9114 59.8269
59.3379 41.9689 60.3685
60.2607 45.3664 63.234
55.8114 46.4177 67.2359
56.7373 42.0593 58.578
61.7735 43.7383 61.0542
59.1207 42.4188 60.9512
61.9683 41.1138 60.7601
61.1291 46.6188 66.1671
55.5228 43.6058 62.1031
56.9659 40.3759 58.8394
60.3436 45.6464 64.6707
63.1053 39.9811 59.2951
56.0469 40.2184 57.7104
60.9243 42.8171 63.4934
55.9714 38.7225 59.3445
59.5833 40.4944 58.3702
53.1185 38.8446 56.9706
59.5489 39.7635 58.9842
55.2946 40.2327 58.7594
59.022 40.6764 63.1412
58.9686 42.8185 61.5886
64.1951 39.1135 59.0558
53.6237 41.0061 61.8927
61.3634 37.3615 53.7116
56.1267 40.7035 62.9203
60.7808 41.5191 63.7307
51.7727 41.9644 67.1575
61.8669 42.1564 61.184
55.1008 42.149 65.8497
58.4426 39.3955 56.283
58.2189 44.1884 68.3693
63.7977 40.0789 59.8694
51.0261 42.837 66.5056
53.8963 36.651 56.379
50.6812 40.2693 63.1977
55.9782 41.6913 66.4229
51.5935 41.257 65.0473
48.3274 36.3698 58.8719
52.5803 40.6497 62.6238
47.662 39.1588 61.3868
51.5242 40.4325 63.3683
51.3148 41.2713 64.8788
48.0953 40.1956 64.1713
49.9856 40.6152 64.1594
53.3571 39.0554 62.8127
47.5776 37.2404 61.3256
47.7009 37.6376 60.5519
48.7692 41.3962 66.5384
51.0699 42.2203 65.6486
49.02 38.0437 61.7748
46.701 37.7292 62.4826
51.258 38.2954 62.0543
44.5175 37.5428 61.0483
55.587 39.8486 64.442
49.7124 39.2132 64.9787
52.2236 39.9059 66.166
49.3736 39.2693 64.3842
50.7967 40.2686 69.1443
50.7728 40.3875 67.1096
54.3458 40.6266 66.4909
48.7132 36.7676 59.0222
53.9452 37.4304 61.6174
46.2384 37.0037 64.1298
54.2128 39.2032 66.8681
47.4019 40.3227 66.0573
54.7775 38.5728 63.9401
49.1778 37.74 65.1909
51.5202 35.5647 61.5295
48.4488 38.4988 64.9909
52.71 38.8934 65.5084
48.7985 39.8547 68.2955
51.7657 39.331 67.816
46.8241 36.6697 63.0317
51.4822 37.6308 61.7761
43.4833 35.3772 62.7327
49.5716 35.9549 64.6448
46.1874 39.5014 67.6637
44.088 38.9931 68.7836
43.7379 36.6868 62.5282
43.8309 35.4808 64.9477
43.4043 36.8272 65.582
46.0969 36.8494 59.7676
42.8906 37.2911 65.5603
45.7299 39.5043 67.1973
38.8054 35.3191 62.8452
42.6998 37.3846 67.1072
44.1293 37.5723 67.1497
47.6313 36.2806 63.9044
42.4196 38.5211 68.0835
47.228 37.2134 66.8619
44.454 37.7488 69.7789
46.6305 37.9917 67.544
42.6513 38.5942 68.2218
47.6082 36.0869 66.6514
42.8678 36.7276 66.7389
48.5736 39.6654 71.9776
46.0261 37.666 69.0821
45.0742 35.3253 62.5863
44.0715 36.5591 67.3027
47.3206 37.3995 69.4696
43.6598 34.8893 63.9698
46.7873 37.0789 68.8123
46.2973 36.064 67.2853
48.9092 37.7459 68.3724
45.9613 35.0193 63.2404
45.5904 37.3222 70.8588
41.8256 35.8118 69.8037
46.8283 37.2465 68.7005
47.1161 36.7685 66.1456
44.3074 34.6183 64.8078
46.9267 37.3606 68.2358
43.556 35.7864 66.6176
42.687 36.9255 70.959
43.0456 34.3798 65.8142
43.0881 33.6556 65.8981
45.918 35.9767 66.1639
41.1874 36.0656 70.3148
44.9363 36.945 69.8187
43.1973 35.2151 66.5614
43.3626 34.9273 68.762
38.1768 32.5234 60.8431
38.6899 34.5303 67.3818
39.6233 35.5542 68.8649
42.3198 34.7471 65.3897
39.7209 34.3826 69.6895
42.0191 34.6296 68.243
40.1172 34.9346 69.3311
43.4025 36.9188 69.0658
38.458 34.1261 67.6223
37.9771 33.2214 64.0834
41.3662 33.0729 64.0013
38.6275 33.5322 64.9782
39.1434 30.6522 63.023
38.5489 35.1865 66.7619
37.3335 32.7272 67.1025
40.5356 32.2041 63.7724
41.5254 35.3415 67.8461
43.4519 34.8017 67.2866
38.0567 31.6415 64.8455
40.2526 31.6941 65.6643
37.7594 33.5226 69.1641
41.7557 34.2003 67.0369
39.0714 32.1392 68.2777
41.2526 35.4122 72.1476
39.6307 32.4833 68.1515
45.1588 35.038 65.3597
40.1001 32.7794 65.6218
44.2329 35.8922 74.6898
37.0351 32.6579 65.5025
42.037 31.1156 61.8832
37.8852 30.6162 64.5994
42.6266 35.2424 66.9029
38.8596 35.0979 72.3724
41.9305 31.3622 68.185
37.5895 32.6336 65.7253
38.4963 32.3037 66.1471
38.7101 32.9673 68.9168
38.1472 32.7812 72.0414
38.1844 34.0187 73.9832
39.05 33.6798 69.3057
38.2324 34.2824 71.122
39.2307 35.2539 75.1137
40.9511 34.065 70.2874
37.9758 34.2501 69.3062
35.5733 30.8831 66.629
36.7101 33.7674 70.8147
37.6609 35.8417 73.7345
35.1247 31.7709 70.3116
37.579 30.5411 64.7249
34.0865 32.9191 71.1179
35.6857 32.5528 68.6316
35.7788 30.5121 65.0929
35.2058 33.6001 71.5566
37.0399 30.9358 66.9299
34.551 31.7813 68.0869
36.1336 32.0403 69.7403
35.5073 30.3553 67.458
38.318 32.1797 67.865
34.7474 32.4054 72.8257
39.1776 30.3626 66.9014
39.9314 32.8242 66.3162
35.4281 33.9911 76.3013
35.1546 32.6226 72.3335
40.5986 32.7505 72.4997
36.2277 30.0881 66.2434
40.7661 31.2374 68.1405
34.0269 30.6997 69.0079
39.9042 32.2504 69.4052
41.1237 30.7864 69.6247
39.1659 30.9539 67.8917
37.6022 33.1249 71.8171
38.762 30.1944 68.9683
36.424 32.2741 74.1655
40.1612 31.2681 67.2508
35.2476 32.5783 75.6588
38.4064 31.0094 70.1731
35.3433 30.7958 69.2712
39.4354 30.2263 66.0998
36.8315 33.133 76.831
38.1134 32.9821 69.6078
32.5032 32.4172 78.3094
35.8958 30.1573 67.8753
34.9532 31.2717 72.3454
37.7348 30.6008 67.4165
31.0154 30.0287 70.8965
37.0529 32.2813 75.0978
33.8242 29.6229 66.9947
36.6233 30.6067 68.6558
32.8758 30.9639 69.6712
33.9781 30.3749 66.8085
32.7609 31.1548 74.1733
30.2709 27.7543 66.0247
33.6395 30.2063 72.6147
32.6691 30.2709 69.6757
33.4766 30.7406 69.4029
33.9012 29.674 66.9182
33.6939 28.3003 68.4644
34.0312 29.8037 68.8935
29.4764 28.5626 67.9976
35.2043 30.6432 70.3786
30.2999 30.3183 73.3581
33.4138 28.8505 68.884
36.3217 28.6446 65.0459
33.9959 29.9148 71.9457
33.9494 27.9991 68.6178
39.0664 30.5263 71.7753
31.9424 27.8413 64.7881
34.4845 28.3284 68.2545
33.2035 31.6854 75.6809
40.451 29.2741 68.6674
33.3222 27.8994 69.8121
39.2296 27.8242 67.5975
33.916 29.1734 71.2201
36.9782 29.8118 71.0798
31.6634 28.3548 68.2763
37.2268 29.8437 70.3959
32.1301 27.7782 66.7202
35.0714 29.0656 69.5735
31.4758 29.1739 70.0007
36.6011 29.1351 70.7098
30.3327 30.7253 77.635
34.3726 28.5188 72.1987
33.1604 29.7571 72.2588
31.1946 27.6214 69.7866
32.7195 28.7274 67.287
32.5501 29.6692 69.7418
28.8766 25.8585 68.2803
30.0163 30.0989 70.705
28.7469 28.9899 68.2707
31.4269 27.386 73.194
30.4156 28.7587 71.2864
