# pn-170911/CsIIA-40-WTZR-1280-1959.psd
# Power spectrum* (dif=0,1,2) (really just |FT|^2)
# NOTE: only the first half! (symmetric)
# weeks: 1280-1959
# 5 clock-days, 8 excluded
# PSD: 1441
23483.5 0.29172 0.0422567
923498 45.6272 0.0132709
2.573e+06 32.6346 0.0109357
1.49539e+06 72.5776 0.0155144
479927 17.1583 0.0177235
182007 13.141 0.0116755
500896 38.7267 0.0280151
195010 50.9635 0.0189876
210307 41.2773 0.0404859
65726.1 24.008 0.0208486
145976 45.6358 0.044685
72229.9 47.5495 0.0457438
136301 60.8373 0.0664913
91061.2 26.8892 0.0232149
56367.1 22.3185 0.0468751
58735 40.1741 0.0573559
88403.1 59.6788 0.107495
43164.8 43.0759 0.0898447
46646.7 57.3379 0.125253
45869.2 84.8969 0.184498
31278 40.7731 0.100588
64547.8 79.0682 0.196437
36545.7 58.1039 0.15073
38674.8 53.2044 0.149269
10194.1 20.7368 0.0726573
20953.6 52.5942 0.170887
16143.8 31.2821 0.143559
16653 49.4154 0.239572
15013 24.7384 0.136032
26211.2 54.7966 0.161051
13843.7 48.4874 0.30496
25105.6 71.3885 0.378615
25743 103.178 0.488465
16676.8 52.1119 0.300701
9924.39 39.8692 0.209284
10945.6 23.9109 0.110519
14779.1 37.888 0.240661
12187.6 45.5778 0.314533
10263.9 44.2184 0.312038
4939 30.8177 0.230799
13683.9 82.1392 0.73801
10188.3 34.8858 0.328803
9489.44 55.5383 0.436835
2351.09 20.1292 0.217203
13370 122.11 0.97309
11412.5 71.1062 0.647559
5208.1 26.5512 0.32505
5886.87 62.9679 0.676152
6827.19 36.276 0.465218
6310.15 40.4457 0.502033
6434.08 73.9511 0.894642
6288.83 32.6002 0.499245
3516.36 37.7038 0.451643
5151.56 33.5413 0.417967
3399.51 20.5358 0.313948
2911.39 17.1711 0.21979
5615.3 43.8122 0.636045
8401.51 78.4226 1.16166
7304.31 75.2491 1.28281
4357.64 57.1092 1.01553
1130.49 29.9651 0.506094
5475.45 47.3234 0.793186
4517.02 43.0285 0.744006
3804.29 48.8152 0.918089
5135.96 50.3046 1.10555
3664.66 41.2267 0.830288
4429.45 50.9278 1.10308
1217.26 21.9975 0.453728
3420.04 41.8046 0.874047
4607.54 63.4221 1.46598
2069.4 43.6721 0.98898
4018.84 59.0469 1.52181
2652.39 37.4599 1.14166
1900.87 70.181 1.77577
2431.21 39.0343 1.00114
1459.95 10.0705 0.260897
1464.36 39.7356 0.9831
1821.07 22.9112 0.627065
3064.4 38.3708 1.14084
2804.47 84.9186 2.78516
3505.29 46.4487 1.35185
1998.94 60.0634 1.64085
1223.31 43.1102 1.34789
1901.29 52.004 1.694
2450.62 66.5307 2.44035
2222.49 33.0537 1.24343
1517.94 18.6932 0.567371
1561.73 53.4691 2.02935
2703.54 56.988 2.06411
1162.83 19.6916 0.738603
2744.71 82.1206 3.1596
2533.45 40.1996 1.69821
1779.19 64.8593 2.27515
1383.02 39.303 1.50217
2518.73 40.6067 1.8014
1022.48 18.1246 0.863573
864.459 33.6782 1.49721
1487.91 47.5679 2.07035
1173.58 48.2749 2.17684
1229.78 33.0785 1.61507
1648.48 65.7725 2.90019
613.028 29.8879 1.484
1582.05 67.2401 3.33313
1772.98 71.0828 3.57529
1999.15 77.531 3.96233
3113.86 120.363 6.51833
1150.29 81.341 4.86331
3296.97 111.497 6.06017
1179.84 32.8138 1.58182
1795.88 67.1793 3.78717
831.118 45.8671 2.51244
1417.78 57.4818 3.54907
1417.85 53.745 3.00341
1195.72 23.2932 1.63152
784.545 30.5562 1.79082
715.522 37.3856 2.55932
1017.98 46.1785 2.6931
1202.15 71.4464 4.41411
969.028 29.4786 2.09732
647.846 27.8328 1.80783
817.998 28.7957 2.00787
1303.12 62.3149 4.69325
722.394 39.7156 2.82248
1353.43 68.317 4.63267
1618.82 53.7736 4.13318
613.443 14.9726 1.29443
858.472 54.6544 4.39938
750.188 24.3123 1.82706
361.672 20.3087 1.63677
548.635 31.4558 2.69224
945.084 37.9813 3.01155
619.783 26.0931 2.11039
775.446 39.6097 3.02677
710.346 42.9061 3.65539
856.468 47.4531 3.89095
381.673 45.9527 3.75998
571.755 58.9268 5.63202
537.654 33.6018 2.87385
1759.65 117.749 10.2982
739.969 32.0892 3.45389
534.551 24.3355 2.34487
859.933 38.4216 3.83553
576.553 54.356 4.80401
639.852 33.8921 3.63005
391.56 65.5353 6.03953
559.888 20.4337 1.98334
314.182 36.0802 3.7304
274.312 29.669 2.7085
513.424 22.6088 2.33731
873.067 78.9954 8.27543
378.618 42.107 4.40108
305.382 20.808 2.59711
1062.54 58.2904 6.40354
553.628 34.107 4.01354
424.24 32.7111 3.47787
733.409 40.6319 4.68251
450.009 36.6413 4.19397
282.314 58.3891 6.43396
249.445 40.4886 4.33807
809.931 89.1114 10.5742
763.782 44.8905 5.47885
138.93 19.3128 2.82854
373.824 14.2393 1.35673
416.807 52.1324 6.52625
316.351 23.4863 3.23997
427.178 15.5015 1.7107
265.263 35.491 4.59703
380.128 28.2869 3.98418
428.687 15.8283 1.76219
334.609 33.787 4.90975
339.546 40.3248 6.04292
433.701 35.0396 4.86888
838.609 67.2028 8.31208
879.745 61.4682 8.3429
513.369 25.2205 3.65334
663.943 56.8117 8.90583
251.518 28.6951 3.68659
650.375 104.303 15.0257
289.973 15.4814 2.22108
406.989 44.4191 6.94358
491.101 80.6951 12.6581
276.776 32.012 5.0638
218.251 40.1181 5.74816
455.129 51.5957 7.96368
418.596 33.5849 5.48031
817.406 68.199 11.0571
514.522 48.9969 8.30679
351.102 46.0011 8.3806
500.045 39.5801 5.9583
225.675 31.971 4.77952
210.24 46.6079 8.60431
560.003 30.4323 4.63578
449.712 35.6216 6.47798
488.439 31.0989 5.19228
408.754 44.2223 7.87054
109.537 22.9615 3.84823
368.497 37.6936 7.21636
332.249 37.0778 5.96913
451.37 58.7869 11.1576
488.853 44.3909 9.94049
579.837 76.2136 13.4779
178.642 22.0962 4.14494
205.657 28.8296 4.90395
264.254 52.9226 9.95533
209.219 40.2796 7.99052
341.057 69.5922 14.3391
236.647 20.0994 3.91989
178.965 39.8556 7.73819
248.734 25.1522 5.00078
236.521 42.2007 9.08355
379.822 60.089 12.5033
494.617 41.9089 7.76398
347.2 28.9875 7.07161
229.421 18.8418 4.09032
178.18 52.2571 10.8821
276.313 22.8321 5.57031
302.933 31.4547 6.21631
261.808 49.9168 10.8476
598.836 78.8657 18.1659
361.351 20.1637 4.11202
215.182 27.7993 6.67063
235.268 38.1739 8.15439
327.903 24.879 5.02319
160.158 13.2221 3.62348
437.623 40.5223 10.139
149.787 30.5862 6.80809
349.772 50.5514 11.2352
312.21 54.4041 15.0332
286.852 41.9332 9.99578
182.45 20.0264 4.07423
281.286 40.1539 10.9061
352.423 48.0735 12.553
181.452 45.0664 11.0531
268.414 37.8959 9.15823
163.374 47.4038 12.5191
444.603 49.65 12.1005
273.154 50.5095 14.2078
148.005 28.8147 6.93327
328.905 43.1591 11.7314
235.38 41.738 10.0267
175.09 49.3407 14.0102
146.421 21.2186 6.87245
299.545 31.8425 9.42982
207.955 25.9927 7.9026
397.201 54.2074 13.9044
248.006 26.8794 7.25056
229.084 27.3692 7.45215
252.508 46.9652 13.2453
197.507 33.315 9.46477
130.535 28.7412 7.77506
144.707 24.9687 6.99563
273.565 58.7412 18.6518
152.759 15.5414 6.33969
147.146 18.4302 4.48996
351.29 83.5311 22.3001
146.079 20.0428 5.82372
160.162 42.8739 12.4498
192.702 17.8727 5.99669
94.4475 32.0348 9.17282
196.546 27.4194 8.58513
199.571 30.7278 11.3072
155.476 35.7188 13.196
112.375 40.37 12.3413
283.467 55.6056 19.9397
111.038 12.6981 5.37605
158.814 55.2551 16.0079
165.446 39.5379 10.9841
149.205 68.0296 21.3655
121.012 34.3066 11.84
157.956 29.0897 9.94738
137.443 11.4157 4.75671
110.646 16.3012 4.65477
113.44 31.1604 12.0598
187.149 63.9561 20.2166
305.649 63.9393 21.6927
164.815 25.617 10.0425
141.724 30.6327 10.2307
116.738 28.6021 10.2235
106.23 37.6604 14.6017
120.16 24.0192 8.62719
220.681 37.3681 11.735
195.229 40.3171 15.4639
164.733 22.0891 10.2974
411.946 79.1582 25.377
201.014 45.661 16.456
121.416 25.2216 10.5985
176.588 40.2185 15.1216
127.037 30.3124 12.2871
165.743 34.3943 13.7184
90.0649 45.9006 15.0893
84.4873 30.4139 13.3159
251.659 39.2364 14.4459
100.816 18.6023 7.19636
135.617 34.5471 15.0275
60.1309 16.4222 6.63244
91.4776 23.5713 8.12757
116.551 19.6302 8.27669
94.5624 25.2055 10.8928
255.857 54.9593 21.7423
116.486 19.4188 10.0264
326.632 90.0748 34.1629
90.8403 23.1412 12.0742
89.9601 29.5955 11.8806
159.232 63.3546 26.6693
210.411 63.6745 25.0768
123.446 40.8013 20.5744
59.4869 31.833 13.3482
101.903 27.0396 10.1744
61.0574 26.4724 11.4611
232.998 69.7343 28.8959
170.408 25.9067 14.7034
187.269 34.4385 10.5328
145.092 41.2803 16.7884
207.145 68.1183 36.2094
119.668 24.2163 15.8475
94.0695 26.3077 10.6976
24.8363 13.1485 5.28307
68.6635 36.6468 15.3364
200.902 58.4918 28.4437
160.945 43.9858 18.865
70.9005 19.8751 11.8746
120.991 40.7289 15.4919
76.2808 22.864 13.3721
129.49 40.7912 15.3854
130.198 27.5045 13.522
129.338 19.9148 10.9396
62.2088 18.4222 7.22814
107.231 30.1907 15.9764
83.7642 23.5649 14.4474
178.654 64.2194 29.4851
48.8354 16.6438 9.09848
98.8733 43.0702 20.4864
65.1918 69.2424 32.1996
91.3902 33.5867 15.1865
30.1945 20.9592 10.4608
94.1229 40.444 21.6025
93.174 21.7835 10.8684
35.1972 21.2676 11.7974
100.255 39.7607 23.4499
96.0611 39.5944 20.4802
120.789 12.576 4.31952
82.9025 35.9232 19.2744
93.9683 33.3469 19.9625
104.179 33.9455 16.1846
34.7089 22.5713 15.8093
124.447 50.984 24.903
84.271 15.4667 8.03917
139.094 20.9655 10.4112
63.3403 12.7951 9.23345
56.1374 22.1426 18.5551
121.86 26.3509 11.3476
123.401 44.5229 21.167
89.3154 27.8443 14.7452
48.2332 40.5837 26.4246
106.858 40.8723 17.5568
52.827 20.1122 10.9642
137.677 61.5079 31.0815
65.7005 30.1667 22.0433
90.3119 33.1866 16.8246
69.8613 30.8351 21.4487
47.5821 31.7414 20.4209
63.8864 22.5126 14.0155
119.63 16.1902 8.19582
103.846 23.5281 12.3713
96.0578 18.6703 10.0372
87.8001 35.7895 20.4453
122.426 31.3172 19.8723
88.8678 38.3524 24.7922
63.5061 22.4141 11.6367
46.6028 31.0903 18.0623
62.646 24.8545 17.4748
95.3106 25.8839 15.6141
68.0196 13.4379 10.0003
34.5528 21.3791 11.5373
69.4782 57.5798 41.1028
116.684 25.5766 12.438
103.724 32.6992 24.2538
90.2575 24.6665 17.1369
74.9025 41.2091 26.145
115.37 36.3592 19.915
70.0318 26.4539 21.0118
95.2672 47.6266 29.3795
57.4977 7.53534 4.52823
98.0304 24.3198 14.9351
87.9417 25.1177 20.2995
60.7069 25.1658 11.815
81.8531 33.9439 23.7874
77.9123 26.9144 16.3632
108.333 47.4338 29.509
38.4897 8.49152 7.01729
95.7219 18.674 12.8212
29.7305 13.771 10.1183
72.7242 30.537 19.8751
44.875 13.306 14.5216
87.8149 16.391 10.8079
58.1207 19.2146 12.0421
48.3906 15.7934 11.7355
51.642 29.736 22.7605
61.9885 33.5749 19.7858
31.7447 21.5758 14.0906
67.7991 26.2211 17.268
42.641 11.1702 7.44177
35.6095 13.9473 13.0815
120.333 34.8028 21.5749
41.68 26.8621 22.5247
80.0748 37.023 26.5186
146.076 44.8252 32.0175
54.9272 40.3282 30.9544
73.483 35.7772 26.8472
84.0176 42.2364 31.753
89.9241 42.7184 39.9995
49.2996 34.1908 26.0682
96.4201 33.5915 22.6342
56.8395 15.9778 10.5137
67.1621 18.5244 15.1806
49.5569 33.5111 23.3327
60.4256 14.7838 10.9574
46.764 31.0731 18.9224
43.2073 17.1695 17.4896
22.4279 30.3049 26.7151
50.7441 24.2386 13.5967
38.7128 20.8504 19.0171
49.5059 25.4284 23.8095
91.8805 20.3057 15.9074
72.1221 40.2549 33.8191
91.6765 25.696 19.9914
54.19 16.7329 12.5886
25.6324 11.2044 8.09533
27.8501 24.4203 17.7085
35.2019 5.52274 4.90302
40.8423 45.0926 45.5035
118.586 60.6007 42.6209
75.1144 32.664 25.4122
83.0942 20.8396 16.2276
52.6655 27.1756 27.3437
82.0958 22.848 11.952
66.4569 19.2769 14.6282
54.3885 21.6712 18.401
68.211 21.5469 13.639
87.6898 49.4001 44.0668
49.8732 62.0873 55.7039
86.4084 34.34 33.1665
59.0577 30.6624 20.6235
26.5058 12.6072 13.1253
85.0963 28.3653 29.2308
74.8202 39.5847 29.9607
39.5108 4.60968 4.86512
44.5629 48.694 41.3124
53.6604 9.58319 11.1211
48.1531 19.6967 18.7975
61.5319 23.0243 16.5007
19.9666 19.0972 19.7175
56.7863 33.2807 30.8251
82.1168 45.7117 38.9275
39.6161 16.6812 17.2057
70.6317 25.3598 20.0463
49.1128 19.9912 17.402
62.8262 28.0669 30.6659
68.0239 24.2052 19.3714
69.0309 34.2964 33.3569
44.0576 17.5343 14.4467
22.7634 22.9051 33.0226
102.772 46.1895 39.9505
26.0523 33.6697 27.3142
58.7846 32.5112 29.6538
43.47 37.3709 38.8405
37.7164 31.3336 25.2853
31.101 17.7161 16.8148
41.48 11.3968 11.9081
89.2859 44.9084 32.7761
25.8114 25.8112 31.7707
99.4804 57.9618 61.3538
87.1132 35.0955 30.0672
117.137 67.9514 60.2525
47.1238 25.1412 31.8251
35.7912 23.5135 25.3659
68.167 25.818 20.3409
50.0045 33.0875 32.8135
33.6332 16.6281 15.2437
34.5428 17.5359 24.8119
33.6032 35.6969 30.8627
23.0598 16.2576 18.7962
43.0879 7.44134 8.31504
53.2951 18.6988 14.8062
86.1295 43.6702 43.9607
57.1799 27.5378 27.9257
47.0339 26.4902 35.9757
51.9606 22.3254 19.657
31.8716 9.75907 9.12507
28.2824 16.421 12.6939
41.6603 14.6323 18.6435
12.2447 23.5741 26.8587
61.1 32.2228 24.1429
17.1318 9.11674 9.52977
15.5615 22.6353 29.6384
60.8607 25.4322 23.2769
28.7769 5.84525 5.2533
17.785 27.3596 26.8915
25.8506 16.4457 24.175
50.2342 16.365 15.6362
52.6366 18.1231 14.6798
47.2731 24.5165 31.1704
70.8942 32.7268 35.1895
60.0901 21.0001 26.0703
18.7794 14.7171 12.121
41.3983 30.0749 32.8714
19.9217 8.64485 13.5523
28.6358 23.2711 34.6533
72.6749 37.9212 44.7372
54.5616 43.8714 31.3396
36.3899 13.9171 15.6263
34.1208 46.8578 50.8969
23.2287 16.2555 20.3678
41.9126 29.5154 34.269
54.9392 27.9813 31.6741
32.2291 23.9019 34.0704
47.9412 23.1612 20.0991
68.1004 45.5929 54.5117
19.1822 7.97656 6.80347
9.55461 21.8652 34.9745
50.4415 10.002 17.6051
27.5159 15.3146 17.9613
48.7991 30.5221 39.7339
84.1537 31.8437 26.5633
59.9485 40.0523 38.6705
57.6355 30.4082 34.0775
20.2456 7.37421 10.9072
23.7852 20.3995 33.1201
44.8081 27.2307 37.4778
29.1776 24.5283 25.1057
34.26 12.7814 11.4164
29.2241 33.4156 32.9302
40.7044 22.6726 32.2436
30.5875 16.6766 13.2935
30.5383 17.3984 32.1096
31.399 21.8823 25.9172
61.3919 31.5108 30.5541
28.5251 23.2589 27.3037
24.5016 40.8504 44.8672
16.8929 17.9611 32.0932
29.39 34.4905 48.4065
60.9281 12.4103 11.4734
64.7509 33.0242 43.3793
26.525 16.7835 35.1993
50.6313 26.7656 26.2953
55.5822 19.4256 16.3328
27.5628 28.2757 29.9684
49.2036 36.2908 40.8607
26.8498 16.7357 26.1332
67.9922 30.6831 33.7538
30.5812 13.9517 21.8888
22.0688 9.68371 20.96
35.7019 15.4275 11.6234
47.5132 29.9657 34.8087
20.9843 34.1555 52.1269
44.1445 28.8657 26.1648
31.3746 10.1728 12.3539
44.1272 15.9244 13.4287
24.1849 24.6973 30.7346
24.4001 13.5168 24.2926
53.5496 33.5908 36.6003
26.8534 10.5747 17.7588
37.4216 10.3376 14.2682
26.4997 30.3134 52.7351
30.3585 9.64452 10.6347
32.9873 25.6874 25.2396
57.3093 32.3995 46.3476
26.3408 10.8516 19.5778
18.5138 6.57604 18.3224
35.2577 30.8993 31.8491
10.672 8.46842 10.8559
28.9028 18.1523 27.5025
19.1805 12.412 19.9849
36.8629 18.471 22.4122
26.4869 20.2237 28.9057
25.9896 13.3919 28.2193
60.0221 24.7554 30.5813
44.8158 15.9963 15.1116
27.226 16.494 24.3507
56.2345 25.6032 27.3656
26.6581 26.0609 51.9789
46.7309 42.7 47.013
18.2645 11.1495 27.8924
20.3773 19.0982 23.1216
17.2887 16.6584 25.7419
31.2772 16.8432 21.9917
37.4778 22.8455 35.9209
37.4598 23.2166 34.3818
51.5055 30.3084 28.9253
39.5899 25.5271 40.3663
38.5412 23.2076 28.7674
33.2468 29.9199 40.821
20.417 13.6876 30.5763
58.2751 44.3647 58.212
38.7769 20.0525 35.7093
49.7467 36.5674 54.0158
5.04629 16.9805 24.712
23.5891 6.94208 10.3958
26.9119 18.9798 30.9836
19.5085 12.7798 17.2816
34.6161 10.2096 9.71305
48.7428 35.7483 46.5313
14.2893 12.6055 22.3942
21.2836 24.3151 35.0938
21.5919 15.4523 23.9429
41.8635 20.0401 29.2655
25.6553 16.3798 28.2058
19.3557 10.1569 22.259
23.536 11.1112 19.7357
7.2483 19.5578 19.6472
25.4396 31.8074 46.3118
30.1559 10.2831 8.2391
21.4487 11.3651 12.1341
18.4988 15.4938 25.9377
24.2643 23.0816 42.4925
21.9249 15.5757 41.8669
37.9241 32.6671 59.3046
39.4348 29.0393 41.6815
25.1377 9.75758 18.6924
39.8783 19.8131 22.0842
24.3621 14.998 23.9417
15.4255 13.5358 15.3096
24.8837 17.9684 25.9929
23.4748 12.1914 15.788
19.7241 17.092 30.0273
33.0831 20.7579 45.0933
52.4785 25.4173 32.3272
24.6835 38.5354 56.3322
30.1723 19.534 32.5658
16.8793 25.8849 42.4983
50.8861 25.3008 38.594
16.1088 12.5842 22.5602
20.4148 15.6504 25.9044
25.6549 9.57505 19.4692
14.4064 15.9342 34.5834
33.6316 16.0942 51.9984
77.1553 59.2435 58.044
12.2309 13.3783 23.0987
15.2411 24.0304 62.402
47.2179 25.1398 17.8812
21.3562 20.7275 34.5142
31.8933 15.5362 23.3057
27.6072 11.14 19.9466
20.5681 17.0631 29.2924
17.1978 18.2512 28.9114
28.8207 13.6231 35.3294
48.5994 36.2112 60.3284
26.1577 19.476 25.0042
28.1986 12.9522 24.6458
19.8095 15.464 23.3797
18.4498 9.89066 22.2754
21.4838 15.0398 19.5764
27.6963 20.1268 31.9037
18.677 15.38 33.2425
28.7364 14.5706 37.1658
38.1455 22.4238 23.1506
20.6274 9.424 23.3651
32.1249 27.3498 33.49
17.9079 19.8696 35.0083
24.159 29.593 50.4525
14.3176 11.0203 25.6606
28.1487 17.004 30.455
32.3704 20.3596 33.3358
20.292 20.2789 32.5393
18.6871 7.9565 16.3175
34.0714 16.8309 22.4061
13.5897 7.52798 15.93
14.019 14.8366 30.4731
11.726 12.3012 32.0914
30.6961 27.3175 49.9374
39.7902 30.4801 42.6899
29.1982 14.6493 27.3492
23.8888 11.7679 16.5971
25.6046 19.2929 43.777
29.0271 15.1913 37.8117
24.322 29.8707 37.7557
17.9012 9.93672 15.7818
13.9712 17.2937 32.1427
10.495 13.4203 26.5098
32.2103 10.9654 17.927
28.1492 16.2364 29.2059
8.87642 7.44665 23.9634
29.8195 12.4804 15.9127
40.1345 26.8104 48.6994
15.1769 3.45613 10.4567
28.1474 28.0804 41.0042
14.5498 7.77537 21.2609
21.801 31.2509 70.7099
16.9277 17.7569 20.5184
15.0059 9.55427 16.502
24.0916 7.17521 16.2338
27.8522 8.96293 13.0581
26.9975 9.78354 19.3664
15.5642 12.4295 23.0826
15.1583 19.9214 50.8473
35.7467 16.3138 25.5562
17.5542 19.4651 26.2788
11.2624 6.31314 9.1556
10.457 8.99148 22.8054
12.573 5.38391 15.5119
21.1371 20.2463 22.7249
25.9718 13.551 20.4914
8.86645 11.2938 24.2258
23.7558 16.1346 33.7442
20.8781 18.0416 33.4379
17.5274 6.62336 16.2893
19.8344 22.9482 42.4593
10.664 9.03836 23.7363
20.7313 11.3266 17.4852
10.8525 14.8454 23.7585
20.6363 21.5097 40.399
15.0029 12.61 24.7706
13.9254 10.3712 20.3337
11.2403 14.5976 39.4592
29.9239 13.3388 22.1734
21.5487 12.2195 35.0888
19.0183 19.0875 24.8686
17.499 5.17357 10.5915
18.9878 5.85952 8.08374
20.0496 15.2447 33.0948
25.3566 31.1265 56.1494
20.4028 14.3204 42.1647
24.7739 23.6213 51.7297
32.0157 35.1633 66.0678
27.8993 17.7329 35.4123
20.9553 10.9692 9.94027
23.8473 16.4086 31.8743
8.58204 12.2671 34.3724
23.4753 10.2195 21.2007
32.1325 23.2412 40.4595
9.09819 17.2739 44.4441
11.0154 22.5544 51.8919
33.8241 18.475 38.8954
20.0076 10.7414 27.9931
29.2255 25.0735 40.5467
10.7224 9.37195 23.8992
28.4573 10.2115 18.6045
25.6588 19.9864 34.4793
25.1342 12.9428 29.0425
11.1625 10.7607 26.6647
10.1161 3.50854 11.2895
23.9196 26.0122 42.5741
12.8288 9.53116 36.7978
12.6415 18.5329 26.9005
11.292 6.63752 17.8494
21.1543 8.34873 13.8375
14.7309 13.5242 35.6646
18.1035 10.0658 25.9157
19.0762 12.7036 32.8006
28.7311 14.8062 27.6988
24.1432 11.4632 30.0193
19.4031 19.4654 33.0212
20.8281 8.83898 28.1264
14.7665 9.22943 10.8346
19.8607 5.0975 14.3213
17.207 13.9237 31.4623
10.4237 25.1361 52.9541
14.151 7.43239 23.8584
25.7533 16.6871 35.4492
19.8569 9.16653 17.2224
16.3178 3.89378 18.6644
36.4359 33.3072 42.8004
19.6388 19.3875 50.4021
14.8016 21.6628 55.6654
15.2202 15.8445 25.6355
10.2507 19.2095 40.1167
14.3517 17.3424 54.1195
13.9489 11.5669 26.173
13.0745 29.9728 70.1756
28.5516 16.6888 33.9977
15.9934 9.03754 19.19
27.6119 17.8105 55.1151
11.3712 16.954 41.4915
8.51847 15.5859 28.4946
13.9391 9.43231 11.9908
12.6514 8.57259 36.1734
27.7877 18.451 33.9557
19.3113 17.6817 33.9873
12.0414 17.762 57.1615
12.7803 8.72103 24.2604
19.2801 28.0011 37.3847
16.2386 13.472 22.6328
7.43027 18.1235 44.6191
18.9834 9.24174 25.335
12.917 5.63216 16.3136
15.5698 14.69 18.6716
13.7772 12.2579 27.8022
15.5984 8.64895 21.0435
15.6044 22.4921 55.7368
23.5106 10.6558 20.1794
6.02753 8.4676 14.2879
14.0105 19.3738 49.064
15.7 14.1331 34.1891
17.4818 8.8021 18.2024
24.8792 15.3302 39.3217
14.1852 11.3694 18.1897
16.6636 10.9531 26.6415
9.38131 7.55396 23.8747
12.1829 18.889 51.4702
14.7611 9.60631 21.1277
13.7254 6.52921 14.1502
21.087 15.8979 31.4442
13.0567 8.02262 26.2085
12.9483 7.79925 12.2217
17.042 16.4465 44.9478
20.2343 17.3008 43.9018
9.48697 11.9824 33.0592
12.2704 10.3209 17.4107
15.95 15.6868 39.411
7.03724 5.52238 18.5806
14.2934 35.0373 64.5702
14.3773 2.45122 21.0125
22.4942 17.0417 33.8535
11.9942 7.39835 22.7365
23.8888 16.9599 24.2327
9.20829 5.6765 23.1176
17.6053 21.8104 69.8101
30.3976 34.6536 50.6695
17.3844 17.1651 65.6614
15.5991 14.3221 26.5048
12.7125 4.28261 22.2352
14.6809 13.9482 28.7452
4.40806 7.62091 14.2312
16.9084 5.20033 29.2064
14.7053 28.0632 54.1142
7.03857 15.7085 28.1366
10.6467 7.44784 14.2055
8.31158 8.10134 26.8229
12.2197 18.7667 49.0719
20.0223 13.2082 32.5335
8.39864 21.9461 73.769
22.5405 18.9673 33.6676
12.1439 4.5314 16.8895
