# pn-170911/CsIIF-av-Hmas-1280-1959.psd
# Power spectrum* (dif=0,1,2) (really just |FT|^2)
# NOTE: only the first half! (symmetric)
# weeks: 1280-1959
# 1477 clock-days, 1022 excluded
# PSD: 1441
11460.6 0.364468 0.0413891
542449 12.8217 0.0462152
1.49416e+06 26.9664 0.046001
684972 25.5631 0.0437092
419516 28.2275 0.0467514
234799 23.853 0.0457491
180922 25.9053 0.0476247
126675 24.7444 0.0500757
95412.8 24.529 0.0526107
76907.9 24.5403 0.0546841
60197.8 23.4268 0.0556567
50695.3 24.2696 0.0578297
43170.7 24.3179 0.0606107
36264 24.5764 0.0682414
32581 25.4183 0.0669979
27503 24.2096 0.0688907
24023.9 24.3937 0.0731253
21148 24.0946 0.0740647
18868.2 24.3797 0.0820498
17074.4 23.9715 0.0827441
14833.6 23.98 0.0908431
13301.9 23.2412 0.0908873
12283.3 23.518 0.0989473
12013.7 24.6561 0.10752
10662.4 24.3644 0.109607
10322.2 25.0494 0.118688
9588.46 25.2059 0.125472
8225.32 23.7102 0.125535
7772.66 24.33 0.131784
7468.01 24.8109 0.143522
6882.65 24.1078 0.154229
6263.75 23.6315 0.152168
6086.09 24.4614 0.164495
5726.42 24.7906 0.173938
5213.56 23.715 0.170734
4984.86 23.7099 0.183471
4587 23.6129 0.194345
4459.08 23.5024 0.194954
4185.55 24.0517 0.217136
4176.72 25.0037 0.231216
3863.41 24.8912 0.233258
3546.84 23.4787 0.227164
3539.79 24.6694 0.251644
3331.27 24.0449 0.260417
3161.62 24.0127 0.266378
3167.92 24.8093 0.281064
2859.11 23.4825 0.285523
2839.83 24.4915 0.300516
2656.02 24.06 0.316298
2621.64 24.1746 0.322402
2549.33 25.0995 0.344991
2271.01 22.9952 0.314137
2426.4 25.5887 0.362289
2158.04 23.7975 0.361085
2121.77 24.2446 0.373531
2019.43 24.3672 0.392089
1996.92 25.0119 0.416055
1875.5 23.7263 0.406721
1803.64 23.7901 0.422018
1737.4 23.9247 0.442182
1753.2 25.3181 0.47709
1721.48 25.1544 0.481716
1652.44 24.7226 0.494699
1544.8 23.6519 0.490213
1560.53 25.1253 0.533875
1422.6 23.9326 0.525106
1362.08 23.0431 0.514861
1283.15 22.2328 0.509304
1343.14 24.1521 0.574399
1231.47 23.2801 0.580383
1243.31 23.5211 0.59289
1246.08 24.4414 0.631435
1152.77 23.1056 0.61016
1166.92 24.0619 0.639882
1146.02 24.0499 0.659014
1059.54 22.8405 0.64199
1086.77 24.6492 0.707964
1014.92 23.441 0.688496
976.075 23.6541 0.725765
996.208 23.9663 0.747409
986.071 24.3802 0.776286
945.547 24.4013 0.800308
913.692 24.0607 0.808284
896.651 24.1354 0.830404
889.998 24.8837 0.866731
862.731 24.5553 0.872212
871.457 25.2249 0.926812
850.341 24.9926 0.921034
812.328 24.4844 0.932011
789.804 24.5982 0.967124
766.089 24.175 0.965538
767.885 24.84 1.01418
716.746 23.9923 1.00384
703.151 23.8722 1.00921
699.309 24.5191 1.04454
703.498 24.636 1.10227
654.181 23.6919 1.06792
662.436 23.8417 1.09083
656.114 24.1157 1.14202
635.144 24.0406 1.14593
603.109 23.6185 1.15569
597.046 24.1167 1.20557
585.307 24.0797 1.21903
577.185 24.2033 1.24925
558.357 23.0783 1.20093
560.342 24.1694 1.29278
547.696 23.7603 1.28448
546.946 24.5361 1.35768
541.641 24.5511 1.40261
547.776 25.1411 1.45643
524.55 24.4506 1.42021
517.579 24.9389 1.49641
493.231 24.0606 1.46289
500.897 25.1142 1.53453
471.824 24.3359 1.51779
454.298 22.4016 1.42451
458.932 23.7891 1.551
446.65 23.9182 1.56928
454.477 24.9336 1.66501
419.061 23.3388 1.58955
434.382 24.0804 1.6588
434.846 24.858 1.74425
416.456 25.0625 1.75421
415.199 24.0582 1.75317
397.154 23.8129 1.73974
401.059 24.3119 1.83465
376.32 23.2072 1.7704
385.059 24.011 1.84174
391.708 25.6833 1.99302
370.503 23.878 1.90237
360.337 23.9195 1.93669
365.063 24.0938 1.97316
353.616 23.6022 1.96111
349.421 24.016 2.02582
362.548 24.7044 2.1359
340.434 23.5537 2.04031
340.953 24.4818 2.16084
322.142 23.9486 2.12065
326.662 23.5397 2.1336
315.981 23.8829 2.2067
326.794 24.3701 2.27771
321.754 24.9222 2.34158
320.532 25.4916 2.41691
308.376 23.6621 2.30327
316.848 25.4632 2.53214
297.262 23.937 2.37473
298.028 24.2472 2.46592
298.179 24.8357 2.556
288.676 24.2423 2.5165
271.522 23.2645 2.44254
276.539 23.9015 2.51641
280.161 24.7975 2.67465
272.436 24.7115 2.67951
270.466 23.7364 2.63413
259.515 23.5302 2.65778
263.308 24.6162 2.81316
256.09 23.9596 2.75116
246.4 24.0339 2.77795
245.178 23.9926 2.82101
252.87 24.3416 2.88986
237.098 23.994 2.91649
233.084 24.0491 2.95653
244.956 24.1154 2.98507
233.811 24.9079 3.12969
232.931 23.6563 3.01795
229.227 24.7653 3.19961
219.92 24.0517 3.13681
221.828 23.7344 3.11418
219.407 24.0583 3.1846
211.045 23.5788 3.17253
212.647 24.1555 3.28171
218.665 24.5399 3.35918
207.931 24.4018 3.43818
204.374 23.6742 3.34814
210.583 24.276 3.4245
205.526 23.3266 3.38035
202.79 23.5219 3.44745
194.042 23.3326 3.46022
191.089 23.3384 3.49279
194.154 23.2681 3.50664
183.558 23.3817 3.58692
194.671 24.0588 3.67459
189.395 23.9222 3.72112
182.408 23.1528 3.66327
185.071 24.1906 3.87879
183.421 23.7636 3.7729
179.283 23.3309 3.84249
178.626 24.3074 3.97186
173.494 23.8271 3.98547
173.256 23.8035 3.98444
181.012 24.6297 4.1606
171.997 23.9149 4.11224
173.431 24.4493 4.17061
165.446 23.8154 4.17872
165.72 23.2976 4.11321
167.512 24.5775 4.35824
162.52 23.7251 4.30245
163.166 24.1844 4.36202
159.168 23.7999 4.35584
155.369 24.0305 4.49161
149.638 23.329 4.39633
149.316 22.9385 4.39598
150.323 23.3785 4.43831
149.287 23.9826 4.66848
147.962 23.9793 4.66812
146.74 23.6092 4.62489
148.972 24.0527 4.78412
148.734 24.4887 4.97833
149.925 25.0028 5.04049
137.752 23.1982 4.67976
139.568 24.1037 4.95279
136.463 23.6667 4.96626
137.205 23.327 4.87921
138.36 23.8424 5.02143
133.481 23.7137 5.10583
138.264 24.1399 5.24765
131.44 23.3864 5.0776
129.887 23.5475 5.13617
128.077 23.1641 5.11619
134.255 25.1754 5.65355
132.249 24.1173 5.45744
128.273 23.7699 5.45782
129.676 24.8727 5.72947
127.896 24.2329 5.57582
121.767 23.3624 5.47329
120.597 24.0506 5.67737
125.354 23.2494 5.50816
121.683 24.1142 5.77686
120.123 23.8154 5.77506
117.986 23.5981 5.74365
114.232 23.1723 5.71558
115.469 23.5422 5.82632
115.249 23.1868 5.84581
112.79 23.3861 5.99036
108.949 23.1897 5.93973
115.331 24.2833 6.17546
104.768 23.1451 6.03229
109.123 22.904 6.02577
108.84 23.5314 6.17941
107.301 23.7584 6.30388
111.18 24.7168 6.65369
110.417 23.9458 6.37462
107.126 23.4579 6.46082
106.243 23.3001 6.39264
99.7259 22.6259 6.26862
104.84 23.1052 6.41354
103.321 24.0258 6.81313
98.8981 23.3108 6.66994
99.8421 23.0011 6.54601
96.9277 22.3588 6.4881
99.0888 23.4092 6.72794
96.7042 22.6857 6.65303
94.9308 22.914 6.78989
99.7989 23.8783 7.01976
96.1678 24.2266 7.20365
98.5566 24.6115 7.41501
96.9421 23.6784 7.15534
97.2088 23.7857 7.34597
94.0866 24.7519 7.66287
95.8545 24.128 7.45504
96.27 24.5629 7.67893
93.7807 23.1748 7.21444
96.8534 24.6602 7.92303
91.978 23.6108 7.553
90.3905 23.933 7.66152
92.6411 23.8413 7.75885
91.8392 24.3764 7.94109
85.7479 23.1469 7.64423
90.053 24.521 8.1186
86.7315 23.3417 7.8942
84.403 23.3809 7.80446
85.6039 23.5314 8.15735
84.1139 23.3431 7.92912
82.2183 23.1198 8.02056
86.0277 24.1068 8.40611
83.5804 23.8961 8.30112
82.0051 23.4295 8.24689
80.9295 23.4658 8.43974
84.7809 24.4451 8.65954
83.5365 24.374 8.74416
84.2966 24.5172 8.79989
80.5614 23.9306 8.7478
79.9758 24.1738 8.96553
80.8969 23.3169 8.55891
78.1156 24.0082 8.85548
77.3858 24.1686 9.08775
76.2302 23.2798 8.72609
76.5179 23.6129 9.13276
77.9747 24.5174 9.35604
78.6961 24.6114 9.42736
77.3977 24.1026 9.28106
76.9845 23.9413 9.43582
76.4461 23.8895 9.33833
73.1722 23.7421 9.44164
77.7988 24.5003 9.65578
75.5195 24.5378 9.95463
74.2233 23.8386 9.62938
72.8571 23.8312 9.57069
72.0463 24.3134 9.91382
68.9471 23.5516 9.82002
68.7125 23.5879 9.76045
71.3971 24.4801 9.96296
67.885 23.5995 10.0444
69.6671 23.6356 9.93908
66.3541 22.4316 9.63018
71.1247 24.2993 10.2378
68.6229 23.9345 10.3069
68.4073 23.2139 10.1447
65.9663 23.1489 9.91114
66.7722 23.6966 10.4007
67.1119 23.3065 10.302
68.6113 24.6782 10.87
66.398 23.4302 10.5101
64.4115 23.1841 10.4177
64.4345 23.7409 10.7284
65.6396 23.0559 10.4112
66.1457 24.1431 11.0667
65.6609 23.323 10.7454
64.3542 24.4141 11.3195
61.0384 22.8516 10.5637
63.2688 23.6793 11.2293
64.1117 23.9379 11.3792
63.0908 24.1098 11.3861
62.9341 23.7427 11.2321
62.7407 24.2549 11.546
61.9108 24.0662 11.55
60.7585 24.0997 11.7682
61.7664 23.9481 11.6149
58.4866 23.2027 11.4487
59.4657 24.1241 11.8714
58.5819 23.5165 11.7045
57.9505 23.4429 11.8369
59.0718 23.2433 11.4682
55.6998 22.9014 11.5961
56.2849 23.5174 11.9834
59.1813 24.1944 12.3398
57.1755 23.6053 12.2035
56.7912 23.85 12.2621
56.0644 23.4789 12.283
55.5856 23.9233 12.4765
54.4851 22.6265 11.8901
56.8856 24.3547 12.9924
54.1855 22.9611 12.3002
56.0111 23.0449 12.0711
54.9072 24.2681 13.1581
56.0517 24.2509 13.1926
57.6046 24.2352 13.1829
54.7676 23.4892 12.7792
53.4746 23.9976 13.1673
53.2778 24.0046 13.2373
55.0646 24.2926 13.4443
53.6569 23.3363 13.0906
51.1631 23.2737 13.0187
50.6151 23.1376 13.1587
53.214 23.8804 13.7164
51.7505 24.1674 13.6066
52.1367 23.9861 13.7427
52.0579 24.1414 13.9046
47.6919 22.4277 13.1764
49.9685 23.2834 13.5983
47.5147 22.376 12.9841
51.9613 24.3352 14.2607
47.6222 22.7572 13.6205
49.834 23.1211 13.6923
50.3234 23.3652 13.9114
49.7355 23.9036 14.1966
51.1131 25.0765 15.3073
48.9972 23.9484 14.5638
45.8881 21.8974 13.2884
49.9215 24.4209 14.8346
47.014 22.9676 14.2402
45.9197 22.8061 14.4724
48.4988 24.0004 14.8937
47.4111 24.404 15.121
45.8888 23.6287 15.1662
46.5857 23.0258 14.6149
48.8442 24.7829 15.5311
45.1988 23.3596 14.8722
46.3322 23.8793 15.4969
46.5489 23.7951 15.1749
46.6271 24.3801 15.5189
43.251 22.1196 14.6514
44.4872 23.3446 15.5913
46.4097 23.0801 15.151
45.5664 23.2294 15.1962
44.4546 23.9636 15.9977
44.7054 23.5292 15.7668
43.9822 23.3622 15.8828
43.3154 23.83 15.8464
41.2517 22.8284 15.6193
43.2731 23.0765 15.7946
44.0733 23.7584 16.1887
42.534 22.5285 15.6951
45.962 24.8155 16.9846
41.6072 23.8303 16.6848
43.1068 23.4304 16.4023
40.9484 21.8081 15.3274
40.0506 22.5954 15.7472
40.9831 22.7684 16.0816
42.7546 23.7676 16.9118
40.4295 22.8055 16.1449
39.5687 23.2989 17.0652
41.8615 24.2808 17.5595
39.5313 22.4489 16.474
41.6196 24.2348 17.6974
40.3215 24.0812 17.4054
38.1022 21.8319 16.2801
40.7136 23.8098 17.5836
39.7169 24.0139 17.6488
39.5832 22.9422 17.175
38.9088 22.9538 17.109
38.1578 22.9683 17.1862
38.1319 22.9417 17.552
38.6611 23.0074 17.4727
39.8739 23.5094 18.0244
39.2135 23.0996 17.4237
37.4856 23.2102 17.8137
37.1363 22.7644 17.5034
37.1346 23.213 18.1121
37.4736 23.2638 18.2325
37.9153 23.6541 18.3455
37.77 23.1092 18.1785
37.7355 23.091 18.4411
37.1208 23.3775 18.3768
35.388 23.162 18.7871
38.1064 23.876 18.916
37.189 24.0075 19.4984
38.023 23.6734 18.7529
37.0666 23.2738 18.6208
36.8471 23.7348 19.5562
35.9456 23.0517 18.9528
34.7949 22.0983 18.2823
36.0321 22.5619 18.6628
35.198 22.9604 18.8975
35.5627 23.8397 20.1189
34.4945 22.4258 18.7406
35.371 23.5602 19.4609
34.6882 23.3325 20.0672
35.9021 23.4255 19.5572
35.5125 23.5261 20.115
37.4787 24.8782 21.0801
34.9096 23.8795 20.5311
33.0116 22.6785 19.817
35.4508 24.1898 20.5817
32.9781 22.8983 20.3387
34.0041 22.6337 19.7098
33.9753 23.5038 20.5484
34.4972 23.987 20.9741
32.7434 22.9096 20.013
32.9549 22.6904 20.1042
33.1947 23.1053 20.6006
31.9049 22.7737 20.2533
31.9955 22.7543 20.3179
32.3873 22.9974 21.0419
33.0896 23.4877 20.9081
33.7185 23.8531 21.6779
31.4123 21.9593 20.0974
32.7612 23.7657 22.2047
33.6224 23.8486 21.5871
32.3034 23.8037 21.7614
31.4319 23.1253 21.4238
32.0525 23.7804 22.1772
31.2608 23.7408 22.0457
33.3685 24.1108 22.4178
31.7339 23.0676 22.1421
32.3635 23.6772 22.0119
29.9376 22.7624 21.591
31.1081 22.8983 21.9037
30.5548 23.0632 22.2539
30.8932 22.723 21.7549
31.6525 23.3079 22.0812
29.9077 23.1025 22.4721
30.0646 23.9326 23.0657
29.3961 22.5513 21.6255
30.2519 23.0109 22.8252
30.3965 22.9809 22.5468
29.5001 22.6673 22.5052
29.703 23.0277 22.7936
29.2558 23.2228 22.8494
29.3582 22.7919 23.2765
30.3006 23.6455 23.3598
29.6662 23.4395 23.2083
28.4552 22.396 22.4533
28.9486 23.0681 23.755
29.0302 23.2489 23.4107
28.7712 22.4366 22.6424
30.2364 24.5432 25.0337
27.8006 22.4736 23.3222
28.0606 22.9138 23.6207
27.9877 23.0922 23.923
29.3975 23.5271 24.377
28.0563 23.2164 24.0244
28.477 23.371 24.7228
28.3755 23.7081 24.9798
29.2321 23.6668 24.9716
29.0594 23.3352 24.3941
26.3432 22.4427 24.3509
28.3095 23.3034 24.3997
26.3713 22.3966 24.2448
27.1602 23.0003 24.9158
29.0115 23.7939 25.2768
27.7369 23.4459 24.8836
27.4408 23.4898 25.3937
26.3643 22.5573 24.9831
27.8233 23.082 25.1627
25.591 22.1023 24.7766
26.3573 23.0176 25.053
27.3071 23.7743 26.3557
26.6303 23.009 25.2785
26.7866 22.4792 24.7307
25.7309 22.5797 25.2211
25.1051 22.5732 25.4967
25.8499 22.4432 25.3895
27.2422 23.9895 27.1608
26.7069 23.5307 26.3538
26.0875 23.6842 26.91
25.2541 22.5698 25.7353
26.3505 23.5622 26.4517
26.6588 23.4949 27.507
26.2332 22.7081 26.0555
24.8828 23.3245 27.0391
25.3862 23.0565 26.4896
26.5751 23.7145 27.591
25.3886 23.4591 27.5332
25.0809 22.953 27.3625
25.3247 23.2926 27.0581
24.7449 21.9312 25.6939
24.4406 22.744 26.6961
24.7055 23.4138 28.2188
24.9059 22.4514 26.8198
25.0395 23.1596 27.7652
24.6683 23.4219 27.5519
25.1543 24.2386 29.6054
24.7025 23.4146 28.0992
24.6437 22.8725 27.7691
23.8962 21.7778 26.1403
24.6808 23.4464 28.2006
22.9639 21.6915 27.0871
24.3392 22.6847 27.464
23.0625 22.5513 27.6432
23.3339 23.1381 29.5368
24.1145 23.5086 29.5284
24.8419 24.2411 29.4425
23.3378 22.6612 28.7637
24.1963 23.3626 29.2164
23.436 22.663 28.0737
23.4817 22.6101 28.5717
23.9192 23.0039 28.7837
23.3276 22.9909 28.7807
23.3231 23.1652 29.3071
22.3599 22.3004 28.9863
23.0381 22.2191 28.5449
22.376 23.251 29.4791
22.7009 23.7313 30.7081
22.7755 22.8932 29.464
23.102 23.3857 29.6786
22.1609 22.0812 29.2988
23.678 24.3144 31.1901
22.6503 23.6364 30.5643
23.3978 23.3964 31.2515
22.6428 22.9513 29.913
22.3606 23.2311 30.5507
23.332 24.0647 32.5163
21.7907 23.181 31.3143
21.3681 21.7235 29.5223
23.4263 23.3034 30.8193
22.3118 22.75 30.7513
22.0932 22.9571 30.7772
22.3747 22.8237 30.3742
22.6476 23.5411 31.6364
21.6128 23.7965 32.9094
22.0227 22.7291 31.2202
21.5931 22.9944 30.9527
21.9432 23.0883 31.8474
22.2549 23.4627 32.4528
22.2951 23.0172 30.4139
19.5248 20.8148 29.3048
20.7171 22.4748 31.379
21.68 23.7476 33.3323
21.642 23.7932 33.105
22.0685 23.0851 31.8305
20.7097 22.5565 31.821
21.0915 22.7013 31.872
21.2188 23.2242 32.4881
20.6533 22.326 31.9539
20.7863 22.851 31.8259
20.157 22.4091 32.066
20.5406 22.8113 32.7832
20.464 22.5187 32.4302
20.7061 23.1247 32.9903
20.7494 22.6387 32.1494
19.7399 22.9864 33.7627
20.2361 21.5825 30.8455
19.5854 23.7122 33.3835
19.827 22.0413 32.5359
19.4172 22.9879 33.882
20.6166 23.169 34.429
19.5212 21.9872 32.4614
20.181 22.5517 33.158
19.742 22.4646 33.9287
21.0177 23.4637 34.2951
19.2965 22.3701 33.0748
19.4614 22.3671 33.3373
19.717 23.1167 34.6951
20.2223 22.6947 34.3506
19.7093 22.4216 33.2225
18.9261 22.2885 34.3654
20.1093 23.7933 35.4543
20.0169 23.6735 35.4732
19.0639 23.3251 35.7443
19.0426 22.3171 34.5615
20.0064 24.1352 36.4994
19.299 23.2171 36.2854
19.2367 23.2283 35.2504
18.8822 22.7862 35.2025
18.3275 21.4905 33.8414
19.5219 23.194 35.7682
19.7544 23.232 35.0037
18.74 22.1943 34.3549
19.8144 23.1815 36.0269
18.5237 22.2616 35.3769
18.8684 22.8874 36.5913
18.4068 21.7649 33.96
19.0884 23.6507 37.0419
18.7535 23.6946 38.0139
18.4067 22.5467 35.5584
18.3241 22.472 34.9314
18.1818 22.657 36.9209
18.5945 23.3938 37.7687
18.3022 22.0773 35.3685
18.6178 22.8215 36.3348
18.5574 23.1042 36.5913
18.1796 23.4783 37.9291
18.3359 23.2381 39.5602
19.2125 23.7671 38.2558
18.9956 23.1211 36.8755
18.0979 23.1687 37.455
17.6638 21.6442 36.3838
18.3622 23.7384 38.6867
18.0843 21.9764 36.0878
17.4706 23.1995 38.5874
17.8995 22.3592 37.3473
18.4269 23.9694 39.4779
17.7924 22.935 38.2259
17.7979 22.1154 37.2098
17.949 23.8727 40.4713
18.5394 23.068 37.6219
17.8432 22.5197 37.6589
18.2822 23.6988 38.9926
17.0321 22.7434 38.6878
17.3807 22.2773 37.4956
17.3853 22.635 38.7259
17.2886 22.1295 37.3795
17.1111 23.0601 39.8205
17.6058 23.5271 40.7576
16.8545 21.716 36.9965
16.1332 21.5072 38.2167
17.4687 23.1589 39.5837
17.0979 22.184 38.4296
16.3224 21.8663 37.8838
17.1421 22.7557 39.7595
17.3595 23.6315 41.5062
17.5817 22.8002 38.7663
17.1673 23.2524 40.0424
16.3028 22.1604 39.153
17.2494 23.413 40.2682
16.6515 22.9033 40.0897
15.6302 21.2262 37.8794
15.9393 22.5161 41.1512
17.0152 22.9516 40.6439
16.3469 22.3804 40.3488
16.8984 23.0632 40.2162
16.5968 22.5653 40.9092
16.5434 22.6264 40.6142
16.0918 22.9823 42.2972
16.9122 22.993 41.5248
16.2466 22.2545 39.4147
16.1764 22.8221 40.8514
16.4045 22.8404 41.6482
16.7932 23.0907 42.1089
15.7595 21.6145 40.2513
16.5112 23.4362 42.3888
15.6427 21.7315 40.345
15.7545 22.5375 41.0688
16.2724 22.6952 43.0057
16.4362 21.8394 40.2422
16.3259 23.5745 43.3759
15.9925 22.3699 41.8235
16.484 22.5163 42.53
16.5568 22.917 42.2903
14.7087 21.8542 41.6294
16.5397 22.9178 42.0174
15.7405 22.3808 42.2953
15.8093 22.4062 41.5953
15.857 22.6656 42.5064
16.1108 22.5541 42.1901
15.8076 22.9283 43.7675
16.063 22.8985 42.9791
15.0108 22.134 42.2772
14.7736 21.9847 42.6868
15.238 22.0112 42.1362
15.1465 21.9112 42.0108
15.4675 22.1215 42.1583
14.9257 21.7398 41.2851
14.8266 22.7242 44.546
15.018 21.7736 42.6279
15.1416 22.5644 43.5751
15.2585 22.8001 44.1427
15.2447 22.4445 43.7653
14.9971 22.3448 44.2095
15.9612 23.5125 45.0401
14.8936 21.8957 42.8877
14.6272 22.2315 42.6232
14.0985 21.2509 42.6044
14.3555 22.3532 44.5822
14.4712 21.565 42.7695
14.7689 22.7714 45.4809
15.254 22.6747 45.4169
15.4912 23.1074 44.1962
13.8399 20.7388 42.6137
15.0531 23.5904 47.325
14.5491 22.3636 45.5131
14.7234 22.6758 43.5615
13.6859 22.0981 44.8872
13.6262 21.149 43.7466
14.4312 21.7785 44.1178
14.5641 22.7449 47.1682
14.7852 23.0465 46.6318
14.8527 22.6112 45.1334
14.5238 22.7261 45.8752
13.6043 22.4001 46.3711
14.6716 22.3927 47.3687
14.473 22.5741 44.9157
14.5264 22.7005 46.1375
14.0163 21.9129 45.504
14.7423 23.5744 48.4892
14.2508 22.3665 46.5861
14.0904 22.2207 46.7851
13.4895 21.0434 43.239
13.8078 21.9048 45.8128
14.1314 22.9615 47.3073
14.1627 22.2083 46.2233
13.6663 21.027 44.897
14.3901 22.6878 46.5952
13.3292 21.4981 47.1144
13.8947 22.3394 47.8595
13.8075 22.4439 46.8316
13.3683 21.7457 46.9292
14.6812 23.0002 48.4449
14.3914 23.5048 49.0154
14.0202 21.7856 46.8259
13.9211 22.3905 46.9454
13.7404 22.7572 47.8487
13.8408 22.3589 48.6553
13.9032 22.494 47.3957
13.1253 21.4962 46.5913
13.6984 22.8022 48.4076
13.8236 22.9748 50.2771
13.8647 21.6531 47.103
13.9821 22.9296 49.4708
13.4138 21.6397 47.9298
14.0544 23.4352 50.9376
13.9836 22.5702 49.3998
14.1636 22.9878 50.0389
13.9644 22.5024 49.7193
13.7416 22.282 48.3783
13.4589 22.2723 48.5946
12.9476 21.8389 47.7633
12.8917 22.2694 49.3499
12.883 21.1418 48.4049
13.5964 23.231 50.2527
12.9599 21.2729 48.4581
13.3069 21.7105 48.5866
13.4633 21.6459 46.1738
12.8648 23.2605 53.7144
13.2764 22.7947 50.1534
12.8576 22.4151 50.6254
13.1387 22.105 48.8024
12.9745 22.9233 51.4483
12.8602 21.8484 49.3337
13.2082 23.0256 52.8517
13.2664 23.3736 52.5806
12.7793 22.3086 50.4239
13.1438 22.3911 50.7632
12.9546 22.1684 49.5239
12.257 21.7179 51.89
13.3471 22.2715 49.2348
13.0104 22.5578 52.6846
12.4564 21.8936 51.4305
13.3082 22.0398 50.2446
12.6675 22.8143 50.6731
12.9835 22.7011 52.1775
13.0231 22.4595 53.8608
12.9936 22.1828 50.6458
13.1088 22.0602 51.934
12.7628 22.048 50.1926
12.3904 21.8764 49.878
12.3823 21.7958 52.1854
12.6377 22.2795 52.6419
12.63 21.1313 50.7259
12.9812 21.9451 49.5887
11.6176 21.6434 51.7132
12.089 23.0612 54.8258
13.0125 22.1813 51.8864
12.8893 22.6264 52.5714
12.4052 22.042 50.9921
12.0816 22.3069 53.5816
12.2299 21.9903 52.0708
12.8544 22.6038 52.4759
12.1319 22.0397 55.1937
13.2476 22.3851 52.1995
12.3783 21.9077 53.0505
11.8983 22.169 53.4411
12.304 22.4756 54.9585
12.5015 22.2239 52.1237
11.7274 20.9034 50.8536
12.2173 22.8141 54.2965
11.869 21.4649 52.396
11.9015 21.6777 52.6791
11.9107 21.7797 54.3881
12.6284 22.9796 55.526
12.4401 21.9223 52.6275
11.709 21.8347 53.2691
11.8893 20.8245 51.2501
12.4032 22.4489 54.279
12.33 22.9189 55.5752
11.6464 22.2195 54.5827
12.0553 21.6245 54.2234
12.0501 21.8223 52.9439
11.6321 21.221 53.8981
12.0792 21.9068 53.1741
