# pn-170911/CsIIA-av-WTZR-1280-1959.psd
# Power spectrum* (dif=0,1,2) (really just |FT|^2)
# NOTE: only the first half! (symmetric)
# weeks: 1280-1959
# 20 clock-days, 17 excluded
# PSD: 1441
41373.3 1.97134 0.0278484
2.06164e+06 39.0931 0.0101577
1.19278e+07 298.622 0.01467
1.7815e+06 47.5096 0.0137257
1.2621e+06 96.1047 0.0174116
708821 55.6748 0.0144133
361960 35.9586 0.0197187
322688 59.0895 0.0158874
294679 56.0734 0.0345649
208499 48.0517 0.0289438
157061 51.9342 0.0423476
148687 57.9754 0.0388207
118317 43.6339 0.0498555
90218.7 48.4143 0.0454499
86833.1 55.055 0.055355
57929.4 48.5162 0.0521685
68335.9 65.5022 0.094945
56594.9 47.681 0.0838989
40625 41.4473 0.0801137
50346.7 62.6583 0.116535
32130.6 42.5836 0.0908117
39976.4 54.59 0.115883
44616.9 77.9096 0.183887
30645.6 68.4924 0.178722
30947.5 64.9995 0.180439
22078.6 66.3184 0.191332
28448.1 44.5424 0.159564
16574.7 39.4593 0.166392
12079.2 37.286 0.160341
23598.3 64.1441 0.238766
14488 47.1569 0.228832
19262.3 63.3012 0.339459
18479.2 62.1086 0.311154
16066.7 59.7807 0.339819
13522.2 63.4569 0.365254
14605.3 57.6741 0.358823
11542 67.855 0.437891
11822.7 58.3471 0.374314
15291.1 69.7218 0.481494
9970.54 58.1892 0.452778
13515 69.9373 0.58529
9184.68 51.6879 0.440208
8805.78 45.6493 0.38234
7984.42 48.806 0.431571
11233.2 72.6512 0.646096
10253.2 72.0665 0.67388
6678.07 51.1963 0.540857
7331.32 54.1935 0.587256
6414.47 50.5204 0.589733
7564.04 69.7691 0.832994
6839.37 56.9721 0.713033
5728.9 35.7487 0.47492
4628.23 41.939 0.546581
4164.86 32.1797 0.422152
4925.63 49.4438 0.676548
4157.64 43.4121 0.60786
6236.06 65.3569 1.01904
5546.47 69.8414 1.06573
4855.26 58.7515 0.96607
4873.78 55.5694 0.962076
3121.92 56.3194 0.973985
5370.02 75.7597 1.31817
4601.77 65.4221 1.18442
3699.81 43.6377 0.810112
2715.08 37.1073 0.768952
2792.49 30.0904 0.623563
3903.55 51.1587 1.10612
2437.91 36.1944 0.790345
3489.88 61.1581 1.38485
3206.13 48.2235 1.079
3106.99 51.1709 1.21346
3195.72 53.55 1.2998
2979.01 37.8433 1.06114
2648.57 60.0124 1.49811
3280.75 48.3974 1.2537
2827.52 46.8524 1.16357
2247.49 44.2478 1.20628
3316.71 61.0486 1.64599
4124.78 75.0171 2.12669
2946.74 71.5383 2.24736
2690.61 52.0754 1.50389
2246.55 50.8957 1.59221
2424.81 52.9478 1.66034
2141.9 50.1491 1.6368
2524.11 60.3472 2.14734
1821.08 45.3519 1.7096
2251.66 53.7679 1.77468
1620.37 49.7697 1.77102
2397.52 49.6979 1.74749
2074.7 48.189 1.72189
2546.47 61.7681 2.40183
2103.75 54.9843 2.16615
2629.58 63.5937 2.52139
1670.58 45.4855 1.84503
2119.02 54.2095 2.3291
1490.31 35.1318 1.50347
1167.02 24.8705 1.1223
1311.25 43.9717 1.87807
2082.09 61.0759 2.79603
1529.69 62.0779 2.88878
1942.96 63.43 2.95702
1592.36 46.8876 2.32505
2278.97 70.485 3.49621
1451.73 50.217 2.47045
2034.28 83.7613 4.43017
1871.04 67.3983 3.71608
1633.36 77.5535 4.32355
1638.14 54.3598 2.97666
1010.42 37.1005 2.0695
1830.91 69.9665 3.78166
1016.49 47.0881 2.66446
1360.42 56.9331 3.26748
1453.82 53.4384 3.14329
856.457 35.0677 2.30654
1304.92 53.5186 3.15569
1140.03 51.5288 3.24486
1121.65 43.5259 2.67407
1261.87 77.0719 5.04803
1170.12 42.462 2.818
645.252 46.173 2.97677
1115.15 35.5311 2.45369
1069.43 56.5766 4.15632
1174.17 48.9799 3.64249
1072.03 53.5851 3.79303
1028.7 52.2336 3.83932
543.45 36.6191 2.75354
1226.86 62.527 4.89376
672.616 36.2448 2.75554
742.406 30.0509 2.32066
907.584 54.3236 4.34467
848.352 38.025 3.10062
1090.17 55.9993 4.43755
668.319 35.7083 3.00887
720.322 37.495 3.27766
967.434 52.1886 4.26835
622.085 43.3604 3.64357
971.261 61.3677 5.54085
467.323 36.5622 3.54255
1495.94 86.2663 7.35323
1119.51 69.4454 6.46612
778.643 61.6977 5.46634
919.988 60.1461 5.92389
759.836 45.2567 4.16842
868.551 53.2795 5.23261
607.108 46.3589 4.57077
722.234 42.335 4.0027
356.008 39.6587 3.93471
579.958 41.4216 4.15705
578.091 29.0144 2.88333
479.426 44.6362 4.54893
649.437 52.7501 5.60303
535.912 43.5956 4.9837
703.488 44.9543 4.94342
679.529 47.7179 5.22024
787.36 46.3295 5.12782
661.62 48.0543 5.56073
681.431 52.8813 5.94614
501.43 49.9615 5.80583
534.135 53.3585 6.01334
553.018 56.7143 7.03033
588.284 44.6665 5.17543
368.064 31.4679 4.07618
425.696 37.8254 4.67469
441.6 48.7911 6.01697
398.556 34.5086 4.46958
509.444 41.7796 5.36569
501.25 51.9134 6.79185
503.259 37.1665 4.64205
858.84 80.0037 10.9708
496.614 50.9542 6.93006
467.079 45.3602 6.51374
543.176 56.2588 7.38924
439.622 42.2209 5.69946
416.652 35.5167 5.03033
489.797 41.6347 6.14361
469.266 36.6772 5.44776
458.118 37.0044 5.7081
532.796 65.2802 9.24058
433.986 40.2009 6.07516
671.806 75.0783 11.8592
524.206 62.3283 8.81253
374.726 37.9637 5.94375
397.234 49.2313 7.4018
473.869 45.1666 7.38054
394.991 45.9561 7.49948
619.214 64.6758 10.1493
401.126 48.4168 7.6499
395.648 56.8585 9.95801
320.347 36.4764 6.05689
504.249 56.8749 9.1978
373.504 39.2319 6.69623
495.767 68.9672 12.05
422.423 38.9548 6.46032
311.806 36.2545 6.52116
434.259 57.9638 9.94303
291.901 42.7472 7.16264
371.95 39.786 7.21704
406.26 58.5739 10.9952
332.358 33.5294 6.22268
498.1 57.2681 11.571
395.308 64.3836 12.166
434.048 48.3031 9.09095
305.019 36.3309 6.30414
280.204 44.5855 9.30043
273.247 43.4766 8.38025
358.261 49.2367 9.31312
268.476 31.5768 6.36685
319.298 50.8449 9.85271
323.298 48.6622 10.183
362.773 50.0146 10.6006
279.594 38.2987 7.90917
418.048 71.6671 13.8406
297.257 31.5483 7.04926
272.837 32.7422 7.29635
234.8 36.1837 7.3502
219.878 25.5366 6.25334
294.721 33.6445 7.23345
270.018 45.71 9.95052
474.732 67.5198 14.391
360.069 47.3325 11.3704
340.282 44.1997 9.17411
220.902 39.4312 8.53791
288.942 30.7788 7.1868
221.341 29.513 6.80804
408.265 48.603 10.8623
224.643 40.3426 10.0865
284.231 39.861 9.24315
344.438 56.9558 14.2488
310.579 39.9624 10.54
357.868 37.3273 8.24489
287.114 45.9163 11.5527
243.571 43.968 11.5678
302.716 47.1829 11.1974
231.018 35.9944 9.21325
248.475 37.3791 9.94219
336.864 47.9713 12.3963
271.945 47.2568 12.1378
241.168 47.7662 12.8254
278.741 49.5664 12.9394
243.806 54.7111 14.6848
207.491 40.875 11.0932
250.625 36.2287 10.6113
287.651 49.6173 14.2817
228.577 42.8681 11.1155
269.233 48.2204 12.4276
167.46 30.9751 8.9317
237.93 47.8692 13.3823
251.499 37.9832 10.6004
276.521 46.8407 12.9878
208.019 39.2208 11.4026
219.487 31.5631 9.19312
173.036 30.5034 8.95463
242.722 39.2945 12.1467
195.167 56.5576 17.2693
290.976 58.2338 16.5463
237.977 42.231 12.4576
267.33 50.3815 15.0003
247.22 43.0482 13.8158
188.501 34.246 9.48835
264.01 40.4235 12.134
257.619 40.6725 13.3636
200.227 39.4645 13.4033
202.931 43.834 13.2495
253.085 45.4703 14.1739
195.428 28.6869 10.0587
237.684 49.6509 15.4751
114.082 34.3506 12.7652
248.297 60.5405 18.4212
154.695 31.9971 10.4995
141.436 32.3675 11.1757
199.963 35.873 11.9767
197.67 35.9074 12.5082
197.393 40.3161 13.2082
208.135 47.832 16.2532
189.401 40.2872 13.8158
200.426 51.6216 19.0582
183.451 33.4164 10.6102
267.365 71.5798 24.9664
122.475 23.2394 9.05419
201.286 43.2138 14.4334
236.631 43.6536 16.5147
189.106 36.6881 13.9117
107.095 18.5519 7.89261
210.668 44.3879 14.2881
212.85 40.7497 16.2393
228.256 55.4219 21.0652
142.143 40.6704 16.4467
167.601 51.2688 17.1623
137.202 40.6452 15.3741
127.939 31.3421 12.2019
178.931 38.2634 15.8924
173.073 38.7504 13.7474
111.724 26.5677 10.1685
166.62 40.9074 17.7075
150.999 41.5772 16.8661
144.246 26.5171 10.2051
106.527 17.5055 7.96419
155.076 32.1393 12.4459
178.284 46.6792 20.1535
114.723 30.964 12.2618
197.082 59.823 23.6535
102.307 27.1046 11.4684
107.722 31.3371 14.0297
149.392 41.4202 18.0976
197.788 49.8582 21.327
102.644 32.1989 12.7332
126.924 47.202 20.7737
121.882 44.0426 18.3128
98.9405 29.2344 13.094
136.199 38.6012 16.3686
188.181 45.5109 18.9606
115.747 34.0999 15.7863
185.452 52.8979 22.7161
148.852 44.8654 21.3209
127.928 25.2549 12.6464
124.695 43.7237 19.7873
93.0402 21.5786 9.69439
101.464 32.0035 13.6271
144.323 41.495 20.6466
144.933 36.2953 16.1715
107.975 22.1632 10.6467
131.301 39.8857 17.4086
93.9879 33.9864 15.8638
107.36 39.0418 18.5752
145.136 43.2559 19.3493
104.189 38.4578 19.3863
111.269 29.0343 14.9311
138.977 41.4004 20.7015
117.367 31.2954 16.0341
96.4805 39.6153 19.249
64.267 29.8721 15.8321
126.377 43.0402 19.8103
116.068 49.8029 25.5046
115.628 35.7582 17.5012
94.8276 38.4393 20.1028
87.9098 32.9781 15.7936
71.3795 34.1916 18.3567
100.577 27.0411 13.7644
94.6552 32.8949 18.2483
95.6911 33.058 16.8021
137.907 23.6026 11.0574
91.9826 25.5624 14.6165
93.817 32.3565 16.4532
116.661 44.9181 23.6848
106.81 27.6245 16.3005
111.925 29.0621 14.8552
98.7798 25.0827 14.2468
110.047 26.4977 14.6078
68.1957 22.7251 12.5814
83.4659 34.9072 21.1338
84.0499 31.4031 14.8075
93.0927 34.8284 17.935
83.4842 29.925 18.3511
79.2237 31.2403 20.7958
125.913 32.8596 15.8052
106.552 35.586 21.4073
128.528 51.9544 26.5232
102.557 39.2039 26.3112
121.014 43.1634 24.6647
93.4433 28.2694 16.1398
97.0188 41.4869 23.4666
116.412 37.2566 21.2478
92.3773 30.1156 18.3192
66.6603 15.6506 9.58984
120.757 40.2476 22.6128
78.9881 30.9202 20.4985
67.2677 27.0622 17.0433
115.296 41.0238 23.0591
82.6527 34.9703 21.7558
122.455 42.289 22.8667
81.1321 31.3823 20.0594
69.6921 22.9754 12.2542
82.0049 30.5372 19.2101
61.074 22.4211 14.1491
65.7506 36.5935 24.2738
109.984 34.0891 20.3395
64.0596 23.2682 16.0999
77.4004 24.7337 18.2204
105.071 39.6044 23.6944
87.5741 29.4244 18.2757
74.0334 26.9871 18.2737
69.5596 24.0578 15.3352
90.1097 32.8504 19.6895
83.8019 26.1509 19.4851
71.4418 29.0683 21.0042
68.1854 22.3988 12.792
70.5363 25.3141 18.405
57.0228 23.7311 15.5536
75.3895 23.3343 14.8564
60.9019 25.2391 18.6646
89.7253 27.6144 21.074
75.7544 31.0707 20.609
81.541 30.2658 21.3516
82.7444 30.6823 20.5749
85.3704 47.3353 34.9116
72.2051 23.4672 14.4688
51.439 22.6164 16.371
56.7459 27.4008 21.0924
66.3677 31.6849 21.7274
65.9753 33.3477 22.6733
98.4685 39.2686 25.9274
54.917 21.177 17.953
53.8524 18.6364 15.3408
84.909 29.0456 21.5668
79.0782 31.2289 22.223
71.1528 35.3803 25.3255
110.019 47.6359 32.9711
53.0848 28.9271 25.6673
77.5727 38.3829 26.0817
59.4252 28.347 24.0088
77.6262 31.7578 25.0003
83.7792 35.3888 24.1358
91.6469 34.416 28.5075
51.5963 23.5289 14.9723
89.7695 26.0642 19.2609
50.3933 26.369 21.0749
78.0517 28.0003 19.5782
74.2376 35.352 28.8067
62.859 24.479 18.7499
60.1382 32.9271 25.0627
70.5331 40.5315 28.1425
71.9496 28.9558 26.358
62.5468 31.8012 25.7787
61.8359 38.1416 32.279
69.1011 30.1175 24.0196
70.1103 26.2646 19.9871
63.5943 22.2569 18.6796
47.4908 17.501 12.674
48.4106 27.4305 22.2986
65.5929 24.454 17.9435
45.5404 31.912 27.8029
73.4526 26.5619 19.7914
70.3535 24.57 19.9659
78.6549 33.4289 28.8258
56.317 24.1988 20.3129
70.7072 26.2163 20.7269
60.8955 28.842 22.0477
53.8546 20.9197 20.3122
59.0427 25.9363 17.9251
59.3874 36.2037 31.0048
73.2244 47.2449 40.3173
73.2225 32.6788 29.7403
43.668 25.0674 22.6511
59.2199 29.7818 24.5136
62.2939 28.1175 28.8286
78.2074 34.0081 25.196
72.9023 30.111 26.6039
72.2441 41.5683 37.7588
47.5369 22.0035 18.5001
77.7343 37.0244 30.0915
37.8772 21.1737 19.9149
43.6462 22.0253 20.46
51.956 24.4567 21.4996
61.0967 30.2567 29.1844
46.7198 23.1553 23.5706
66.9467 24.6372 20.2053
72.5372 31.146 26.5819
58.2495 24.2585 24.1313
46.9395 21.739 18.0402
53.5531 22.4869 19.9172
57.8107 46.4649 41.182
49.26 20.756 21.6839
64.9424 26.3847 22.2014
43.1595 25.1069 22.5588
48.7827 26.6272 26.7336
58.6679 33.7964 32.141
40.0682 21.9076 20.7691
45.6077 24.2466 24.1494
46.9758 21.6766 21.2381
80.6851 45.2575 37.265
36.1902 20.2171 20.8359
52.3617 29.4488 32.1717
47.3946 31.6242 30.9483
64.8795 34.2457 30.346
46.2745 29.1622 31.3054
47.2164 19.2913 20.9277
62.1609 24.7746 21.5991
37.2738 17.1318 17.5086
48.9629 23.7754 23.7559
38.5761 19.869 24.5204
51.2892 24.8291 24.7259
64.9248 24.3157 21.5025
52.5809 21.2774 20.8134
45.1968 25.2714 26.0279
77.0914 34.4826 31.2551
55.2405 23.8038 22.9939
57.744 27.0174 32.4937
49.923 17.1672 18.9028
40.6359 19.7395 18.5924
37.2827 14.6206 13.8585
41.0526 17.7163 21.5087
27.7831 23.2031 34.5872
73.5127 38.379 29.4758
45.4469 26.5383 28.1953
38.8496 28.4871 29.5167
53.2276 24.0478 27.7862
42.8547 13.1847 11.0996
35.2739 15.9552 16.0076
37.3744 22.9282 28.4973
31.3983 12.2687 12.8065
45.95 23.1764 25.4538
37.1458 19.0058 23.7666
50.947 32.0351 35.034
63.6942 34.0579 34.4517
31.5864 14.2105 15.0785
41.057 26.266 29.1358
28.3526 20.565 24.716
32.2809 28.6255 31.902
45.3384 21.1263 25.3918
46.8881 30.9908 28.233
43.5043 20.7523 22.8988
41.7635 31.7671 38.0595
41.2121 25.583 26.5174
41.944 26.0613 29.7755
38.9523 19.2808 22.0409
32.7882 18.9383 24.6829
42.9953 22.3504 25.3367
58.2382 33.007 35.2126
36.1914 19.572 23.7507
42.618 24.1287 29.419
50.0296 22.621 28.6451
41.1465 22.8842 23.2906
47.5671 24.234 25.3202
59.514 27.5725 33.1977
43.4238 27.691 27.3445
45.4751 26.4418 30.1688
30.2113 23.6392 32.863
44.5691 29.1526 34.1603
34.179 35.5685 43.9526
40.3415 28.8428 38.1238
36.8089 13.4947 13.2827
45.0715 33.8161 39.1075
44.3193 29.772 35.6316
34.9767 20.045 22.3133
37.0832 18.856 22.992
27.0867 18.3239 21.9853
35.7326 18.544 23.8689
48.1289 35.055 39.7106
24.2255 21.9229 26.0111
32.8625 27.3263 39.2991
53.688 34.6064 40.6299
45.4545 24.6547 29.0172
35.9875 21.9797 27.8179
34.6707 25.5109 37.4798
29.4917 24.5699 36.0357
41.2431 19.8216 17.9663
37.6319 22.0591 24.7235
21.6142 16.995 20.4594
28.0111 16.4215 24.125
46.9073 26.8895 32.4205
32.6237 14.5031 20.8385
32.9652 12.3143 15.9325
35.9175 21.7555 24.4624
33.231 29.4179 38.2282
35.0597 23.0306 29.6192
41.6992 25.8358 29.6851
43.3036 22.3094 36.1052
37.3484 22.8397 23.357
37.4952 23.5183 29.6654
32.8285 17.3629 23.8155
35.265 24.1118 35.4452
25.8676 17.5297 26.0113
39.8531 21.3677 26.6802
26.8846 27.5705 41.9736
28.1143 17.9573 22.077
31.5144 17.6758 22.0847
38.5904 29.544 40.4746
26.9413 11.4756 14.7458
29.5639 19.4864 31.5412
42.3141 26.0867 32.0968
20.1889 16.0876 17.4292
30.821 14.7021 23.0281
36.5581 25.5641 30.2986
34.0312 25.3103 35.4115
22.9248 14.8694 24.5443
33.8566 17.3736 21.4511
38.7485 22.2478 32.5525
37.8938 17.995 22.2642
32.7852 18.0815 25.6987
39.9176 20.5531 29.522
25.9811 19.6307 30.847
37.3878 19.1907 23.1636
28.1076 18.6503 25.4141
20.9575 16.262 23.3373
22.115 19.1878 27.9645
30.1302 21.0332 29.6738
27.7565 16.785 26.2019
33.3309 17.2605 21.8096
37.8138 24.6737 35.7684
35.5365 21.7861 32.0027
28.1249 17.7494 22.8191
29.3533 23.281 32.9706
24.7068 18.7763 27.3391
37.4939 22.3973 31.2122
34.3209 24.4019 35.8548
37.267 26.4731 37.9398
18.5091 21.9826 31.2311
27.85 12.0812 24.0587
30.1093 19.4464 24.6128
19.8333 17.0417 24.1351
23.8778 13.0868 23.2557
42.8082 24.2196 34.906
27.605 16.8786 25.7923
20.4466 20.1462 27.918
25.8514 17.6302 27.7674
34.4527 17.12 26.0515
34.1952 23.8666 38.3163
24.0647 19.8523 23.5612
18.8473 14.3402 21.2173
20.1688 20.0725 27.807
21.8859 21.8218 34.4439
25.9493 14.338 20.7427
21.856 14.4339 25.9048
30.0431 22.4674 32.4597
28.3788 26.3175 41.2638
26.7506 20.3221 37.0541
25.7953 24.1783 46.5828
36.9573 24.5879 30.9134
24.3873 12.9343 20.6025
25.8508 14.3873 21.6215
22.6747 12.974 22.5762
21.8467 17.6635 23.9729
26.199 24.7792 39.0525
30.8147 16.0525 26.3674
25.7984 19.5886 25.1651
27.6906 18.7866 29.4685
34.4236 26.0898 44.5481
22.6344 23.1871 41.6249
29.8897 17.6066 26.3055
29.8791 17.6339 27.769
30.6436 16.8382 24.2212
26.1673 17.9846 26.5856
24.8017 16.5002 25.7683
23.3183 15.5729 32.097
26.1019 22.9893 36.5883
25.8592 13.368 30.1021
37.2774 27.0113 33.3158
19.0818 12.5627 23.8015
29.0175 22.9674 40.6875
29.8639 17.8207 22.9722
19.9917 12.6489 24.5721
25.0612 16.8364 23.6117
24.8337 16.7643 27.3421
23.9742 16.0533 25.545
15.0148 11.0364 19.8503
23.1445 20.4373 34.8628
31.9209 22.993 41.6471
28.215 20.42 30.8346
22.518 12.2805 23.1312
17.6618 12.3224 22.3021
23.7068 22.4002 36.5257
24.2979 10.6182 19.1823
20.794 22.867 42.1435
24.8799 12.6259 21.9097
26.5675 18.9885 34.7027
26.2372 15.4806 26.3694
29.3549 17.5254 31.5164
22.3711 16.5036 23.0281
21.0953 19.2901 33.4629
25.3873 22.5104 37.965
20.5281 14.6074 25.316
22.4035 11.5234 24.1816
27.5634 19.3343 37.0655
26.7215 24.9223 36.13
20.5705 12.5684 26.9245
26.9932 24.1439 35.5322
23.668 13.45 21.6499
22.1002 18.8296 37.244
22.5699 16.1657 30.285
30.1725 30.2265 51.2643
25.6309 17.9744 30.6772
19.9607 11.8613 23.2462
19.6914 15.5207 25.6599
21.6882 21.4893 39.8443
21.7455 12.6204 27.1163
24.8249 21.908 34.6957
23.732 17.113 29.2762
25.2725 18.3934 28.387
20.5471 14.0109 28.2707
24.5385 16.6042 27.6057
23.2965 15.6923 33.4812
19.2748 14.124 29.4916
24.4714 14.6637 23.4486
21.2832 19.8865 36.453
16.3682 13.3699 29.1327
28.5964 21.9764 39.2032
17.9383 11.2249 18.9014
18.5331 18.8905 40.8015
19.9503 18.2516 33.7901
23.3591 19.2254 28.6967
19.8822 11.3307 22.4667
23.7427 14.5637 34.3334
21.2796 7.8632 15.8494
18.3235 17.6145 31.2256
13.9799 14.3159 33.6813
26.891 17.7638 28.8031
27.0445 25.9523 42.779
20.5454 12.695 23.6972
21.7987 18.4075 33.4586
12.8816 12.9327 22.5635
16.3818 15.1171 27.7445
19.1327 14.6113 27.677
16.8149 13.5246 25.4315
18.9178 18.7588 38.8697
18.8699 11.7533 26.2079
19.4092 11.3959 20.9916
21.4762 21.4105 40.7738
17.8676 13.7907 28.8487
21.0577 15.1183 27.7793
17.6357 20.9573 32.8008
16.1291 16.7744 31.2972
17.0712 11.5191 22.3518
16.4756 10.7641 25.3949
17.8268 18.8964 38.7153
19.7857 12.9047 26.017
22.9633 16.9836 40.0957
15.7152 18.8523 30.334
17.8614 6.42335 19.7227
27.909 17.9057 25.7525
18.2131 13.8085 28.5348
23.6441 31.4856 61.6275
19.9267 16.712 34.2019
20.3952 16.5797 38.8871
26.1849 16.0724 29.7766
20.3487 21.0939 39.4772
17.3128 10.7361 18.119
21.8833 17.1306 30.4763
13.5753 15.3937 36.5674
19.1555 15.3017 35.9309
21.5212 17.3686 29.8761
15.3258 14.9847 31.4594
17.6192 17.6923 42.142
21.6033 16.173 30.5316
17.6848 12.1576 22.1966
16.5863 14.6579 35.5865
14.26 14.4495 26.5392
18.8709 11.7125 23.2925
16.3349 12.0477 25.454
15.8637 11.0608 21.4638
11.6922 13.3518 30.249
19.2607 17.7291 42.0653
25.682 18.834 31.0353
12.6556 12.153 31.658
13.6517 11.9845 25.6784
16.0316 15.1735 34.9148
27.3588 14.9862 24.5031
14.4751 13.6956 29.5693
19.0729 18.2256 42.8233
18.3897 10.5871 22.7923
19.6678 10.3207 22.5573
18.688 12.3828 30.7857
19.8543 18.3568 30.9337
16.2465 8.77864 22.3498
15.5835 10.4479 15.6633
15.8059 7.7878 20.9694
15.7741 11.1645 31.9388
23.0622 19.5679 35.0768
16.8215 13.8107 26.6054
17.2242 16.5677 37.9816
19.5809 13.6724 39.8169
17.9321 15.8014 37.8419
26.759 18.2781 28.0138
17.5025 17.6541 43.8499
15.1421 16.6144 32.0078
15.1886 12.3427 24.936
15.4428 14.8823 33.8321
16.8691 16.3706 45.3212
13.9854 16.8194 31.6994
14.3413 14.7492 40.9766
24.8809 15.3713 30.398
14.1171 10.5274 27.2029
22.2364 16.8873 31.8178
12.854 12.5921 33.2398
15.091 14.9567 26.8907
15.0529 9.0083 18.5197
18.3327 13.1996 34.4904
20.2298 17.4791 36.2608
15.063 15.3999 34.208
14.3529 13.3363 33.2666
15.0008 11.2505 24.31
12.904 17.9548 32.3782
16.9177 11.7437 24.4573
13.4032 11.3183 24.8718
14.3022 8.6953 24.2639
15.9669 13.5691 35.6924
16.6266 13.8564 27.4456
14.5742 12.1625 22.7623
13.8685 9.4038 27.4619
15.7204 19.6259 45.8263
21.0068 12.1975 21.869
15.155 15.7573 38.8901
18.0067 16.9065 37.0589
17.6822 11.8846 25.9394
16.671 9.36811 24.0524
16.9783 13.2907 36.3102
16.7624 15.3013 33.1683
12.8863 14.7474 28.0519
12.0802 12.7504 27.9192
14.2849 15.324 35.7606
15.8992 9.50771 26.1202
15.3665 11.7329 28.842
17.9225 18.0681 37.9365
15.0793 12.6106 34.4006
15.3524 8.24644 14.8081
15.921 14.9931 38.5668
16.1313 14.0904 33.5594
13.0647 14.1795 30.6843
13.4275 10.1361 23.6006
15.4004 9.75491 25.4489
10.2926 9.72121 22.2186
14.0148 16.8807 33.6223
13.698 8.11214 24.0015
15.6184 8.94122 26.0882
16.275 8.10262 18.8629
19.0541 13.9035 26.8877
15.2177 12.5547 34.0242
15.9655 16.012 39.5541
17.5635 16.9213 33.7373
15.0508 12.0204 39.6775
16.5632 12.6796 26.3701
12.2891 10.7168 28.8228
9.96388 9.06781 23.6275
13.1671 9.92595 24.9003
14.511 9.52121 28.4017
15.0873 17.2478 35.5772
13.0079 15.8548 38.6903
15.1019 10.1293 18.1053
11.1226 13.7105 35.5287
14.219 11.4545 26.9522
15.9796 12.3265 30.6476
11.1286 11.5721 39.5266
16.1923 11.7988 25.3013
13.57 5.68212 16.9383
13.8469 12.5233 27.8546
