# pn-170911/CsIIF-av-USN7-1280-1959.psd
# Power spectrum* (dif=0,1,2) (really just |FT|^2)
# NOTE: only the first half! (symmetric)
# weeks: 1280-1959
# 540 clock-days, 522 excluded
# PSD: 1441
6490.98 0.272874 0.0300777
398001 9.23995 0.0467428
1.15915e+06 21.4746 0.0486731
509033 18.8522 0.0466773
319088 22.189 0.0456668
164809 16.5441 0.0478313
137658 20.0651 0.0442875
92456.4 17.6988 0.0514178
68217.7 17.9281 0.0537544
57943.5 18.8366 0.0546776
45845.8 18.2364 0.06031
35144.7 17.2713 0.0539363
33843.5 18.3784 0.0595874
27571.7 18.0341 0.0701023
22788.5 18.124 0.0621891
19972 17.3346 0.0629201
18268.9 17.7236 0.0639991
15073.9 18.0156 0.0648127
14074.7 18.0897 0.0714379
13023.8 19.1198 0.0725842
10974 17.6868 0.0766785
9281.71 16.3326 0.0784535
9045.26 17.2894 0.0935079
8419.49 18.2502 0.0910356
7766.74 18.0379 0.0961463
7549.34 19.1088 0.10237
6960.38 18.5093 0.109654
6636.65 19.6053 0.115619
5561.56 16.9147 0.105566
5617.29 18.2613 0.122469
5075.86 18.3125 0.131763
4916.58 18.8156 0.135436
4316.07 17.4645 0.13298
4156.24 18.2205 0.147878
3878.84 17.2828 0.138203
3856.47 18.6436 0.157391
3211.03 16.7462 0.160373
3248.45 17.5117 0.152867
3161.53 18.0776 0.172946
3167.09 18.7415 0.18496
2820.89 17.4343 0.175803
2684.21 17.8707 0.177579
2673.77 18.8061 0.198024
2499.44 18.4769 0.212464
2423.72 17.5597 0.207482
2207.45 16.7767 0.201154
2042.98 16.6625 0.215687
2193.84 18.741 0.247475
1981.22 18.0281 0.261105
2012.55 18.5368 0.257594
1870.72 18.6559 0.261719
1716.89 17.4936 0.260513
1718.56 18.4617 0.275029
1643.76 17.8855 0.28364
1521.7 17.3782 0.275231
1513.53 18.2258 0.29543
1577.51 18.6869 0.320042
1463.19 18.878 0.331782
1305.69 17.3335 0.310115
1339.88 19.2768 0.364747
1212.57 17.4276 0.338832
1268.3 19.1059 0.371923
1180.52 17.6528 0.376481
1159.03 18.3295 0.390181
1193.53 19.3428 0.421825
1131.17 18.4781 0.42629
1018.37 17.9505 0.395141
971.319 16.4193 0.384757
1029.63 18.7972 0.461872
894.734 17.2236 0.444385
945.426 17.6974 0.452317
956.229 18.3615 0.491615
869.84 17.1248 0.444796
848.849 17.4774 0.471323
828.463 17.3479 0.477807
862.993 18.6547 0.532
830.175 18.7367 0.561294
719.335 16.8745 0.499955
744.389 18.2973 0.57494
726.561 17.4864 0.553168
711.122 17.6595 0.567519
707.778 17.9725 0.602516
669.92 18.3166 0.639331
646.841 17.1917 0.607241
670.78 19.1458 0.678712
610.823 17.7163 0.650152
650.712 17.7082 0.664608
615.687 18.3073 0.67382
591.514 18.2883 0.7043
569.343 17.3555 0.675846
579.275 18.0743 0.731182
575.912 17.9083 0.742096
503.862 16.9693 0.706595
486.973 16.5966 0.705159
524.324 17.9127 0.757915
512.47 17.4329 0.784128
494.881 18.2097 0.824682
480.057 17.7156 0.796988
474.736 17.949 0.869112
478.047 18.5437 0.886022
425.134 16.4069 0.813907
448.023 18.1206 0.908846
430.841 18.2586 0.932746
450.02 18.0514 0.935801
409.418 17.2539 0.902855
403.957 17.9255 0.968948
372.774 16.3976 0.894476
393.834 17.9118 1.02275
385.203 17.3548 1.00065
411.537 19.1009 1.11229
417.13 19.1725 1.11547
384.384 18.4636 1.09178
402.92 18.4374 1.14182
348.744 17.5659 1.08582
362.271 17.9513 1.10163
352.119 16.9857 1.0686
348.88 18.8011 1.23141
346.341 18.5719 1.19982
351.409 19.0003 1.2792
310.484 17.519 1.19823
304.942 16.9115 1.15749
328.37 18.2715 1.27714
313.455 18.0282 1.27791
321.209 18.7936 1.34592
281.976 16.9704 1.24207
283.918 17.2373 1.28428
284.386 17.3395 1.31982
274.519 17.5521 1.35257
296.811 18.4727 1.42268
269.818 17.4041 1.38449
283.844 18.0519 1.4316
273.57 18.4251 1.48373
252.051 16.7758 1.38825
261.156 17.8554 1.4977
274.364 19.0879 1.64664
264.96 18.104 1.56049
237.704 17.1619 1.49138
236.97 18.2226 1.60538
232.6 16.4768 1.51928
224.106 16.7505 1.57842
236.048 18.5064 1.7445
213.336 16.6326 1.56604
233.347 18.7263 1.80345
242.427 18.5273 1.78614
227.566 18.1054 1.81057
224.588 17.8765 1.7493
213.657 17.2948 1.74067
223.724 17.5616 1.77376
197.13 16.5102 1.72847
198.151 16.6324 1.70745
209.435 17.8018 1.875
207.4 18.6799 2.02796
199.89 17.692 1.89342
205.921 17.9298 1.98502
197.42 18.0793 2.03045
202.324 19.0137 2.16913
193.574 18.0559 2.07945
175.586 17.267 2.00304
186.418 18.0953 2.15187
190.927 18.6976 2.20964
179.064 18.0603 2.1611
169.335 17.0283 2.13224
180.738 18.2004 2.24516
177.608 18.1957 2.23969
170.307 17.8153 2.26963
164.317 17.5143 2.2587
159.091 16.6113 2.15357
154.789 16.8539 2.21331
161.371 17.7172 2.34004
164.54 18.0649 2.4038
157.053 17.4808 2.37279
155.327 16.6941 2.30342
160.234 18.2808 2.53587
146.612 17.1673 2.4305
160.656 19.1446 2.68219
161.482 18.6824 2.74527
147.193 16.4883 2.40602
136.676 16.9281 2.52289
145.069 17.3367 2.5481
154.25 19.1133 2.85621
139.203 17.5691 2.69659
142.872 18.4741 2.79882
145.062 17.8531 2.77038
124.406 15.8527 2.53968
135.704 17.4685 2.76451
141.875 18.4634 2.93441
132.337 17.2632 2.82916
129.619 17.8409 2.92242
129.728 18.4408 3.10247
124.141 17.3486 2.87741
129.721 17.8173 3.00778
129.047 17.7608 3.04614
126.97 17.6893 3.04473
123.805 17.6794 3.09193
123.139 18.0782 3.19389
117.603 17.8373 3.1607
123.429 18.1585 3.29343
127.557 19.2489 3.41223
121.17 18.1071 3.2848
114.745 17.8436 3.30798
104.381 16.2973 3.05438
106.674 16.3677 3.18615
127.551 20.2659 3.83502
108.986 17.8373 3.55885
111.875 17.7567 3.46084
105.748 16.2469 3.15082
108.267 18.569 3.74837
111.986 18.2112 3.69608
106.776 17.0982 3.44904
96.3164 16.1786 3.3001
102.791 17.2915 3.53488
101.256 17.9755 3.75496
102.505 16.8287 3.53366
110.107 18.6981 3.88942
101.323 17.7023 3.79166
103.494 18.3691 3.94783
96.2032 16.9822 3.74641
98.358 17.151 3.76529
96.7206 17.6676 3.8076
105.175 19.8718 4.37351
94.8633 16.8024 3.80723
95.642 17.8685 4.19065
93.723 17.9349 4.16741
91.5151 17.1388 3.92883
91.469 17.5731 4.07907
97.0798 19.3903 4.54536
83.3223 15.6641 3.68941
92.9806 18.2981 4.42688
88.9677 17.6298 4.21413
90.0489 17.5907 4.25818
83.3523 17.756 4.44906
85.7334 17.8185 4.34777
81.6789 16.7872 4.1744
84.7509 17.1958 4.39488
76.1654 15.9574 4.09334
83.956 17.7413 4.48154
77.5371 16.5897 4.35161
77.218 17.0225 4.45568
85.3505 18.083 4.70073
80.33 17.7644 4.71404
86.0164 19.2206 5.18646
85.1439 18.8136 5.03996
80.634 17.7125 4.85741
76.0873 16.1981 4.39132
79.2313 17.7705 4.91108
76.6825 16.8999 4.63236
75.3394 17.3835 4.94079
75.7686 18.1258 5.13702
70.8436 16.8475 4.8467
72.7998 16.281 4.63576
73.617 17.6854 5.02992
75.4688 17.5918 5.15917
73.0188 16.8299 4.91021
75.4776 18.4683 5.49527
66.7175 15.9673 4.72353
67.4076 17.4725 5.31875
72.5994 17.0681 4.9887
70.0544 17.2503 5.38668
68.4729 17.9017 5.50284
64.7687 16.2411 5.07141
69.3715 18.3697 5.77613
72.061 17.6043 5.39418
70.5316 17.9103 5.72959
66.6762 17.2461 5.52729
67.2476 17.1849 5.41759
69.0313 18.3343 5.98564
68.4453 18.6045 6.00943
62.0044 16.7782 5.55019
66.5665 17.5645 5.86095
65.2205 17.5047 5.84679
63.662 17.774 5.98287
61.7339 17.8152 6.14789
61.2817 16.7213 5.74392
59.1539 16.3326 5.56986
65.224 17.3197 6.02146
61.8912 17.9858 6.24426
62.1018 16.6644 5.88012
64.7475 18.7448 6.6989
62.935 18.5664 6.55247
60.5002 17.3819 6.27681
60.9004 17.6256 6.35498
58.513 16.9701 6.13996
59.1455 17.8596 6.5566
58.7797 16.9087 6.16485
56.4967 18.1184 6.74172
58.4838 17.5357 6.56768
61.3694 18.1154 6.86775
59.0551 17.6903 6.7367
53.9735 16.8274 6.46748
58.2023 18.3972 7.07374
59.2457 16.9622 6.58546
61.965 19.4403 7.61914
54.6775 16.2859 6.41881
53.7209 17.3653 6.81482
62.9314 19.8403 7.62815
55.571 17.6424 7.25253
58.9723 19.0796 7.71404
51.6988 17.2538 7.02922
55.167 18.2687 7.48217
52.6713 18.0932 7.46439
51.4976 17.8941 7.46757
49.2848 16.5042 6.69386
49.5601 17.4503 7.52253
52.2276 16.8772 6.98444
47.5086 16.0094 6.8327
52.1138 17.4349 7.23327
50.3535 17.6549 7.73891
49.2589 16.4478 7.08276
50.811 17.3214 7.39473
51.6356 18.4057 8.08168
50.114 17.1721 7.63725
54.3107 18.6622 8.18839
44.6683 16.5488 7.40056
45.1162 16.8239 7.54202
47.9242 17.4492 8.04366
49.4742 16.0547 7.18588
46.2979 17.2693 8.08219
48.5162 17.0513 7.83136
48.9059 17.2135 7.83475
46.297 16.9503 7.76963
47.1289 16.8576 7.83221
45.6288 17.1301 8.16096
48.1644 18.2861 8.76053
45.6263 17.3711 8.28317
42.4159 16.815 7.93509
43.5535 17.0423 8.32768
44.5793 17.2214 8.30233
47.2211 17.4743 8.57489
44.4405 18.3162 9.01801
44.1242 17.393 8.36425
44.1745 17.8345 8.88752
43.1958 17.0629 8.55393
43.3092 17.9259 8.88569
39.9609 17.1094 8.7448
41.7028 16.9391 8.55508
43.6859 16.878 8.60516
42.3695 17.3724 8.91566
42.5607 17.7033 9.02417
45.9046 19.1649 9.88078
40.9394 17.4257 9.09407
38.1772 16.301 8.49832
42.6657 18.4865 9.8869
40.1029 16.7963 9.09389
45.7888 18.1652 9.40782
39.6195 17.9001 9.68198
40.129 17.3696 9.47711
45.7828 18.3551 9.86981
40.0776 17.2746 9.41479
39.456 17.3461 9.54413
41.8475 18.8179 10.3919
43.1134 18.9879 10.5546
41.9062 17.4378 9.68735
37.2032 16.3286 9.26444
35.6405 16.5659 9.40261
39.9094 17.4979 10.1819
41.4986 18.3885 10.346
39.1687 18.1094 10.3302
39.582 17.6017 10.3031
33.4711 15.534 8.94383
38.4847 16.3321 9.40807
37.7219 17.6948 10.0321
37.9203 17.9719 10.8489
35.3448 16.7846 9.87079
37.0008 16.5704 9.79763
38.5211 17.8151 10.5199
39.642 18.4786 10.9159
36.9321 17.5637 10.6832
36.6701 17.7916 10.7835
32.892 16.1221 9.84647
36.2173 18.0531 11.1871
35.8459 16.5897 10.2751
34.5918 17.0577 10.6093
35.5449 17.5138 11.0236
36.7261 18.267 11.3149
36.9402 18.2123 11.7061
35.1956 17.7859 11.3009
37.9464 18.6983 11.5554
37.0242 19.0593 12.0079
35.3648 18.09 11.5436
33.0035 16.4523 10.4246
34.8588 17.6154 11.5086
32.2784 16.4277 11.0468
31.8841 16.7925 11.1215
33.5732 17.0976 11.6044
33.5922 17.6959 11.7053
33.8363 17.175 11.3808
33.966 17.5731 11.6523
34.8287 17.451 11.8246
32.1091 17.8254 11.6869
31.0635 17.1366 11.842
34.3959 17.8196 12.1178
34.321 17.4731 11.8196
30.7298 16.4432 11.5756
33.6474 17.9071 12.2529
32.3763 18.3502 12.8213
30.966 16.5523 11.7999
29.6141 15.6579 11.2745
31.3849 17.4305 11.905
31.1314 16.3617 11.3175
28.9456 15.9792 11.4097
31.8334 17.8264 12.4703
28.4465 17.6574 12.8812
32.847 18.5455 13.2245
28.1572 16.1593 12.1365
30.5073 16.9104 12.2931
29.955 17.8674 13.0905
29.797 16.849 12.2133
31.7898 17.9841 13.3585
28.0545 16.8669 12.5654
30.4924 17.4002 13.1111
29.8499 17.4581 13.1361
29.4444 17.4776 13.1346
28.9603 17.6333 13.5849
29.9055 16.5641 12.2657
33.3315 19.0097 14.2902
31.9266 17.9425 13.4713
28.879 17.9788 14.1934
27.8092 16.3009 12.319
28.76 17.5073 13.5468
29.2961 18.0767 13.9528
28.7949 17.8979 13.9016
25.695 16.5624 13.5117
28.1118 17.0049 13.3666
27.4772 16.7706 13.2744
28.6638 17.9958 14.574
30.8567 19.0818 14.7636
28.2574 18.1754 14.6658
29.3423 17.5596 13.5352
28.1265 17.6868 14.5824
28.8606 17.969 14.8701
27.1093 16.7241 13.629
27.1042 16.3136 13.696
28.0226 16.8954 13.7701
27.1035 17.281 14.0548
25.109 16.5035 13.7389
24.7464 16.6045 14.4271
29.6307 19.4186 16.0391
26.778 17.7354 15.1404
27.5183 17.8378 14.986
28.5134 17.2844 14.1881
27.9365 18.174 15.3736
25.6805 17.5095 15.3708
23.7341 16.1686 14.1068
26.5509 18.397 15.6752
25.4151 16.5744 14.6445
25.4961 17.0503 14.9383
28.4922 19.3197 16.3741
24.6856 16.9569 15.4891
25.4087 18.1015 15.8837
25.4193 16.9163 15.3716
25.3864 17.8234 15.8911
25.2196 17.3458 15.4479
25.8389 17.9215 15.9391
25.7151 16.8192 15.1758
25.2239 17.6733 15.858
24.8273 16.2656 15.1381
24.4345 16.5535 14.9327
25.5023 17.6382 16.6382
24.5617 16.8928 15.0302
23.6511 17.5159 16.1189
24.584 17.1346 16.0502
25.2258 18.0415 16.3875
22.4355 16.1905 15.1746
25.3207 18.907 17.4731
25.2493 18.343 17.4414
24.6034 18.534 17.7445
23.7994 16.8655 15.5005
23.5746 16.8099 15.924
23.2198 17.6008 17.0116
23.6479 17.7581 16.9982
24.6622 17.4341 16.8311
23.0412 17.1431 16.2152
20.7028 17.3194 16.8466
22.4045 16.8976 16.4057
23.2528 16.2536 15.555
22.358 16.6596 16.9005
22.5296 17.3783 17.0757
22.2912 16.8656 16.8612
22.4342 17.0392 16.6367
22.2959 16.9374 17.4915
23.2257 18.0379 17.7514
24.0262 18.6163 18.3394
20.4154 15.2288 15.5104
21.6006 16.4575 16.698
20.6217 16.5935 17.2019
22.1726 17.0109 16.8053
21.4665 16.9567 17.6651
21.0017 16.3481 16.8364
21.5344 17.86 18.2996
19.6669 16.5231 17.8683
23.2703 17.68 17.56
19.8955 16.669 16.8704
20.5133 16.4083 17.3622
22.6474 17.5023 18.2737
21.6876 17.3177 18.7534
22.8694 17.8153 18.0491
21.0468 18.0611 19.6131
20.9034 16.5467 17.1219
21.3122 17.8755 19.4636
20.18 17.1189 18.4754
21.4022 17.2591 18.3287
20.13 17.1247 18.6446
21.3387 17.1433 18.3177
20.5022 16.7038 18.8057
21.1061 16.8149 17.9195
19.0049 16.9379 19.0046
20.7955 17.5744 18.7976
19.1724 16.3623 18.4493
19.8417 17.7774 19.9724
20.7132 16.7337 18.4442
21.4304 17.9036 19.7191
19.6422 17.0894 19.482
19.7364 16.6804 19.0288
20.9877 17.8131 19.8292
20.4923 18.1959 20.0055
18.9625 17.6955 19.9655
19.1105 15.6537 18.0694
20.1039 17.2464 19.4142
20.7843 17.3371 20.024
19.8732 16.8177 19.2519
18.8693 16.9924 19.9108
17.3217 15.0524 17.838
21.162 18.3321 21.0975
19.9841 17.8447 20.3386
19.4142 17.9418 21.3681
18.8584 17.1132 19.7781
18.9958 16.6083 19.1282
18.4874 16.5394 19.3575
17.9843 16.8331 20.3379
19.2131 16.4193 19.4721
18.115 16.6354 20.4281
18.0335 17.1522 19.9972
18.3835 17.2445 20.9392
18.1321 16.627 20.1516
17.0266 14.9256 18.8134
17.7825 15.7963 18.8728
18.8743 17.6606 20.8717
18.4917 16.8859 20.6331
19.4716 18.2148 22.4827
18.2787 16.7296 20.7184
19.2283 18.005 22.2552
17.0941 16.7552 21.4089
18.9847 18.3322 22.2692
17.2784 16.7742 21.6167
17.7344 16.7896 21.0607
18.897 17.6141 21.6502
18.7769 17.131 21.2842
17.4798 16.221 20.3145
17.4979 16.7625 21.2897
18.5796 17.3163 21.6522
16.4182 16.3561 21.4691
16.4843 16.4578 21.8198
17.1264 17.4198 21.8619
17.3734 17.6041 22.9202
17.1578 16.5595 21.1836
17.8064 17.3263 22.3789
16.4512 16.8605 22.2696
18.2061 18.6513 23.6352
17.1934 17.2076 22.4197
18.0521 17.485 23.5562
17.3936 17.1401 22.15
17.3531 16.386 21.6986
18.0322 17.6252 23.545
17.2874 17.2762 23.6955
17.2748 16.7002 22.5781
17.5963 16.5773 21.9061
18.2792 17.6048 23.6624
17.484 16.725 21.9897
16.6151 17.1891 22.8787
16.8093 16.8043 22.7283
16.1926 17.6978 24.9799
17.6635 18.3789 25.2997
16.5517 17.2686 23.8027
17.3775 17.378 23.6582
18.1213 17.7441 23.9906
17.1841 17.0081 22.7423
14.5211 14.5423 20.2785
15.7741 16.8804 24.0847
17.3419 17.9162 24.7711
16.163 18.2312 24.7769
16.772 17.0271 23.906
15.7536 17.0114 24.4326
16.1447 17.9291 25.3136
15.9897 17.3945 24.0602
15.5944 15.9379 22.3649
15.8416 17.2898 24.723
16.5856 17.1761 23.811
15.1315 15.6478 23.0589
17.0491 18.129 24.9926
16.0186 18.7992 27.7986
15.9547 16.1149 23.4328
15.7767 17.0888 25.0194
17.2185 16.9728 23.4117
15.4982 17.691 24.909
16.5097 17.5894 25.1315
14.7905 16.8596 24.8741
14.8836 16.6163 25.2352
14.8363 16.4051 24.4718
15.425 16.9443 24.0554
15.0652 16.6436 25.4289
15.2097 15.6469 22.6732
14.2435 15.8972 24.518
13.8973 16.0231 23.6529
15.0107 16.6954 25.1004
15.473 16.6687 24.6277
15.103 16.9813 25.3293
14.7691 17.3076 26.4522
15.4662 18.3952 27.4192
16.1437 17.4683 26.3423
14.8868 17.7872 27.0808
14.5978 16.7436 25.2504
15.8527 17.7055 26.7803
15.4285 18.3048 28.4366
14.2671 17.6933 26.7921
14.2236 17.2138 27.4857
14.7169 15.6802 25.4166
15.6993 17.8958 26.9765
14.8356 17.2366 27.2039
15.8195 17.5935 26.5548
15.0674 16.0733 25.6549
14.1759 16.698 26.0215
13.6958 15.4169 24.917
14.1639 16.1051 24.7583
14.3256 16.3739 25.2848
13.782 16.6507 27.472
13.2936 15.8686 24.9883
14.1253 16.422 24.6918
13.843 17.2097 28.0987
14.044 16.6365 27.1726
13.8331 15.5209 25.4023
15.4885 18.0169 27.2445
13.1131 15.5523 25.7239
14.0504 18.0439 29.6812
14.4907 17.893 29.7939
14.5628 16.8783 27.1461
15.0802 17.888 27.8004
14.1466 16.7428 28.385
13.6535 16.4299 26.7384
13.6659 16.7413 27.3337
13.5095 16.4867 28.0054
13.2442 16.0936 27.1042
14.438 17.3258 27.825
13.1871 17.1171 29.3182
14.5199 17.0232 29.173
14.0063 16.478 27.9093
13.8692 17.3913 28.1052
13.168 15.7749 26.412
14.0598 16.22 27.0707
13.982 16.781 27.4204
14.0278 18.7416 30.7577
13.4004 16.2673 27.8952
13.5276 17.0582 30.3121
13.0184 16.1257 27.1172
13.3597 16.8665 28.5853
12.565 16.7211 29.4258
12.9011 16.2706 27.4496
12.8955 15.9522 26.5845
12.2257 16.6733 28.6889
13.1432 17.1071 29.4614
11.3014 15.7769 27.744
13.4603 17.0017 30.7897
13.7559 17.8502 30.8484
12.7385 15.533 26.229
12.2418 17.4745 30.6154
12.4733 15.9332 28.365
13.4527 17.3673 29.733
13.0635 17.2632 30.107
12.1296 15.5817 27.5821
11.887 16.6409 30.3525
13.0262 16.9895 30.5626
13.2779 17.7117 31.5144
13.812 16.964 29.7895
12.6328 17.7571 31.1908
12.9608 17.1507 30.6332
12.5341 17.2173 31.9782
13.1617 15.9476 29.4434
12.6769 17.7601 30.8581
12.5493 16.7055 29.8287
12.2257 16.9038 29.7525
12.561 16.5556 31.3407
11.4467 15.3974 29.0392
13.2207 17.9439 31.7491
12.308 16.1842 30.1489
12.4712 16.2178 29.2182
12.6586 16.7153 30.7828
12.3584 16.801 31.5051
12.8869 18.1604 33.0025
12.2433 17.2963 31.9383
12.8777 16.0509 30.5683
11.8228 16.2838 30.4201
11.4925 16.2901 30.4602
12.6385 16.89 30.6003
12.2767 16.6691 32.0469
13.3108 19.1315 36.404
11.675 15.6898 29.9665
12.5139 17.0563 32.3932
12.8212 17.7034 34.4572
12.6905 17.1783 31.6041
11.1417 16.2067 31.6665
11.2427 15.6993 29.8175
11.3531 16.213 32.1589
12.0006 16.6121 31.3748
11.9427 15.8306 29.6523
11.2157 16.1892 31.0973
11.0842 16.5441 32.7088
11.2861 15.777 29.8388
11.7649 15.921 31.1907
11.9019 16.6333 31.7767
11.675 16.7761 32.9899
12.1654 17.6954 34.1278
11.6615 16.5141 31.5685
11.4608 16.0246 31.7536
11.7247 17.5493 33.9796
11.4385 17.0252 34.0003
11.7795 17.3456 33.8484
11.7733 16.8831 32.7376
11.0138 16.0105 32.5088
11.8254 16.3283 31.8157
11.0943 16.7141 32.9078
10.4036 15.0531 29.917
11.2949 17.3478 35.1843
10.7059 16.5617 34.0686
11.2779 16.4466 30.949
10.9021 16.658 33.5049
10.5368 16.6375 34.5823
11.3678 15.0553 31.2298
11.4737 17.4062 35.1007
11.023 16.669 33.7952
11.4941 17.8029 36.3075
12.0505 18.0045 35.7779
11.1896 16.5449 33.901
11.1034 16.7879 33.8132
10.9489 16.4697 34.7828
11.3803 16.7148 34.3342
10.2864 15.4417 31.1812
11.0583 17.9198 36.65
10.8169 17.4874 37.7352
11.4229 16.6537 34.0143
9.7782 14.4971 31.08
11.1943 16.8685 35.1555
11.4455 17.5236 35.6069
10.6896 16.4188 35.0576
10.4912 15.199 33.2181
11.7351 18.3176 35.7297
10.5284 16.4856 36.4279
11.0503 16.5472 34.8146
10.7691 16.087 33.5481
10.3947 16.0898 35.497
12.2041 17.8814 36.9585
11.2884 17.0285 35.2615
11.0188 16.6857 34.9596
10.7238 17.1643 37.309
10.8549 17.7874 37.6897
11.0843 16.5512 35.9344
10.5354 16.4982 35.426
10.061 15.9409 34.8243
10.6832 16.8129 36.1006
10.9282 16.9497 35.7521
11.0328 16.1833 34.9473
10.4259 16.0222 35.8423
10.5943 16.3681 33.8555
10.2579 16.1953 35.9975
11.4431 17.3179 38.0503
11.5149 17.7179 37.8881
10.575 17.4456 37.5448
11.1382 16.9519 36.3145
9.92659 16.3792 36.6156
9.89516 16.6848 36.8011
9.50889 15.2601 33.7156
10.3494 16.4466 36.7979
10.0882 16.6677 36.5026
10.3261 16.6534 36.3853
9.84825 16.6344 39.7335
11.3076 16.3041 33.1792
9.38778 16.4526 38.3048
10.4339 17.3091 36.8315
9.82096 17.2599 40.2146
10.4966 16.4845 37.2018
9.90387 16.7774 37.7988
9.81774 16.2392 37.2066
11.0387 17.7401 40.4752
9.97247 16.9296 39.0166
10.4317 17.9599 39.4101
10.4362 17.0409 39.3028
10.4731 16.8745 37.0123
10.0428 17.199 41.0062
11.0344 17.3114 38.1916
11.0905 17.8589 40.5141
9.67778 16.3902 38.3723
10.3691 15.9868 35.3408
9.28707 16.3388 38.1766
10.5579 18.6475 42.0855
10.5267 17.0587 41.065
10.1104 16.0558 37.2719
10.6074 16.9496 38.8349
9.70017 15.4226 37.6037
9.69271 17.3472 39.9471
10.2655 17.0303 39.4872
10.2103 17.3719 40.918
9.55249 14.3012 34.334
10.3911 17.0553 39.0695
9.48123 15.5138 37.6999
9.58068 17.4019 41.0598
10.8123 17.5334 40.4809
10.7197 17.7171 39.0244
8.81386 15.1701 36.0601
9.13818 15.8768 40.3083
10.3603 16.4119 36.2012
9.31943 16.1146 38.6242
9.6684 16.4916 40.5717
10.4182 17.2002 40.9815
10.2285 16.0642 39.3337
9.60243 18.5764 44.2253
9.97666 15.8154 38.5485
9.55851 17.4071 41.2086
9.18856 16.1295 38.8175
9.1701 15.645 37.6978
9.07806 16.236 40.4188
9.25318 15.3363 36.8401
9.42904 17.107 42.8163
10.1345 16.8804 39.6504
9.26936 15.8711 37.9764
8.71301 16.1666 41.4243
9.6578 16.2732 40.0869
10.3879 17.1219 40.9837
10.1847 17.6214 42.8048
9.17552 16.9365 42.22
9.96289 17.2728 42.6209
9.9109 16.6279 41.452
9.7611 16.2425 40.1188
9.16838 15.9352 38.013
