# pn-170911/CsIIA-29-AMC2-1280-1959.psd
# Power spectrum* (dif=0,1,2) (really just |FT|^2)
# NOTE: only the first half! (symmetric)
# weeks: 1280-1959
# 9 clock-days, 1 excluded
# PSD: 1441
19593.4 0.632856 0.0618259
2.07298e+06 26.7492 0.0227134
4.44907e+06 80.5283 0.028045
1.54483e+06 48.5068 0.0265814
1.34696e+06 103.148 0.0205047
491111 55.3336 0.0309481
328054 40.6497 0.0238346
164497 27.7012 0.0155323
205124 65.9219 0.0468278
209828 63.2716 0.04874
92017 40.4509 0.0558012
215593 89.6182 0.0625153
93589.4 53.5528 0.0420492
80903.3 54.6605 0.0783631
67909.7 43.4269 0.0501175
32084.1 37.6304 0.0713708
53475 51.5812 0.088514
49626.5 64.0268 0.127517
34894.5 42.7536 0.0743456
39650.2 62.4278 0.12986
32259.1 74.8041 0.177872
25372.9 50.3774 0.110807
24459.8 44.936 0.100241
20462.4 45.2568 0.163765
31724.9 67.1413 0.197014
23151.4 71.757 0.202025
18090.7 57.6265 0.190256
14944.2 46.3769 0.198529
10700.8 48.7714 0.164749
10939.6 31.6728 0.120511
19695.7 75.3423 0.301285
11524.6 53.9458 0.271873
12492.3 46.34 0.255326
7014.3 38.3216 0.261434
12831.2 89.1013 0.440138
7517.71 37.0881 0.236307
11683.6 57.737 0.345051
4665.56 34.5334 0.268111
8183.55 49.2927 0.377054
7186.86 48.6897 0.354993
6984.82 37.0499 0.344274
7213.34 56.1531 0.524283
5388.39 51.3366 0.432809
5414.73 40.0202 0.349767
8827.01 74.3589 0.5823
5797.36 33.9398 0.313201
7204.64 60.101 0.740459
3561.67 35.4406 0.287032
4967.42 51.1522 0.690229
4854.81 35.0091 0.354773
2401.32 41.3131 0.591858
7916.63 75.9793 0.934075
6351.4 61.0427 0.74011
4647.59 45.9806 0.645176
1661.88 21.4954 0.283886
2051.03 28.5247 0.466368
2952.12 34.1545 0.466433
5650.5 69.8272 1.03275
3833.5 73.173 1.16754
3698.68 71.2211 1.15491
3143.62 49.5593 0.845706
4828.49 78.2273 1.50273
3131.25 55.1833 1.04504
2453.25 40.9043 0.708185
2276.71 34.7276 0.768391
3098.42 47.1976 0.835393
3471.81 59.0499 1.31521
1825.9 61.4198 1.29424
2581.47 38.3391 0.929324
3413.23 59.3414 1.35058
2239.01 39.8116 0.978215
3751.24 96.1328 2.14796
2665 65.9827 1.78267
774.031 26.2208 0.616652
2173.25 59.2206 1.56895
2701.14 70.3391 1.71124
2564.51 68.8393 1.89282
1348.53 25.8739 0.741515
3391.37 72.8429 2.18922
1436.32 34.8884 0.950834
995.344 31.1381 0.831525
2012.11 64.5003 2.0084
1844.32 50.5591 1.67861
2865.05 75.5022 2.57333
2318.76 60.246 2.0669
2570.53 82.8128 2.9844
1479.13 56.3514 2.15955
1495.88 51.178 1.85114
863.147 31.8329 1.20873
1236.57 41.1652 1.64434
1542.67 48.3821 1.76845
654.586 24.536 1.0783
1416.74 43.704 1.86581
1432.31 50.0703 2.17795
1842.96 81.2512 3.45866
1246.05 50.7202 2.39335
1618.78 59.2259 2.56413
880.942 46.8619 2.18466
1149.55 37.0774 1.60989
1282.05 47.3537 2.22549
880.829 31.1134 1.44636
1543.01 68.1915 3.6245
431.302 23.9107 1.26147
446.033 25.0435 1.23675
802.586 36.0721 2.03036
982.986 51.115 2.51076
654.475 36.4044 1.87835
1197.96 46.6578 2.58788
739.995 38.1842 2.00885
795.783 35.8556 2.15757
628.059 39.2861 2.14328
911.064 68.299 4.30215
1774.44 81.0603 5.05101
670.006 33.4713 2.34525
1467.77 84.2096 5.11712
899.622 55.1263 3.63094
1038.05 55.6427 3.08411
735.446 49.3109 3.24878
620.08 38.0604 2.57563
768.815 44.7062 3.08602
508.885 37.3816 2.68555
810.263 39.2686 2.39253
1155.77 63.3589 4.62461
650.167 30.5101 2.02766
1178.37 66.8909 5.1375
653.789 42.8372 3.13757
817.746 51.3841 3.96538
901.016 45.9474 3.53296
652.18 54.085 3.92901
1080.52 94.7134 7.98261
846.837 50.4735 3.8108
512.637 40.1523 3.4072
649.096 58.8743 4.88026
561.067 29.6986 2.52803
531.12 39.2499 3.43028
740.51 59.5988 5.20733
896.783 58.4572 5.02662
581.193 49.3289 4.56313
557.715 45.365 4.28226
323.57 37.2569 3.68794
646.347 55.3808 5.84788
407.86 36.4902 3.49353
427.502 33.3276 3.08944
274.988 26.3623 2.76056
356.277 30.0224 3.17872
242.575 26.9979 2.87523
810.337 66.6486 6.13522
981.152 76.6086 7.65646
781.242 75.5145 7.6295
503.825 46.1973 5.06149
635.482 47.2534 4.69221
330.559 37.8023 4.06519
277.42 39.4759 4.3225
316.732 23.0291 2.46799
363.421 35.6234 4.13142
486.515 49.0976 5.28473
475.428 38.0541 4.30945
249.481 21.5109 2.40041
440.493 48.2945 5.69873
390.671 41.6814 5.07556
305.311 34.0357 4.41157
888.644 103.241 13.0996
534.696 52.9875 6.18368
355.668 45.9941 5.97923
684.896 69.1004 8.90557
565.529 66.7731 7.66327
392.697 51.7807 7.06515
372.92 48.9583 7.28699
364.325 42.0483 6.08208
766.514 68.1331 8.74095
508.37 50.6189 7.14379
319.423 40.1497 5.49545
401.969 41.8449 5.49837
498.584 60.4387 8.98833
216.497 24.3189 3.1868
434.103 72.2 10.2335
257.564 35.8079 5.64749
530.935 97.1801 14.7648
343.882 39.7048 6.01364
521.456 71.7001 11.005
431.524 55.244 9.29566
345.741 57.6492 8.44686
324.089 48.6976 7.49154
182.939 24.5194 4.24447
608.484 87.8414 12.8302
554.707 69.8931 11.4335
575.321 65.1215 10.2694
403.008 42.151 6.13148
208.691 25.7685 4.26181
298.165 42.0161 7.05913
448.437 60.0308 10.9012
256.444 35.7287 5.81553
287.006 47.1146 8.95663
538.912 70.5705 12.4235
224.024 45.5476 7.71452
231.578 30.867 5.40898
334.774 52.2197 8.71963
303.575 50.169 10.4394
443.264 63.3122 10.5606
337.259 49.6836 9.14782
121.881 18.5792 3.1939
202.794 42.328 8.23598
342.356 54.2343 10.6268
159.04 34.0898 7.67696
444.861 92.3422 17.5293
208.756 43.5344 9.1552
196.576 29.8023 6.35381
298.181 37.8686 6.45161
325.073 58.0474 12.3386
276.735 47.5133 9.4656
136.621 26.1559 5.3438
429.587 64.7005 12.5678
158.472 27.952 5.89372
181.429 28.6376 6.51742
182.514 44.7514 10.0184
250.39 47.3398 10.7653
278.076 40.8071 9.5241
301.428 50.5904 10.3003
213.575 34.0286 8.47865
159.163 37.8249 8.14298
207.355 37.3727 8.4822
271.618 52.1287 10.796
203.793 46.742 12.0373
188.821 51.0185 12.4278
212.277 56.6704 13.682
310.575 60.6922 14.4935
145.18 26.8433 5.90596
209.874 37.2057 9.02114
127.328 22.2453 5.28335
276.58 64.3059 14.1875
119.223 28.0245 7.67604
93.8877 18.177 5.49567
261.953 46.8379 11.3312
168.728 40.1114 10.6504
287.292 80.6313 19.2837
256.514 69.131 19.0806
306.591 61.6698 15.9995
82.8833 15.3678 5.58876
137.242 31.4332 8.81168
242.485 44.1562 11.8502
131.962 31.6036 9.06881
169.81 52.9118 15.1055
236.853 47.4073 10.4475
104.564 42.9132 13.5111
347.87 67.3278 16.4174
142.113 47.0381 13.4286
175.406 47.6865 14.0207
201.731 57.4489 17.2858
176.171 40.7837 14.5853
203.997 56.4733 16.0936
154.765 32.1104 10.3979
208.04 50.3682 14.0953
270.154 62.3618 15.3374
233.421 65.6934 19.7305
253.261 61.7437 17.7412
163.02 47.6269 15.2632
127.334 44.4294 13.6154
180.697 68.9353 22.8633
273.236 69.514 19.6517
145.88 36.481 11.9567
230.395 67.9902 21.256
153.147 49.4091 15.446
172.472 39.4009 12.0886
205.653 63.1689 20.5545
196.027 46.6881 14.7807
74.5934 22.0951 6.69376
148.863 37.82 12.81
129.948 44.2234 15.8749
122.662 43.4841 16.0714
137.889 44.0224 14.0117
116.219 58.2256 18.7999
120.875 51.4846 17.6875
214.037 79.5186 27.4651
195.183 74.7669 27.9427
104.194 24.6715 8.28076
61.8428 26.3951 10.9512
169.24 68.2158 24.8467
107.832 32.9494 12.8582
214.07 74.8752 28.2367
167.968 53.6754 19.3951
117.091 30.5568 10.5832
152.15 48.792 16.8198
172.689 61.9827 23.3074
117.436 43.0936 15.7872
81.2379 28.658 12.6603
119.458 36.5038 13.7571
209.083 46.2867 15.5921
218.149 76.3964 30.6524
133.288 37.3757 16.1874
246.935 66.2945 23.0944
227.834 65.5009 24.7113
145.257 61.8284 24.2701
207.619 52.3718 19.3352
142.061 42.6207 14.0802
205.387 59.9373 22.016
209.712 70.3455 26.1468
97.2945 30.877 13.5931
123.313 43.6595 17.563
69.2733 29.927 12.8874
50.3619 30.547 14.9799
106.416 31.909 12.9924
142.11 38.5569 15.2193
153.52 55.2188 25.3101
116.021 50.9517 23.3373
163.111 57.1102 20.3352
94.3277 27.3389 10.5273
175.504 63.3575 26.9423
94.6181 36.1796 15.9843
128.204 48.8729 21.8038
79.8102 32.8813 14.1331
110.44 38.5327 17.0606
102.758 46.9391 23.0075
131.953 35.8787 16.2496
96.0732 29.8268 13.3127
58.4614 29.4697 14.0001
138.065 44.029 18.8542
148.771 67.8447 30.7864
231.915 85.6252 37.4422
95.9027 38.4526 21.0079
108.41 43.4932 16.4631
119.476 61.2156 25.5122
161.527 77.8149 39.1736
122.174 49.7525 24.7691
114.043 55.506 27.4977
114.616 47.0526 25.0641
153.575 52.5934 23.2514
76.3085 29.5301 14.1431
152.94 50.7835 22.6771
117.389 51.9483 26.3146
72.2446 31.4355 16.278
55.7596 26.0097 14.2264
143.193 53.7924 25.1706
155.724 60.6811 28.9465
81.2806 42.0171 23.4847
143.545 55.7836 27.2433
80.5803 34.758 15.2988
146.927 71.9085 41.4404
48.5565 21.8593 11.7084
99.905 35.8401 18.1076
60.3762 25.5587 11.4487
41.8111 27.3899 13.5208
98.5119 35.6925 18.2748
54.7859 27.9464 17.7837
99.0133 48.5333 26.1205
102.548 61.7944 31.4371
96.51 48.5397 25.4825
82.8408 64.031 41.6188
132.915 59.5113 33.5182
133.632 61.556 32.9464
124.682 54.9426 27.6368
57.4347 16.171 10.2818
155.623 63.6477 33.1059
130.05 59.7622 33.427
87.443 32.8065 20.8824
80.1877 38.8945 20.3458
159.086 86.6419 53.0475
52.7472 22.8504 12.8986
76.5807 30.3645 14.8144
59.2591 32.3165 21.4845
68.375 38.8148 21.8129
59.604 28.3003 16.9881
47.2522 43.9005 32.5925
111.864 36.3971 15.1019
178.22 91.7355 52.6832
92.1 56.7103 32.8621
66.2433 38.446 24.3684
63.477 28.795 17.8671
95.3086 57.6793 38.8826
116.318 64.4906 47.4954
115.015 48.26 21.5409
89.0077 60.5563 40.7779
61.5624 26.8621 13.9003
30.9822 23.3826 17.9554
64.8732 41.218 27.3075
67.0782 35.6678 23.4028
56.0642 34.8832 21.2877
85.219 66.0137 43.7908
100.331 46.1497 25.5043
48.7251 35.9267 22.5831
69.0671 52.461 36.2143
82.467 39.5398 25.3416
42.225 17.3941 8.99668
70.109 35.8295 22.4157
64.0721 35.5255 24.1668
56.9103 38.008 25.5304
63.3851 43.1258 32.3062
76.3178 36.5536 22.8829
54.5551 30.2247 19.9493
80.6858 43.4666 29.9937
68.4911 19.972 9.8557
58.3868 40.8768 34.6308
204.391 103.72 58.9033
74.6879 66.2191 55.1387
85.4952 50.4816 27.9877
53.5994 37.6537 31.7964
71.4232 54.2534 40.5162
73.2289 43.0388 28.2722
84.4451 64.7454 47.3854
113.561 55.9745 35.6166
68.4295 41.948 28.6365
36.3142 17.1327 14.4247
45.2579 40.0819 33.8426
71.3955 48.7144 35.5659
77.2222 42.0032 26.875
76.2317 31.1019 19.1027
74.6455 59.7242 51.4126
68.4023 35.6004 23.1733
77.7359 68.6244 57.9257
73.437 36.3677 16.0189
69.1379 52.238 37.0351
37.0385 41.5882 39.8724
97.1636 43.0099 28.6517
116.89 72.2992 55.71
70.5806 40.3015 28.9129
85.3368 63.9463 42.3111
60.2988 41.9146 35.1044
50.2325 28.841 27.8319
68.7224 49.856 32.4043
71.4802 43.6222 31.339
69.0006 62.1603 54.3714
83.2505 59.948 45.5912
47.333 25.8494 20.6594
45.0103 19.0584 17.2805
80.2313 63.4323 44.8116
67.7373 52.5915 48.5055
93.6945 43.7808 27.1723
55.324 32.5748 24.5079
64.5445 39.8113 31.2322
66.3653 42.3453 32.9319
51.909 36.138 31.2276
51.214 30.4553 25.5712
49.1447 31.924 30.0375
63.8407 59.8822 52.2551
97.3829 68.4388 52.1936
113.748 76.5952 58.553
64.244 54.3643 47.3957
37.3602 26.2244 25.2751
99.6703 81.9846 65.9177
41.679 30.5847 28.0433
43.1113 30.6777 25.7212
42.705 47.7651 43.7965
56.5408 44.8601 40.0666
96.1334 73.2041 63.3647
64.6992 33.5365 24.9269
66.7726 60.597 57.2139
72.2154 51.9553 43.9768
52.9834 41.3245 35.6119
29.7575 25.3165 22.0692
75.4274 59.3367 55.3554
73.5515 68.3399 72.5661
77.501 71.3151 61.161
82.4591 49.4435 33.4477
39.0012 33.316 38.9027
94.593 83.2725 64.5062
34.9609 30.3078 23.7881
50.98 50.2732 43.3923
17.7918 20.5955 22.9693
53.0183 38.9151 42.6003
53.6734 59.6105 57.6491
68.5443 49.0815 39.4011
54.7693 48.8383 45.9403
38.7465 25.8359 26.8752
51.951 36.928 30.8361
31.5471 25.9026 28.1979
51.5166 45.9373 47.7157
74.5587 50.2951 42.7103
60.1293 50.7045 43.4368
60.9395 49.8977 65.4757
86.3274 75.5294 62.4565
40.017 34.1174 35.2648
80.0234 66.6816 51.7704
78.1858 75.1972 71.1556
67.647 66.9788 67.0725
45.3992 24.174 25.727
50.1484 56.0207 64.8503
108.886 57.7971 41.9142
33.0909 28.4649 30.2309
40.3645 26.6852 22.1626
54.1749 44.9911 43.6123
63.1022 46.1509 37.4299
55.8194 56.3843 73.8353
60.0383 41.0398 25.6665
61.5892 62.6467 65.831
67.918 65.9347 61.2215
73.4035 65.5739 59.5244
26.5604 31.8656 38.8039
30.5788 31.2374 29.5665
51.051 50.933 49.7507
38.9122 30.5074 36.4197
39.3369 48.0341 54.3223
54.2123 40.7791 47.394
42.2668 50.4416 53.9486
47.7687 40.9087 38.9962
65.6122 58.5229 59.5751
43.5973 32.2656 40.6907
43.9366 38.4374 30.1156
26.5961 32.4431 35.4578
78.4629 81.8153 86.5773
34.894 34.5703 47.8719
35.1368 26.6509 31.8765
88.5579 74.3313 63.3934
56.0306 50.7143 54.9207
39.3043 32.9072 33.522
55.1672 60.6942 73.1203
69.8729 43.2526 30.7028
73.7774 75.665 80.7623
48.1072 58.3168 64.458
50.0731 44.404 53.1039
45.8732 35.0009 37.6752
31.3446 26.8185 33.4523
26.6636 27.6016 28.5602
39.5048 38.5977 38.9663
28.9128 32.869 44.3569
47.1957 47.5858 54.3537
38.7335 21.7212 17.329
38.8632 40.3884 45.4178
28.4914 28.1696 35.5128
31.2278 26.0362 24.8697
31.8393 56.2697 70.558
37.5224 31.9867 43.9131
53.8064 48.6768 46.1463
30.1834 45.8676 59.524
74.0663 71.6031 72.0854
27.7008 25.1755 33.2942
20.0072 25.7227 37.5
30.3343 34.4896 47.3425
42.1285 46.5839 44.43
23.0743 29.1385 53.1879
33.9811 33.7604 40.6955
37.6451 19.9275 18.121
45.8979 56.3386 63.0637
53.1084 64.4934 68.3713
36.6514 37.9358 53.2009
56.8755 55.4279 68.4571
24.7153 27.9525 40.6366
42.2519 50.711 53.9483
58.7737 73.0332 77.1959
24.8058 32.2057 47.1136
19.5175 31.9126 45.3353
42.3189 56.9445 65.7116
32.1153 24.2044 32.0673
40.1773 59.5891 71.3404
49.5874 58.9492 79.2954
51.7443 47.293 75.1085
61.192 62.9939 80.7217
56.3177 66.4364 69.8782
31.979 23.579 31.7287
39.9345 31.7411 45.6756
44.0444 50.3516 62.4884
44.268 43.6097 58.021
42.0127 41.5769 40.2051
23.9393 19.6374 34.118
42.2774 46.7413 57.819
20.7104 23.494 34.32
13.9415 14.6365 17.8405
16.0555 11.4123 21.4468
35.2259 25.7782 28
22.6217 34.0084 39.5466
30.4518 35.1155 42.5646
12.3196 19.6292 35.8168
48.2987 48.2904 60.7044
40.5326 46.5117 50.1166
35.9488 40.6061 42.042
18.303 38.8842 57.0401
18.5762 37.0392 67.2141
26.0445 33.0591 54.0157
32.4624 40.6592 53.9333
41.2341 45.0274 85.1577
85.4486 63.2039 56.1597
45.7421 52.9542 64.6107
16.1714 29.2324 43.275
64.3777 70.1015 92.2851
26.1252 31.7379 50.0073
33.0804 24.4816 31.1357
44.79 37.2746 43.4655
34.2461 45.3152 65.8852
32.769 51.8096 69.469
36.1788 29.7123 33.0452
25.1572 42.1329 79.4264
40.4813 38.1957 35.0026
30.6268 36.8965 55.5902
31.8577 34.5358 54.8716
40.4123 42.2473 47.4837
29.5315 35.4679 56.7214
24.4317 28.9999 40.6713
29.2048 30.867 40.4844
35.4743 47.15 70.3037
30.2603 24.9823 41.5339
47.1426 51.6664 60.6645
20.7505 48.7458 82.6048
33.1922 36.4449 48.9356
19.1496 26.7531 62.0056
62.402 64.245 80.9138
44.0492 63.3447 95.8386
36.7475 60.6606 79.7416
41.608 43.7424 54.4894
17.8494 31.7248 44.3625
14.8952 15.0984 25.1394
24.9159 35.6101 55.9726
22.7157 33.6825 52.5592
28.7274 29.3339 50.8658
51.8542 62.4317 82.6305
30.1945 34.5183 55.9284
39.0219 43.1409 49.2156
12.3114 13.6621 22.4934
14.4037 28.3857 51.2707
26.3055 39.9751 59.1708
28.5107 43.442 84.2543
33.0261 45.85 51.9057
17.2045 30.2779 52.6654
26.7878 45.5166 74.77
27.8747 33.6724 54.533
23.5411 33.3723 54.6668
28.5039 39.8417 68.8828
34.698 47.4259 91.5611
64.1469 66.1889 95.3605
57.5049 58.488 70.8952
44.4661 81.2278 97.3687
21.9347 35.3251 65.1544
25.5214 40.9971 80.4268
26.154 23.3289 49.0377
42.5149 34.9217 36.7066
32.1835 38.9104 57.9035
27.932 33.222 52.3127
28.0545 42.5193 47.765
30.4414 54.5465 103.038
34.7286 39.3607 61.0863
36.9525 72.4609 108.222
34.0977 37.6594 55.363
25.7638 37.3352 71.0094
23.5499 38.6403 66.5184
43.6565 72.7198 131.674
38.1357 31.1021 40.7665
31.0349 55.1317 76.2258
17.3278 22.8665 39.7018
15.9078 32.9499 56.1562
28.0759 34.457 70.3136
25.2779 34.6813 55.6091
26.5352 26.4176 34.6957
28.3559 45.988 60.7228
24.3375 33.3678 56.8674
34.6894 53.1551 88.8284
19.511 22.5406 37.7173
22.1019 23.8915 39.2324
20.6148 35.4018 64.9735
34.157 44.3943 89.7871
26.0924 36.3901 43.4043
18.4027 31.9619 60.1212
29.0674 42.305 73.2809
31.586 45.2266 64.3013
29.2884 45.9352 103.603
39.4707 44.3468 75.3903
36.7583 52.095 61.1687
16.1191 19.3698 39.7921
22.5492 31.7404 55.1856
18.4852 23.4834 32.8475
15.0081 26.2158 43.6059
19.4133 36.4902 73.5372
20.3546 41.3659 60.732
13.0828 30.3845 91.9199
41.4907 39.9715 51.3267
28.6806 35.8723 55.7459
19.9202 27.8041 58.806
38.063 47.2642 58.0033
18.5303 29.0298 50.6079
15.3301 21.435 41.1754
21.2004 30.2715 48.3676
28.0518 35.6395 58.1113
26.3781 39.3423 71.4118
21.2462 34.3347 81.8922
46.1825 65.1289 83.2845
18.281 42.5836 103.085
55.0125 77.718 105.386
22.4421 32.9527 61.1325
15.0045 19.7056 51.43
28.5946 40.3102 78.3642
29.0965 50.2434 97.7361
22.8616 42.0304 75.115
48.124 74.3483 108.398
15.0777 19.7721 57.3091
25.0094 31.258 65.0616
34.0613 49.269 83.1947
19.0545 41.0654 71.0715
17.5498 26.4877 63.1494
19.3253 25.1884 47.6894
18.6783 29.5477 59.9368
30.082 51.6668 87.6689
14.0821 13.5291 19.3662
14.3117 27.6719 46.482
15.2221 27.5542 67.1246
23.6863 46.9175 89.9386
19.4884 33.0247 54.2867
14.5084 41.1637 81.8772
21.0394 35.0784 66.9531
27.2554 43.3546 68.4735
16.9759 35.6062 66.8936
14.7734 26.736 50.7216
12.4727 25.2132 48.8092
16.1431 18.2226 59.2012
39.5262 54.2614 66.7463
23.4908 58.7082 104.894
28.6759 44.8906 80.094
11.5183 15.7883 49.6078
21.7052 41.7191 84.2939
24.5386 41.1848 69.1055
11.4673 22.9146 65.5118
18.2496 32.8611 58.7047
14.5834 18.0589 27.2072
19.783 38.2082 72.2608
12.7571 24.064 42.9147
10.8545 31.555 70.8061
13.443 15.8915 40.4608
18.5832 25.6448 43.8215
14.3071 30.6576 56.5022
17.129 22.7239 56.979
35.1947 58.5953 114.797
20.3253 37.109 61.0887
18.3999 30.1812 76.1216
21.8322 40.7596 80.5625
31.825 46.6646 77.2983
18.0507 43.9621 83.785
17.3906 23.562 59.4826
29.6616 67.782 128.56
22.5722 30.7696 51.4659
13.441 24.187 53.104
18.6316 32.0496 62.3892
8.92379 27.7891 59.2449
19.3518 27.269 51.1079
16.8157 30.8271 62.1805
17.3619 23.5082 45.574
12.7608 20.7678 42.5228
15.9425 22.4859 50.0062
26.4734 37.3724 62.5971
17.288 25.6647 47.257
13.5754 33.15 94.6891
21.4125 33.706 76.9077
18.3057 21.1263 27.2177
15.243 41.9076 89.7727
26.126 35.202 62.7766
14.9767 31.1538 75.4186
20.3878 41.099 90.2327
27.1306 35.9011 62.0745
8.20551 22.5063 64.8798
22.1808 30.7477 56.9152
13.9887 28.4469 72.0192
23.4909 36.6695 81.6447
25.2016 29.9149 59.8462
22.5428 50.2359 99.5828
16.8711 12.9295 25.4328
15.346 24.2172 47.3104
18.1623 40.1833 86.2638
13.3455 29.6916 77.089
24.1559 41.5477 70.519
9.26954 22.4938 59.8262
18.3876 25.9582 81.2896
19.9828 27.8415 46.4744
24.9024 55.8971 98.5129
10.0951 25.1715 45.729
8.4359 11.8183 38.7179
21.2074 38.4569 64.9312
12.6098 37.9254 90.9698
21.0936 40.9364 77.7684
26.3253 59.841 130.584
25.604 49.1464 114.362
21.9017 45.2727 102.669
25.4562 25.836 45.1098
30.835 55.615 115.325
14.1603 28.4662 79.5329
21.258 24.83 60.2605
9.71136 23.3853 39.8492
11.4843 22.7495 58.8911
20.4064 31.8022 42.3165
11.4314 40.762 92.6173
19.969 27.9093 55.0163
22.4262 50.4726 139.633
23.4619 36.1664 56.9145
11.7422 25.0572 71.9518
14.2599 27.2668 86.8329
14.5652 28.6772 69.6486
25.6514 44.2943 97.1894
16.4111 26.7214 71.5372
22.2364 45.5965 70.7731
12.9728 26.1697 68.2657
18.1864 59.3076 124.979
22.3545 31.1064 53.0745
16.2141 40.0609 92.5614
12.9909 30.4111 93.9269
14.4985 21.2281 30.1992
13.5622 31.4285 56.6193
11.4036 21.5579 49.0845
8.52998 19.7886 56.5743
20.7549 39.0295 75.1773
8.08616 14.6889 55.5352
10.9431 24.7583 61.0287
15.2486 27.1129 66.0933
12.7361 13.5063 34.2413
12.219 22.326 60.5855
19.5808 38.4555 74.5882
6.96074 10.0335 51.2146
17.8566 16.0382 38.8967
20.0013 38.3037 65.2763
11.3455 42.9876 110.263
20.1744 28.987 64.4794
13.5513 33.3299 111.896
17.6296 25.1656 56.2859
13.3007 28.9145 80.6025
19.6633 19.671 49.2367
15.3578 25.4113 41.4385
9.57515 27.3059 81.8012
14.0063 27.5204 73.2852
18.1924 30.9321 69.4157
18.1992 55.6815 132.068
16.8633 15.8751 48.5098
21.1674 41.3985 103.418
25.18 45.8012 112.281
25.4242 33.5354 64.8917
18.3461 43.2773 101.17
15.0605 16.344 36.8104
13.6125 29.5771 43.209
10.0626 25.9789 84.6401
14.8284 38.8984 77.6247
13.2115 35.0242 83.9081
20.7064 45.0668 99.2765
15.1366 38.5678 96.2461
10.9038 16.7629 41.5642
19.1518 39.0515 114.771
15.3691 20.2486 45.6305
14.22 39.0763 80.2584
9.49278 17.0721 61.1411
20.6946 64.7911 180.641
21.4708 26.8634 48.6499
19.2688 45.2138 141.423
20.2902 30.2042 55.3317
14.6744 26.2722 93.8606
