# pn-170911/CsIIA-40-CsIIA-1280-1959.psd
# Power spectrum* (dif=0,1,2) (really just |FT|^2)
# NOTE: only the first half! (symmetric)
# weeks: 1280-1959
# 19 clock-days, 720 excluded
# PSD: 1441
112765 2.14126 0.0463829
3.49563e+06 43.3424 0.171979
1.73244e+07 332.506 0.176173
2.89158e+06 94.13 0.16203
2.49444e+06 191.868 0.227208
975342 97.2053 0.163632
871030 122.447 0.236314
501748 104.55 0.206778
359117 78.9502 0.161644
317616 96.9925 0.222444
270801 95.0855 0.243414
216121 97.7338 0.173711
129286 84.5333 0.256743
118027 111.582 0.29209
95917.3 63.0211 0.189457
172435 159.04 0.420233
122365 127.524 0.240885
79655.4 90.9273 0.30716
79086.5 118.426 0.355521
96436.1 130.218 0.409272
59914 91.2656 0.225098
35291.2 88.9332 0.354183
38090.8 80.5035 0.381043
37177.6 70.1402 0.373232
42531.9 79.9103 0.320441
34540.8 83.8395 0.34291
46196.6 135.507 0.429885
22691.5 53.0626 0.382762
36565.3 128.71 0.503984
24116.5 65.0286 0.457033
33206.6 108.992 0.585163
29855.4 123.756 0.782555
23094.6 74.7838 0.745451
23175.2 100.881 0.635095
20102 99.1768 0.628994
20696.5 119.784 0.80434
31142.6 153.77 1.22699
11529.6 68.973 0.623666
18911.3 129.347 1.20318
15105.7 102.958 1.00516
15001.6 91.0837 0.727045
14079.2 87.653 0.881746
13666 94.2704 0.939698
13149.5 105.919 0.990882
12102 92.2501 0.959616
7407.16 66.7211 0.776395
10914 96.5626 1.04356
8289.74 77.5694 0.781524
7376.59 70.7029 1.03532
6504.22 73.1529 0.816602
8984.12 77.3693 1.13533
11799.6 131.596 1.97895
9129.65 95.9978 1.37473
7306.45 79.5822 1.15097
7173.91 79.4345 1.25967
9815.44 105.335 1.41073
6441.47 54.8447 1.06433
8565.21 119.789 1.98751
6043.86 79.9846 1.52291
8782.99 137.083 2.203
10007 136.437 2.37094
9212.93 132.742 2.3894
4005.62 50.0904 0.910065
8387.48 132.979 2.7253
5621.12 92.912 2.17792
6097.78 104.041 2.13739
5564.79 110.486 2.55696
7908.68 149.275 3.32188
5934.13 113.952 2.37299
5090.58 113.276 2.91726
5632.97 105.254 2.42664
3856.52 101.302 2.77759
5887.67 112.359 3.23008
4824.84 76.8294 2.07929
3255.03 69.0701 1.95988
4826.65 111.713 3.46062
3028.78 63.1782 1.93012
3530.85 86.4908 2.51734
4379.16 82.4259 2.50125
4511.04 109.999 3.03359
4251.98 108.299 3.29878
2970.92 71.7838 2.34137
2375.29 82.1317 2.93715
3638.67 92.0001 3.45981
2736.14 67.1088 1.97494
3687 86.0952 3.07694
3177.33 79.8937 2.56665
2893.77 109.197 4.15552
3346.82 94.8424 3.82899
4229.99 145.466 5.16885
2729.06 79.1345 3.21771
2798.51 82.5621 3.18459
2602.16 80.8165 3.41297
2200.97 77.1376 3.88816
2702.28 86.2514 3.82286
2632.79 111.274 5.29025
2313.12 88.1523 3.95439
3577.5 121.796 5.44758
2354.23 84.4084 4.25487
1916.49 71.8093 3.72202
2335.43 92.7259 4.64367
1748.97 49.645 2.84552
1400.23 56.9987 2.7267
2590.32 109.085 5.9296
2085.77 59.1663 3.33792
1765.9 93.4903 4.32448
1915.84 104.426 5.74675
2176.08 82.6277 4.25612
2433.66 99.4353 4.88991
1920.85 71.2147 4.32397
1016.81 48.7423 2.70617
2105.99 83.3813 4.96252
2230.01 115.745 6.66304
1356.79 59.823 3.92026
1344.68 75.7042 4.26907
1691.02 97.9272 5.68618
1453.29 65.1247 4.45933
1722.67 88.958 5.82205
1655.44 92.4939 6.01686
1090.52 71.9199 5.63321
2559.24 150.662 10.4432
1823.02 101.628 7.67289
1551.67 87.8677 5.74974
1603.38 94.4645 6.9358
1618.75 110.401 7.80514
916.768 55.4289 4.0396
1107.08 64.3386 5.1297
1081.34 61.7506 4.68801
1079.41 78.0853 6.17957
1188.69 74.089 6.24553
1160.66 73.4248 5.43037
1184.7 96.0467 8.07085
800.682 63.6784 5.84254
1268.19 110.273 9.02407
890.419 65.3193 5.46239
893.053 49.6434 4.50777
1485.01 108.429 9.62408
957.107 83.6996 7.82645
959.179 89.8645 7.77587
1287.98 77.5853 6.88302
838.83 80.7391 7.36622
1528.84 111.653 10.6387
1283.44 106.75 10.5706
1120.6 62.7134 5.68649
1315.5 75.5955 6.85695
1717.43 109.721 11.4556
1551.68 142.192 13.6465
1028.02 82.9926 8.71462
1198.94 79.9316 7.98739
969.931 95.7467 11.4804
1034.95 83.2386 8.33822
613.441 48.7406 5.99616
1102.07 78.9352 7.98236
1161.64 107.665 11.0858
979.325 118.015 12.8469
1170.03 96.6459 11.0201
899.985 82.9735 9.0937
1450.4 134.326 15.5963
1501.38 128.661 13.7846
1445.01 130.088 14.8412
775.198 74.0969 9.25953
1078.9 92.4713 11.1263
837.494 75.0281 9.47275
910.656 88.2495 11.7226
1079.85 97.2057 12.838
1067.74 101.85 13.5986
1125.08 94.5738 12.147
1122.34 126.051 17.1748
725.471 56.6018 8.00377
800.577 71.9208 10.0314
1170.62 111.817 15.9403
798.358 85.2725 12.304
592.96 78.0613 10.9939
1087 97.9918 13.4116
624.105 86.6099 12.1721
560.556 61.7494 9.17918
808.136 79.3867 11.4021
525.127 43.6836 6.67798
763.117 93.8713 14.0303
749.939 86.7441 12.9511
901.984 74.6815 10.9161
886.768 104.312 15.3467
552.627 94.5603 14.0594
520.822 76.8969 12.8923
798.564 83.9308 12.267
682.133 79.2022 12.5224
602.392 77.5641 12.552
928.281 87.8694 13.433
918.014 112.96 18.1284
872.84 93.541 16.2112
769.609 109.961 18.8188
730.228 72.1066 13.8387
1234.16 141.203 24.0283
841.068 105.992 18.2857
746.814 94.1681 16.8378
812.545 55.3491 9.24761
673.166 71.7993 12.6924
413.61 63.1297 11.0743
771.92 100.371 19.3629
680.109 80.7072 15.2727
809.887 106.608 18.4634
528.226 69.6318 13.458
886.991 96.5952 16.7463
652.183 64.2302 12.7334
772.16 94.648 18.2244
406.524 44.1425 8.38434
410.198 73.2091 15.2004
529.087 67.0885 12.7421
533.848 50.59 11.0963
570.472 87.3376 17.1285
627.437 91.7052 17.5002
637.181 99.6138 20.5993
504.927 79.0962 16.3132
561.986 97.6233 21.3012
539.254 89.5148 20.4988
962.555 141.885 29.2777
672.565 66.7449 14.3485
471.991 69.3585 16.0222
548.231 56.6714 12.1886
477.876 67.7935 14.806
484.132 82.7619 17.8291
409.182 70.5362 16.6161
593.043 95.6091 23.4238
417.134 78.6988 18.6009
555.172 66.7827 13.9156
478.973 92.299 22.688
311.886 67.793 16.6957
543.193 96.8893 23.0694
593.044 67.4835 17.6776
615.26 103.138 23.4783
572.152 109.165 26.8476
585.229 97.0776 23.9095
490.662 107.475 27.3077
510.656 82.2272 21.847
429.712 64.6445 14.9902
415.819 74.8082 18.5761
447.453 55.8746 14.0115
363.42 73.3531 20.1402
550.18 113.554 28.0387
494.22 72.619 18.7085
284.293 67.8309 19.6623
485.811 80.4865 20.7466
353.203 78.5453 21.403
462.613 88.4946 22.6708
358.861 70.4339 19.7399
297.161 67.472 18.2858
342.624 69.5019 20.0839
387.253 71.3917 20.9791
326.428 52.9297 15.2569
325.582 60.3019 20.9005
399.834 86.0041 22.0494
501.916 97.8974 28.5757
339.675 58.3182 16.5325
463.958 93.3258 27.6668
329.914 100.071 30.3335
511.103 94.9369 26.533
340.712 102.344 29.8946
351.026 90.1972 27.728
406.453 84.5386 25.6138
462.709 77.0355 23.2253
419.779 91.396 29.3735
202.371 43.6112 12.9912
432.193 92.5438 29.4495
283.174 76.302 25.2834
455.309 88.2305 26.6356
318.429 79.5035 27.583
293.71 56.128 17.43
393.261 86.7635 28.6233
304.626 51.5677 17.9481
329.342 69.6491 23.2453
237.155 69.6048 22.8477
375.648 97.9176 32.3922
237.272 57.0178 18.9484
358.198 68.5985 22.3538
335.852 80.339 28.8183
241.59 79.8045 28.7925
261.482 64.8894 25.4466
351.659 73.0743 24.5781
317.72 70.6887 24.7534
275.139 60.1175 24.0131
473.001 106.568 37.754
266.002 62.2988 22.8169
191.573 55.1793 22.0478
271.979 75.3172 29.7983
339.549 79.5203 28.6651
329.233 82.5764 28.2619
292.213 107.644 41.8598
315.528 77.6167 30.0392
203.452 54.2579 22.0987
239.61 78.3851 25.2275
290.108 84.9242 33.8533
280.434 92.3871 35.1562
256.157 92.6247 35.0747
265.431 79.8913 33.0488
233.322 58.9263 22.5537
286.435 77.0601 31.5115
262.736 77.4737 32.2761
265.415 78.6411 29.2775
256.866 69.3641 26.824
266.59 55.7169 22.5744
250.343 92.3231 38.6963
193.613 73.5492 28.8885
204.573 58.8348 25.0614
190.439 53.7775 23.6017
324.789 61.816 25.0519
278.131 78.0418 29.8584
213.932 91.5853 41.31
268.625 78.5445 34.4275
233.839 64.2684 29.4367
224.026 58.5937 21.108
231.697 74.0884 36.0588
186.329 51.1593 23.76
237.717 43.7155 18.6459
244.871 79.7028 38.0193
180.663 55.2738 26.7657
347.699 103.979 44.2277
284.218 97.2631 46.7729
134.932 48.757 21.7923
265.175 79.4044 38.499
238.082 73.6598 35.5856
242.538 70.1635 29.6587
173.141 48.6948 24.9586
219.35 55.7429 26.798
164.282 64.7693 31.6477
219.497 59.7657 29.4576
202.996 76.6898 34.374
196.914 82.577 34.1962
136.793 59.977 33.7882
217.158 93.4252 43.3025
144.933 61.0107 32.4692
227.502 83.0795 41.4295
221.886 73.5827 37.3849
243.884 78.9053 39.2174
200.662 62.5619 29.7505
250.056 72.5348 41.0938
150.854 54.1228 23.4433
159.609 69.8811 38.4917
171.821 81.9811 46.8879
225.936 73.0589 36.4851
181.289 53.2505 27.2654
217.902 61.7045 34.0705
243.552 80.4722 42.416
191.047 55.1207 27.1888
195.769 64.6725 32.8407
207.676 73.4315 33.8747
199.15 93.0418 49.6901
211.212 71.7908 37.8302
159.147 56.2468 34.713
200.537 53.7868 27.2037
156.697 65.2519 36.4777
156.495 57.4581 30.2954
154.728 61.375 35.0483
208.389 69.8085 41.6178
188.677 77.2945 37.8209
106.701 55.9815 31.5872
168.757 74.6905 44.6394
102.643 47.2316 32.78
173.826 70.4503 42.2323
170.16 64.6637 36.7656
219.632 77.7044 42.6473
179.88 61.824 35.6379
156.418 84.4526 52.3881
180.098 75.2508 44.5891
150.338 83.4256 52.3009
101.064 51.6431 28.0112
103.704 52.8201 30.7917
143.075 50.3618 27.5779
92.5836 46.677 31.4583
145.878 63.1662 35.9626
120.613 67.3228 43.5603
95.2852 37.0521 25.9895
222.159 82.4958 48.2021
207.27 81.8917 46.3551
94.3083 53.3364 35.4515
128.476 59.8528 40.9146
126.598 69.5395 41.0903
178.619 60.3601 39.5143
171.071 76.2458 47.8735
79.5494 57.3172 38.345
153.143 51.9093 34.7439
135.844 51.7768 34.3505
147.906 74.218 52.0332
95.7955 50.4006 32.6905
93.9411 37.1853 20.8779
122.855 76.6314 54.2508
140.877 70.3948 42.652
113.61 66.3536 47.9187
230.119 99.1486 59.3921
127.301 60.5536 45.4879
147.175 62.9293 42.6047
105.594 47.3397 35.7511
150.439 85.8033 57.0645
113.527 36.3816 22.8694
128.627 82.9746 59.5403
89.1104 50.8036 36.6918
115.101 56.4582 36.9553
166.576 89.4621 57.1409
109.919 58.3521 47.2553
176.355 86.6412 61.3105
158.11 84.6708 48.7598
98.7441 75.1243 54.3963
129.835 78.9963 61.6074
84.2319 40.7493 31.9931
100.906 37.582 27.2384
115.791 66.5029 48.6517
135.566 70.2929 49.7043
105.779 66.9564 53.6909
141.952 68.4652 47.1253
87.6987 53.9901 37.0145
93.1954 49.5689 35.7178
120.472 67.548 56.8002
121.371 53.9623 35.5659
117.781 61.4664 43.0266
88.0207 57.8301 41.1917
96.3995 65.4191 53.1831
140.115 49.3702 36.8035
121.62 63.626 53.256
143.474 63.6888 54.7263
124.621 65.1991 42.6454
102.84 57.3111 42.9731
97.9014 51.6997 46.4947
116.364 48.206 35.3078
150.861 66.3925 56.0621
123.25 74.0564 56.3903
157.755 70.5907 58.768
122.17 50.5359 39.7055
129.292 84.8062 71.4633
167.443 71.5715 56.9664
88.5982 40.0216 29.3451
136.012 61.133 45.7445
103.026 75.3813 63.1833
119.559 54.5549 48.8487
121.341 55.6215 48.0559
124.572 57.6365 52.6643
118.438 58.6698 45.3063
129.553 69.5251 54.6175
138.229 56.1775 48.9953
128.439 65.091 48.1725
98.1835 37.192 31.4923
109.419 48.0009 44.22
98.3746 60.845 49.2886
110.862 49.5063 51.6803
140.606 56.8045 47.3743
128.588 63.809 51.7076
98.2065 46.5541 44.8785
114.198 64.6824 52.3382
151.109 67.3025 59.3476
109.328 35.5627 22.7925
107.47 45.4554 43.965
103.309 47.1377 41.8341
100.398 67.5426 55.0868
114.375 52.0205 54.7293
117.749 52.0189 47.4619
116.111 55.754 41.9376
103.207 42.8565 46.4741
85.1026 45.4051 45.5623
95.3737 39.5939 33.8522
123.587 81.1199 74.6471
130.514 61.7995 50.0192
177.312 88.1299 82.6777
124.856 62.8543 57.999
119.43 77.6873 81.5604
121.965 54.8952 45.8513
125.615 69.8284 74.6745
140.426 65.043 56.4763
80.5899 40.0292 37.5312
146.252 66.6392 51.6223
88.0232 69.7365 70.6402
116.256 64.5363 51.0103
139.537 83.47 71.7833
69.0371 58.4414 69.7785
94.3451 67.6849 70.5258
126.162 74.6546 66.7702
102.435 56.4243 52.3413
86.0424 46.5735 45.5006
127.511 91.66 82.4822
84.0385 77.5494 80.3618
87.0791 52.9297 52.901
76.8915 33.6425 38.3494
83.4352 57.0279 55.7719
68.2626 58.3134 63.4798
114.056 53.7361 44.6063
89.8602 63.4693 70.3514
119.816 49.125 44.7315
100.498 51.1891 49.3977
96.1551 50.7787 54.5668
121.744 65.4095 68.0434
94.5841 58.7156 59.0631
132.583 76.3057 73.6136
72.3385 65.5572 82.509
112.955 46.8961 47.9753
88.6363 45.1003 49.0135
130.996 54.8846 47.8925
89.6146 55.4286 57.8669
78.1708 66.1345 89.0592
85.0347 26.0799 25.1366
91.9459 54.9707 59.0126
65.8327 34.699 36.8991
77.1607 47.4991 42.7796
69.4517 38.8219 45.7702
106.447 64.8816 68.0414
68.4589 49.2687 45.8963
75.4686 50.9186 58.7077
84.9623 43.3378 52.9736
90.6755 40.3837 41.3015
85.9501 62.1261 76.0779
88.966 67.7915 77.8509
91.1756 53.8481 64.5482
103.371 67.5328 66.6593
84.1753 49.4404 52.3984
70.5399 50.1704 65.4275
109.665 68.3219 62.584
81.7428 63.9857 65.4982
71.1408 85.7162 102.97
81.2315 57.8567 64.7154
87.867 66.6475 76.3507
107.615 66.0795 79.9672
72.6738 58.8443 90.1266
145.575 71.2425 72.6688
86.5489 57.0249 56.8514
104.686 50.0199 50.4873
75.0403 45.5713 56.7739
77.5387 47.8939 58.818
86.4128 49.7105 56.5787
76.2248 41.8449 58.2408
82.1284 65.5622 69.9138
58.738 43.7703 50.1
82.7211 58.6397 73.0593
81.4316 50.4839 57.9139
80.9081 44.5373 48.1248
67.6331 63.4742 73.1346
89.0852 57.7618 71.6348
99.3325 61.3594 76.7247
68.2403 60.0905 79.266
61.64 37.6687 47.0817
84.6877 44.7714 52.739
97.6063 63.1059 71.7152
72.9172 39.6986 43.2109
81.6642 53.735 55.6818
61.0038 34.8967 62.5727
77.612 55.1548 61.3938
57.4224 61.5266 72.3524
79.8329 42.3573 49.9164
69.4936 44.5111 59.5686
74.0807 46.3732 53.1107
49.2159 43.6199 52.4731
76.3986 38.9754 52.2143
56.3639 42.2709 58.9137
92.603 50.7555 60.6878
61.3227 44.9752 60.4304
86.8259 47.5765 55.5128
78.4583 49.0169 68.0769
99.1651 71.1068 90.8856
58.471 49.54 73.27
99.0807 63.8227 59.7388
84.9873 58.3866 68.5897
58.6551 49.3907 66.5431
57.8113 41.625 46.7129
51.3818 30.8564 44.2749
82.4735 53.0546 84.3927
102.454 57.2901 69.1128
65.8834 65.1425 92.8906
66.2826 56.7896 85.1133
69.0697 42.4105 49.5676
73.6223 51.5984 60.5725
45.7977 37.0096 58.5223
72.5351 40.6836 46.3541
62.657 60.2573 76.0655
58.8821 40.972 54.7045
73.3588 46.593 66.1011
73.7127 37.9757 47.8285
60.3228 50.3804 70.1441
87.573 59.5833 78.9105
43.8224 56.2314 77.2696
65.0569 44.9072 70.0203
55.1104 43.9786 78.4586
62.5899 52.1366 58.3509
63.8308 41.609 57.9205
71.5236 52.3284 68.6778
59.3085 59.2991 74.8701
54.3611 38.7482 63.252
78.1111 50.1417 55.081
57.0351 58.1801 89.6222
74.4928 42.1822 52.6075
83.8833 60.2957 82.2571
46.0879 40.3773 47.7052
59.5278 32.5711 50.9753
56.203 46.1912 69.9911
76.2896 61.1421 83.8635
66.2557 59.6106 85.7098
48.2824 34.7537 50.0901
30.16 59.4619 100.045
64.0811 50.7998 63.8305
49.4523 48.5521 70.3496
71.1434 51.2029 79.5637
80.6536 58.0502 80.0298
81.1192 47.0003 65.1976
45.0207 76.8808 93.2576
50.5765 61.96 113.463
86.023 46.9138 64.4464
55.6093 27.0994 39.4887
39.8923 40.1549 53.0184
50.1251 32.4881 54.5883
79.595 52.4218 85.5114
52.2186 51.8814 76.8776
42.5257 36.8279 62.475
59.8088 43.196 66.8604
81.0467 48.5508 79.816
62.8599 55.6291 72.0348
47.0895 39.6833 69.3388
56.7561 60.2423 79.2053
59.5964 43.3545 64.524
61.6855 47.3354 68.5497
47.4895 48.8068 81.2279
57.979 64.3412 90.5166
72.7175 59.8723 105.807
57.0221 41.5322 60.5514
38.8777 26.1006 38.4821
51.0683 51.8343 84.4293
48.909 50.728 76.2657
50.4031 29.4286 50.0621
34.7245 31.9808 49.423
59.7109 44.3455 64.7092
54.6825 58.8493 110.815
71.2914 42.7884 54.0551
50.6555 45.0267 74.489
49.3804 63.486 112.26
69.8144 53.0717 79.3936
75.474 71.9422 123.942
51.1822 52.4475 72.4847
55.8976 26.9738 46.374
62.6181 46.0202 83.8064
58.5566 55.2201 87.1046
50.6724 30.3265 43.4894
59.0555 43.0298 59.4251
42.4413 44.3961 80.9543
63.7506 40.7572 60.247
51.5585 45.0928 80.4947
66.0643 41.9634 55.736
50.3763 31.3625 62.3637
53.7565 37.4368 65.8601
43.099 34.7228 56.1352
52.794 48.5261 86.9322
67.6004 61.2714 101.439
66.8129 61.8713 103.73
52.045 44.233 77.6683
56.8742 46.5096 86.7702
81.6925 75.6441 106.602
55.8067 51.8592 98.0224
57.5743 50.9895 96.5658
69.3928 48.5207 76.5753
69.6966 51.0646 73.6342
66.4282 39.5062 60.5995
59.2188 58.9673 104.763
61.2787 56.6915 103.51
54.5588 40.2898 56.8831
57.836 46.5204 85.1557
47.0449 35.141 64.6816
48.7675 23.5094 49.9866
53.8832 26.4972 43.2601
59.1339 49.0172 74.3547
46.2021 32.9464 58.1167
51.2234 28.1181 59.2403
50.9602 36.459 57.3022
59.02 32.6022 55.4158
47.7105 46.4995 83.6108
51.3849 41.3487 68.3036
64.7823 52.6909 90.3582
47.403 37.2889 62.6059
47.8542 42.5708 82.3291
80.246 53.805 86.111
55.16 40.2288 72.1867
68.9086 62.7548 116.757
53.7711 36.7482 57.8265
68.8454 47.5273 106.588
55.7213 32.6648 55.2627
64.717 36.0665 53.6783
56.5966 24.8247 49.3319
63.9282 43.6554 58.1059
44.6265 18.6417 46.4236
52.7047 52.994 95.4715
49.0775 46.3509 85.9823
68.7858 41.1842 67.366
60.1095 30.0373 60.8466
57.4101 43.1432 81.3013
58.9096 36.29 60.624
48.414 28.6649 67.2448
64.1417 48.7194 81.0824
54.497 25.7587 48.1982
47.6705 45.4286 91.5759
58.9671 32.1094 60.4554
61.2818 35.422 53.5521
39.4358 41.9962 69.4759
58.3967 40.8625 93.2936
59.3497 31.719 52.8312
55.28 39.8597 71.6384
46.6042 36.455 64.1837
35.3491 27.3389 53.8548
56.4208 35.0531 75.3435
66.8589 60.495 99.2975
44.9394 38.6143 101.358
70.7908 43.3026 81.0044
73.1914 53.7819 80.1271
44.8147 47.0442 97.7341
52.7704 42.8275 102.3
67.3852 54.7657 120.598
64.4075 64.3736 87.1655
51.2217 41.1725 72.6539
47.0316 37.3151 85.9184
45.6084 29.4925 59.9747
54.0428 55.9528 110.641
58.1973 44.9843 98.7989
47.4338 33.3734 71.1459
48.6699 39.3962 77.0281
58.9068 44.5452 83.6434
42.2435 40.8103 66.6548
38.4701 32.2545 78.0298
58.8136 47.0481 104.619
48.7481 55.3413 114.832
42.7891 35.0446 64.092
46.7086 28.0506 52.0581
41.5341 30.7152 80.4943
54.161 37.2904 79.6462
53.5302 37.2221 67.778
38.4067 35.428 72.2161
37.2189 41.7998 102.034
54.7667 45.1401 97.763
76.407 57.654 102.986
56.1778 48.84 89.625
54.9002 52.1992 94.506
43.6477 26.1403 78.7099
51.22 55.4722 92.033
35.9189 34.6155 68.9836
30.5238 21.398 38.0312
45.5803 38.1519 60.245
29.6014 35.8513 83.7304
34.9653 25.8354 56.9706
28.1422 25.0973 51.278
42.3783 51.0919 123.08
41.0905 31.0166 68.2691
40.5543 24.5557 56.4447
45.5887 35.6896 64.9058
44.9943 27.8833 48.9985
41.7206 44.5914 97.4024
37.5164 33.2742 81.7308
30.5292 39.3398 62.6092
40.6108 36.2826 78.5111
31.8163 42.9167 85.7689
35.2452 37.0444 87.26
35.873 25.0527 57.6037
45.95 32.944 57.312
31.9376 47.3533 113.316
36.7676 35.3738 70.2095
36.4511 24.8374 71.2341
41.2251 36.1645 67.5838
35.7792 52.6657 108.38
30.4934 46.0385 87.3809
28.5335 37.0278 75.3694
32.0298 24.1443 50.36
28.254 20.0071 65.5832
32.2568 39.1303 82.9014
32.8508 32.9161 63.4103
39.8637 46.135 91.7169
36.9049 26.3879 59.8217
27.0004 27.8511 76.8058
40.4624 27.4185 54.7051
33.0372 46.4516 93.1245
24.2713 21.1539 75.1213
34.1796 44.4109 79.4067
32.229 28.812 51.8319
26.8308 34.0937 66.6328
25.8849 31.3338 69.4417
30.3328 30.1111 75.9499
19.5767 35.7088 87.5654
31.1555 40.6397 94.9458
37.9314 43.7322 100.828
33.9082 30.2277 53.7945
24.5023 31.5898 91.4766
31.4515 42.1556 80.0917
24.9411 40.7995 84.1397
28.1625 24.2354 63.5552
25.6603 35.5492 81.502
26.2662 31.7129 66.6005
29.9986 37.558 104.005
25.0617 30.3652 61.0113
29.3995 34.2835 78.1854
30.133 32.5415 83.1891
30.4505 42.4669 79.9189
34.0605 23.4543 70.8242
32.7939 39.5212 78.9033
31.2662 28.271 65.5381
30.0366 24.4709 89.335
35.7845 36.3119 63.3781
29.886 36.1111 82.1348
19.8307 25.8344 86.4679
59.0175 48.2201 88.7742
29.777 22.456 66.856
27.5713 54.5249 104.653
37.7875 35.8668 74.0891
19.6584 29.3483 82.0875
35.3931 44.5114 103.537
31.3973 43.4202 94.6365
34.1855 38.4685 105.481
35.0723 39.8801 64.8673
18.8935 28.4578 61.4231
26.2454 32.1632 77.5896
28.6137 38.4064 101.369
27.4846 35.3614 84.5236
21.7783 35.9348 87.6368
30.4768 33.6187 93.6528
34.0188 50.15 110.905
27.7283 30.5871 71.9496
30.5893 34.771 86.9571
24.6106 36.6644 108.39
38.891 41.4391 99.9831
37.7361 52.8691 100.964
19.2684 29.7892 76.8636
29.1904 56.9798 126.866
29.3881 17.2404 39.1857
27.7703 32.864 63.0046
26.5085 49.4603 108.662
25.5111 29.3657 65.0243
26.5069 22.4467 51.4101
26.8607 31.2395 86.5476
26.3952 29.6286 88.2439
25.7408 28.0503 76.2679
28.1996 20.2109 43.7339
23.8349 48.0968 142.068
33.6013 39.8736 90.5423
34.1841 27.9012 57.6535
32.2149 22.7485 70.0174
36.3179 31.1622 74.1039
18.4687 29.0273 81.7399
29.3201 37.7302 98.6301
20.2808 30.4817 71.0086
