# pn-170911/CsIIA-39-TWTF-1280-1959.psd
# Power spectrum* (dif=0,1,2) (really just |FT|^2)
# NOTE: only the first half! (symmetric)
# weeks: 1280-1959
# 8 clock-days, 0 excluded
# PSD: 1441
73532.9 0.772132 0.021797
1.51349e+06 19.9441 0.0707406
1.08705e+07 234.504 0.0801306
1.34015e+06 45.7009 0.0627551
1.28891e+06 69.8567 0.08084
453484 39.3285 0.0679791
515629 64.0432 0.0679093
408376 82.4727 0.0890674
198185 65.2187 0.102425
134273 45.3028 0.0808541
208069 76.1981 0.146129
156920 89.4128 0.0883025
127464 76.9575 0.106959
107221 56.6402 0.11809
94099.7 77.0594 0.123792
106873 102.46 0.167052
39390.9 43.2873 0.113929
57826.9 71.5924 0.140296
57258.7 65.8689 0.116071
18505.6 30.964 0.0970269
72128.3 125.092 0.338244
33715 53.9106 0.252818
53694.7 112.492 0.278763
10482.6 23.1114 0.0844615
29646.4 65.0398 0.30146
23388.3 77.9272 0.243764
22091.1 57.4849 0.258794
27280.9 85.2398 0.424885
11743 41.8632 0.22766
11602.7 43.6671 0.195917
22772.7 82.9521 0.414555
7283.97 42.2062 0.207697
22487.9 88.3696 0.345383
10373.2 54.8707 0.340469
8476.22 50.2496 0.296531
18317.3 90.1424 0.650202
10409.3 43.4961 0.381183
7648.32 41.8839 0.352733
9884.88 47.7492 0.283992
11554.7 75.6757 0.672285
12770.4 72.7129 0.561684
5235.58 45.3966 0.474066
5429.49 33.2147 0.462006
5966.7 66.8277 0.589751
7304.42 54.7535 0.528192
9367.67 88.5697 1.14794
11476.1 85.6578 1.04703
10504.9 107.425 1.33664
6629.11 43.1088 0.510824
8311.48 77.593 0.966475
4200.16 49.9127 0.634932
6781.53 61.3007 1.04811
5504 57.5932 0.853625
9913.37 98.5442 1.52877
5972.5 76.076 1.14224
5789.92 72.7178 1.10271
5305.23 63.2875 0.942347
6826.18 92.0733 1.50647
4352.33 54.077 0.767737
3967.46 48.0564 0.892675
3029.32 40.3455 0.897109
3546.49 50.6123 0.818968
3784.62 38.0073 0.722795
6072.79 87.8132 1.64995
4203.83 55.3291 1.41048
2343.73 52.6849 1.25004
3692 67.2935 1.39274
2372.9 43.7132 0.791943
2340.59 35.1 0.825149
1895.76 39.6074 0.691435
2056.01 66.8597 1.56794
1488.97 44.5118 1.02935
2661.88 61.2319 1.62114
3131.39 61.1348 1.4491
2147.6 60.2476 1.62889
1895.16 53.9697 1.61075
2366.39 80.5637 2.17495
1428 36.5161 1.02781
1216.73 55.1437 1.77646
1382.15 43.6957 1.28957
1955.79 43.8037 1.52686
1813.3 59.1568 1.74076
1892.28 60.1103 2.06388
1755.64 59.6265 1.69657
2045.23 59.2006 2.07473
2373.63 61.7303 2.39517
2197.07 65.567 2.43507
1062.99 25.2013 1.0078
1853.29 49.9591 1.95895
870.549 28.036 0.898989
1660.7 52.325 2.07945
2051.42 78.4253 2.85261
1491.08 40.8094 2.01706
1038.01 41.2339 1.52409
2148.27 71.3461 3.0399
1715.18 56.7332 2.84933
948.938 44.8287 1.92274
1778.87 63.1898 3.26139
806.896 39.5575 1.93509
2019.29 82.0871 3.97198
1675.95 64.607 3.07219
1258.64 54.5486 2.18257
2291.76 91.2706 4.25562
641.72 29.3269 1.17978
1973.09 64.9388 3.26808
1546.83 100.645 5.0972
1093.61 61.7423 2.93186
1140.32 44.7544 2.13643
1347.56 64.9664 3.70226
1223.67 55.2523 2.77142
1036.97 44.7383 3.1659
1716.41 85.6435 5.11755
1476.21 91.5073 5.12142
665.07 53.2875 4.04776
1795.6 91.6636 5.5649
642.415 39.737 2.95433
748.339 37.6229 2.05277
1103.85 73.3561 4.57857
917.019 51.6511 3.66097
874.548 64.4513 4.92553
693.89 54.4211 3.38584
714.165 47.8986 3.64875
429.679 19.8441 1.72288
778.81 39.6419 2.77438
1044.06 56.6639 3.75789
982.902 52.6406 3.85773
316.032 25.5194 2.28324
1088.99 84.6937 6.52455
543.372 41.6686 3.23584
954.754 61.0134 4.62505
702.379 60.4417 5.44207
642.777 52.4299 4.45175
561.666 44.1605 3.39134
567.442 39.153 3.85401
407.481 30.4029 2.92255
1195.82 85.4822 7.21095
776.827 70.422 5.83756
1373.65 112.707 9.09725
194.952 17.4563 1.89727
937.389 67.002 5.67297
807.547 65.4754 5.94354
551.603 67.1627 6.45866
390.989 37.2628 3.84933
654.277 51.7682 4.47247
652.236 51.5703 4.80877
1031.81 92.8163 9.6377
259.424 36.3135 4.08057
1009.23 63.698 6.50417
327.026 26.7341 3.05599
1138.72 91.7143 9.88528
454.856 41.1826 4.92923
594.445 63.2288 7.35412
987.862 80.8716 8.33595
579.806 60.3695 6.56304
267.06 29.2059 3.48932
433.285 40.7305 4.83994
405.134 39.9671 4.56734
725.523 47.8544 4.87138
378.48 32.2728 3.57715
490.202 49.4964 6.06016
518.612 43.4802 6.12489
510.32 37.684 4.42109
895.48 103.403 12.7435
665.559 60.5552 7.09205
258.525 35.0505 4.95033
393.098 56.7336 7.68174
396.468 42.5932 5.66632
306.612 33.7157 3.87664
474.699 52.1911 6.37658
281.183 32.9606 4.29401
287.87 43.5242 5.48319
354.66 37.1702 5.04076
407.877 43.4051 6.44711
340.252 38.318 5.1933
474.874 47.9258 6.50039
561.45 61.5465 9.66954
356.214 51.9699 6.83464
344.164 46.4902 7.03076
298.199 35.5707 5.10866
259.096 50.8018 7.93833
429.065 67.3522 10.4636
96.2605 26.9015 4.5746
489.953 56.8833 9.2408
581.373 74.8726 10.5577
380.919 43.2289 6.92895
465.715 62.9152 9.85117
354.234 43.575 6.85009
402.2 65.8461 12.4734
335.689 72.2037 11.5219
300.473 45.3787 7.73926
392.645 47.5267 7.29641
193.749 17.0092 2.44793
398.445 55.0423 10.6148
418.327 57.7741 9.31874
210.024 48.1302 9.21941
402.591 46.155 8.92051
137.37 22.2156 3.6317
257.005 41.2017 7.66531
369.671 59.2623 11.0537
634.047 84.1311 15.4215
295.501 63.769 13.3431
231.946 40.1042 6.25937
212.443 48.9016 10.1901
330.704 43.2874 7.86016
155.518 39.517 7.37409
348.525 62.9585 13.7049
302.805 34.8471 5.38776
322.611 67.4225 13.9974
206.528 40.6687 9.30855
381.532 61.659 12.2449
343.414 52.9893 10.718
461.178 75.3956 14.9043
242.259 52.0647 12.1237
228.169 44.4077 10.1625
358.091 65.4808 14.2522
157.186 31.2163 7.80962
286.321 47.9934 10.5554
256.225 37.7912 8.66394
153.326 33.9105 6.77608
145.904 27.4762 6.19892
183.259 47.3329 12.0028
431.152 71.0366 14.4553
420.996 72.7908 15.8887
174.914 42.4652 10.0134
252.107 38.277 8.88889
441.501 60.1187 13.0693
155.527 22.4703 5.72434
372.833 68.5189 17.2665
366.368 75.5022 16.6315
223.844 38.0175 8.6743
157.237 28.6957 7.35853
210.432 27.6087 5.61814
269.329 42.0849 9.22565
208.237 40.9659 11.734
192.728 42.0314 9.51025
144.442 36.4618 9.96485
281.87 52.5171 12.273
364.519 80.6992 20.5274
142.925 41.9983 10.9855
244.253 48.1598 15.0822
191.701 45.6619 10.6399
147.2 55.1209 16.4955
359.277 69.4137 16.2845
263.312 74.2054 18.9862
139.996 52.5545 17.0927
283.747 46.8096 12.4074
190.574 50.9648 14.2801
244.387 55.1977 16.0991
265.953 65.3648 18.2377
183.013 35.6863 10.5827
213.781 56.2621 17.9816
151.067 32.6739 8.49507
93.049 29.0862 8.26343
157.924 55.9959 17.3484
195.434 55.3591 17.2488
236.234 45.2423 12.2237
187.969 48.1235 15.7414
280.886 61.68 18.39
263.624 53.933 15.9357
156.876 40.728 12.3862
161.023 37.5506 12.4599
174.525 38.4734 10.3953
180.172 53.433 18.3683
197.065 44.7357 15.5511
200.413 48.7136 17.8853
264.162 91.3367 27.5659
65.6115 18.3709 6.53388
135.889 34.9038 10.2147
70.1054 35.3192 13.4422
159.204 41.528 12.8932
140.146 31.3031 11.3137
245.629 66.703 21.4632
61.8801 17.7112 5.83148
101.081 28.4703 10.5424
154.097 41.5256 13.7383
54.8864 18.3648 6.1003
164.127 39.7885 15.5353
83.5304 17.2358 5.19163
122.918 36.9387 15.1037
146.719 40.0492 12.8531
198.735 77.4485 27.2587
159.499 46.3707 17.5667
130.96 28.2247 10.3252
166.379 48.9329 17.8441
78.1935 31.1093 12.5519
186.065 43.5951 17.6412
91.8857 30.9421 9.37466
132.838 43.5605 16.4159
143.437 38.303 15.5773
206.517 81.454 28.0215
46.8382 29.1876 15.0813
147.382 40.3627 15.6927
232.214 50.3278 16.9666
175.983 48.9772 19.3879
168.8 53.5261 22.1681
151.537 37.1922 14.3643
123.802 39.3014 15.5049
92.4557 43.4195 16.4494
109.244 42.2333 17.7575
130.243 47.0228 17.553
99.0622 34.8578 15.5688
119.428 41.8286 16.6977
48.9593 13.8989 6.52042
107.143 26.698 10.7627
108.242 37.181 15.5542
220.195 92.3291 42.7384
106.632 32.2509 10.7942
107.66 37.9173 16.7826
102.62 45.0179 20.6635
95.5316 32.9565 15.6779
67.4852 32.702 16.1634
77.1576 26.6004 12.0828
107.97 39.66 14.9858
124.324 45.1872 20.7929
56.0862 21.9751 11.7439
127.146 55.4614 24.7916
85.4805 22.5639 8.21464
73.7735 25.9898 11.4094
96.8777 55.3891 29.8584
280.286 103.004 44.0754
113.441 49.8257 24.5289
84.5566 34.1389 17.0945
112.59 35.9266 13.2642
99.8162 51.8033 27.7786
145.479 57.236 26.1355
81.7545 34.0737 17.9572
148.41 53.7474 21.7121
74.9779 50.8948 27.6222
121.743 40.1487 21.1742
133.495 47.6053 23.0032
118.315 44.9781 24.3142
77.8095 29.0664 13.9445
125.782 39.6593 20.9186
134.644 49.7174 22.8253
103.451 63.2302 34.4033
87.1724 17.2312 7.60811
104.006 38.547 18.4194
112.159 35.0997 18.1233
71.3783 23.6406 11.957
140.42 41.3894 21.1645
51.0896 17.4336 12.3319
51.395 27.8385 16.6989
89.7255 33.1389 17.4478
49.878 22.0771 10.3875
101.207 53.3692 25.6021
96.2216 32.9462 18.4457
59.3015 20.3057 9.5231
81.6843 47.7764 32.9627
99.8159 42.3217 23.3004
101.105 46.6723 22.8533
57.1427 30.093 17.9496
64.36 35.2304 19.1754
153.138 60.9605 33.1417
55.9767 13.9896 11.2534
159.374 73.8237 33.5412
60.1053 24.1 14.8603
71.9712 30.7528 20.7711
103.325 60.4636 33.5094
48.6244 29.5021 19.7792
96.0268 30.7215 14.8414
72.5222 25.7201 12.7029
44.7114 15.8169 8.15076
117.705 56.6339 29.8593
77.7149 59.394 34.6674
87.0508 47.0188 30.67
56.188 33.8515 21.1817
140.081 62.6262 32.7689
57.5558 42.3103 29.3425
122.493 59.0132 36.196
59.6084 34.2415 21.202
82.9909 39.7899 26.8375
103.225 72.7887 47.4652
86.8461 29.5343 17.226
100.172 54.2714 37.7961
98.6175 41.0634 21.0139
58.7018 24.7034 18.4434
78.3519 29.3023 14.1853
84.072 39.3711 30.9685
68.5602 35.6496 21.836
38.2792 22.0866 12.2829
27.9118 20.7772 14.8447
74.8005 46.545 35.0295
64.134 30.2217 15.695
88.5087 65.0984 40.3623
52.6232 31.4812 21.1305
45.6203 10.6954 9.18194
107.234 50.1449 33.0241
59.4456 31.9514 26.0717
57.9772 24.2486 12.8007
37.6307 21.6593 14.9238
68.4007 43.8999 32.0521
83.8825 51.5167 34.5981
39.3635 33.76 25.5894
72.9049 37.729 27.519
89.6883 44.8375 30.5403
60.1107 34.5898 23.1501
48.9161 33.256 24.7917
51.8841 44.0487 36.6782
80.1581 25.0779 14.4632
76.4531 40.5458 29.2141
90.0183 50.2382 31.7465
62.156 23.8791 14.5511
97.9677 41.8547 25.2054
40.5912 20.8286 12.9367
104.396 63.0216 44.8124
51.9395 38.4364 29.8959
55.5097 26.6426 23.7003
68.1823 40.5545 26.3585
44.5047 37.5277 34.6987
65.6162 45.1913 32.1529
90.7791 45.0675 32.0352
65.8742 38.4561 30.1304
74.1312 29.9725 19.5126
76.2682 40.8553 30.4275
46.7061 33.0395 26.9607
42.921 29.3903 19.7492
31.5877 25.1225 25.3403
71.9758 44.9525 26.6311
76.165 42.9207 29.9394
57.5997 58.2712 50.0973
54.1614 52.0048 37.0564
50.2045 44.0522 43.6955
45.0106 20.7336 13.861
78.0116 55.407 39.9764
40.1115 32.4512 25.0641
61.5622 42.1857 36.1098
57.5896 22.3675 16.5789
22.9861 26.1547 19.0117
52.6668 28.7622 25.1357
83.9278 49.5478 32.8118
29.5374 22.5208 18.8775
25.1532 24.3875 21.0529
24.4161 31.9982 35.5171
57.8696 20.3556 12.7882
38.825 20.1091 15.3314
52.7453 41.6262 37.2171
42.3097 27.0865 21.573
50.0947 30.1632 22.7886
46.2986 22.7657 19.5661
42.6579 31.6669 27.7026
42.4764 27.4778 23.5854
75.2273 43.9088 33.0821
72.0163 43.2483 39.1817
37.2548 26.7698 25.6155
46.8438 21.652 23.3994
69.4274 48.2331 35.3297
20.6822 13.8556 13.9104
16.5466 17.3471 22.0976
67.2342 41.1687 30.9056
32.183 26.2579 27.476
38.2635 30.6362 23.6074
41.9139 22.4646 22.0344
79.5152 43.6317 38.1035
38.6495 23.946 18.7054
35.2566 29.4919 26.5907
83 58.752 55.1404
44.9721 29.3686 27.7945
63.1077 45.4646 32.1593
18.6104 14.6928 18.3976
46.5997 26.7235 28.9034
89.142 80.9342 69.0685
52.4345 28.2841 23.2853
31.3508 17.0266 17.8087
63.1613 32.3883 27.4077
33.4024 27.1528 25.7545
18.3759 12.3339 15.5118
46.5503 51.893 56.1651
57.3166 33.9012 34.7461
56.7496 36.0044 30.3552
56.3628 35.5406 27.572
37.0794 23.3002 24.0069
29.6216 18.3547 17.6681
26.6798 20.7081 17.8286
42.5024 25.4878 25.0732
31.3588 30.0365 32.6843
38.245 22.668 19.7735
27.4625 14.87 19.5549
45.7486 35.5927 32.704
27.9432 16.4319 12.0472
40.2209 31.8492 31.3955
39.6875 32.7509 29.6794
31.7487 32.4161 33.3702
56.5644 41.6966 38.7414
38.2578 36.3433 40.43
20.6334 9.58709 14.3903
57.5051 48.9272 52.3569
51.5132 47.6118 43.6954
41.4118 25.3516 26.9678
48.2767 32.1598 24.7956
35.1289 38.0553 40.3
17.6727 14.6724 22.6595
29.928 24.2533 21.3332
33.8444 24.5346 27.8896
46.6284 40.7776 37.2617
10.8447 19.4122 23.7881
36.5016 29.9472 30.359
40.0205 41.7654 56.8197
60.3522 33.7336 23.8655
22.0717 18.301 17.3254
25.9067 14.6619 13.8965
61.128 45.2037 43.2396
21.1565 25.5061 36.2874
67.6317 71.6497 85.1836
35.5619 28.4418 33.1124
41.0685 34.0069 44.3775
30.3833 32.4547 32.1598
41.7896 32.3332 26.8979
24.9171 25.5926 30.6117
26.4974 14.5103 20.3028
39.6214 26.8832 35.7462
31.2017 38.8688 40.6614
40.291 38.6105 33.2067
15.9342 20.4246 30.8784
40.2535 25.5662 22.5116
21.406 29.0893 42.4424
36.3828 32.6064 30.6629
28.0083 25.8123 21.7202
22.0805 17.5372 23.9694
26.9826 18.1803 14.6137
28.0696 38.1914 47.2723
31.5792 27.0868 29.351
29.7244 39.1586 52.7478
62.3845 66.9019 82.1818
38.6781 19.8709 18.4294
15.1096 14.5153 24.6671
38.1481 26.2007 19.8231
29.2532 29.1649 40.4659
32.2948 24.5459 25.2055
25.329 13.9305 18.9713
49.4203 50.6233 58.7387
28.0361 20.8142 27.7902
38.102 49.8582 58.0044
33.6717 22.7587 21.0863
23.0083 22.6682 33.7157
24.0207 16.8379 21.3748
24.0724 22.2895 27.2038
26.6308 22.0685 27.6182
35.6057 47.8118 53.0905
29.1054 23.5092 33.8417
39.2742 17.9694 18.8645
45.4832 38.2505 45.2465
42.1833 40.2393 45.509
21.7039 25.0628 37.5932
14.9485 13.0902 17.5102
21.5923 31.8813 36.2328
16.3556 10.9369 15.7419
23.8567 21.9913 23.7517
30.8133 30.5179 38.6588
33.0616 30.5115 35.249
34.2419 51.4002 73.2809
33.718 25.4187 30.3523
28.2837 27.2787 39.7863
55.679 47.901 59.4764
20.2375 29.7872 35.847
22.632 16.8917 24.4516
23.8243 17.9344 19.6718
27.0979 31.4942 40.6606
27.2065 20.0259 23.1589
18.8221 20.7873 31.2574
23.0035 22.2214 25.4634
13.2734 13.7608 16.927
28.139 26.7132 28.789
18.0697 27.8114 49.2607
31.6473 34.3712 52.3921
47.7609 35.9004 34.871
21.9318 30.4052 40.8847
19.9308 19.9429 23.1351
16.6557 12.3411 17.4468
37.8667 44.7802 66.8347
31.041 27.9402 57.1876
41.623 45.4767 42.3457
39.2028 40.3925 59.3519
30.0639 25.2558 31.6642
31.8761 28.4031 38.0826
33.2254 29.9402 32.0814
26.0839 16.5643 24.1135
24.3624 32.0702 43.8989
20.9916 17.9904 22.5397
34.0544 30.6489 37.0923
21.8458 24.1287 38.0923
14.4465 26.1837 33.2993
22.0722 33.2156 44.9178
26.5589 42.2487 80.0777
38.5224 35.4179 39.0225
12.9786 18.3346 27.563
11.8004 21.5805 39.347
23.6278 23.2627 32.3131
19.2314 19.3022 25.8972
31.6433 27.0506 36.069
12.6693 14.759 23.2679
16.8012 15.0558 19.5729
13.9672 10.4035 11.9715
17.9529 23.4159 39.5144
25.491 32.81 56.8582
25.0913 19.0161 23.5114
21.9492 19.05 21.5055
19.5374 25.2085 46.2203
33.1133 34.4288 63.9588
54.9722 51.0736 49.8058
19.3144 15.2221 25.5128
15.1019 19.1463 20.9568
23.9893 31.995 38.6389
11.2725 18.6673 37.6056
16.1902 17.5926 37.5954
24.9251 31.5864 31.6621
13.731 25.6202 44.2418
21.0092 31.1315 53.8369
21.9666 21.6946 36.3309
30.5092 34.376 44.4245
25.026 25.5383 40.5554
20.7668 35.8443 59.8449
40.8085 34.8587 44.7603
9.86315 13.4914 26.0935
26.9153 19.7093 32.8583
15.9532 40.9943 63.7844
28.4824 28.44 35.9395
29.0335 27.4048 44.3803
9.45495 10.4257 18.5167
9.94126 13.9418 28.078
18.8082 18.0936 25.4701
22.3315 30.1568 39.9223
25.4498 32.7051 56.7746
21.2367 17.533 23.1502
20.5064 27.195 47.2102
34.6425 35.6136 58.0516
23.415 23.6344 28.6438
12.2229 16.4566 33.164
4.22897 6.20119 23.0836
24.3589 23.2563 27.9415
16.8759 14.2035 17.8614
26.2367 30.5677 49.901
12.7513 15.7985 31.0838
23.506 25.1928 37.6031
16.3626 11.2944 16.7395
30.5836 26.4809 36.2524
12.8782 18.5075 38.2353
20.9099 26.0518 42.6173
14.09 20.2654 23.5554
12.881 25.216 47.9389
39.2442 46.8825 71.5592
12.0656 19.0363 42.2408
19.4965 28.3044 47.9904
19.8185 12.4946 17.6003
13.2591 8.4736 12.4167
11.6952 9.57474 15.581
14.5028 27.8764 57.3248
24.7063 20.2683 26.6822
23.2716 35.3402 57.094
13.6113 17.1004 39.4338
8.38778 15.8541 42.6351
29.1186 37.3133 45.3937
17.6726 22.9912 43.2117
20.8767 20.4145 26.1511
16.5377 19.5303 25.6491
11.9282 21.5493 39.6502
18.8582 15.2301 27.8443
10.7851 20.4413 45.3573
24.0006 26.2248 35.0279
12.5943 7.46083 13.9259
15.2956 16.5655 23.0531
7.24981 14.2791 36.6475
21.2913 20.9767 22.106
13.3869 15.3373 39.1688
24.5745 43.4878 78.0455
23.966 20.3661 18.6215
14.022 25.5638 43.8871
18.68 14.5787 21.1168
15.9091 21.643 43.2749
24.1452 37.5411 65.0391
27.2605 36.2251 56.1027
12.0693 17.8536 37.5204
16.6973 21.5433 36.7141
10.3353 20.9984 43.1919
16.53 15.4449 27.7121
24.6514 41.0701 63.9448
9.79021 16.2179 53.3673
24.1682 27.7282 40.1795
18.0372 23.2822 30.6329
17.5893 16.7517 29.3202
24.7152 45.6566 90.9104
12.2907 14.9147 41.4808
24.9777 25.6047 30.6125
15.1162 16.2108 30.4932
14.1866 9.39604 17.6549
14.1185 20.8788 41.8447
16.184 20.8104 26.3103
19.4558 28.3117 64.0951
23.234 27.4337 58.3292
10.0696 15.7789 20.2959
8.6861 20.7516 36.0148
22.2158 20.0847 36.9556
17.3851 27.6519 53.2288
20.8046 19.0883 34.7056
17.3573 28.208 46.9286
10.7453 12.4075 36.694
21.3601 23.6673 36.0182
13.7378 20.2125 31.6059
9.70824 23.3881 65.3792
18.9329 17.7555 33.0602
9.10295 17.9055 57.2069
23.8305 26.2481 31.5748
17.4709 23.8432 27.5368
7.44233 10.9671 20.0327
14.1667 14.8254 35.2533
15.3031 30.4597 62.0183
24.3674 24.9915 33.4818
15.6712 21.5141 43.8749
22.9288 37.9976 61.6153
5.14919 22.4298 70.04
22.726 25.9867 36.1047
11.0421 9.30885 14.5888
8.23478 10.2483 39.5395
23.8608 25.5473 29.1026
23.0953 35.7105 60.081
8.07373 15.8579 41.739
15.8046 18.2645 38.8853
8.52062 12.5574 22.0092
5.91834 9.94258 33.2919
13.632 21.8102 50.8035
28.0549 39.2748 49.0792
16.9946 29.9141 66.4955
10.5881 12.8799 45.2868
24.1429 15.5059 22.2684
14.82 28.769 46.5106
6.86668 7.06679 25.0885
18.623 25.2621 57.7718
21.4824 37.3774 63.3497
15.457 22.5106 52.4304
13.0617 17.2976 48.0006
14.0183 14.989 29.1449
18.8707 20.53 31.4668
7.89514 18.3603 58.027
21.2173 24.0598 28.9614
20.3059 39.053 72.8238
12.1648 15.7893 44.9704
22.247 40.6606 87.9489
14.7805 17.6123 36.534
14.3448 27.0597 46.5289
7.9384 14.6611 32.7424
13.8893 16.4476 26.1302
14.1854 26.9432 60.1152
8.78569 13.5602 19.6253
7.37587 8.13574 24.8372
12.074 14.4574 27.2145
8.02329 10.5138 11.0935
5.93787 14.5456 37.7995
13.2401 17.5751 47.3032
8.23437 10.0507 20.6384
11.5503 15.0497 31.5871
8.75393 17.1863 41.4068
14.4932 9.69318 24.1358
20.6512 40.371 85.2172
14.8236 18.6759 30.3891
19.2852 55.8293 121.432
17.5984 14.4002 21.1917
7.76903 21.6186 49.5646
17.4388 15.0322 24.6805
11.1289 12.4715 36.59
8.31093 18.7132 48.9262
17.1523 22.9257 50.2871
16.3359 17.8024 35.6913
11.3764 23.6905 45.9692
10.2248 8.42244 18.1612
8.97756 14.2891 29.9593
8.66645 8.44727 19.0228
13.603 25.3066 55.2035
13.1623 12.6398 34.5592
12.7076 19.8378 31.2837
11.6687 9.17107 24.5172
8.22398 7.98286 24.9656
12.3458 20.7951 38.0105
12.1943 16.106 39.6085
19.4354 19.4189 30.6503
7.33501 7.56155 30.2867
17.7348 18.364 29.2567
9.9451 15.4759 31.432
8.69318 21.9915 62.329
16.5484 23.5467 52.3807
10.5307 21.5783 38.6722
6.65111 10.0736 44.1786
10.4723 15.4949 36.3349
14.086 25.0379 55.3426
11.8342 35.811 72.0714
13.5108 22.4925 33.3932
9.40666 26.8736 65.7541
13.2221 25.3727 52.5162
11.1107 16.2701 55.6414
18.3307 22.7695 31.4229
7.28663 12.6478 43.5369
12.7522 13.6674 26.2187
10.5373 9.29214 19.2547
10.8475 14.5733 31.1554
10.1565 17.1366 31.9519
8.08067 10.5012 32.0284
13.3898 17.2592 35.6018
7.50264 9.21957 24.566
10.8288 16.3655 32.1231
6.96144 5.82941 23.5391
5.46178 10.269 28.9246
12.1775 25.9992 45.8493
6.93146 11.7795 35.9397
10.2969 14.7955 32.1567
13.7623 19.5371 32.8215
10.3751 17.8844 54.3288
9.50325 15.3289 46.2038
13.0291 26.9415 51.1562
8.80162 13.1664 38.6574
15.5305 10.1862 22.5874
10.1118 11.4983 19.5407
7.3003 11.3669 28.6291
11.6678 17.1451 55.767
12.1069 21.8145 52.0026
13.841 25.3012 54.4403
10.2996 8.77945 19.4348
8.2979 8.68908 21.3748
14.5097 20.7128 44.9822
7.64265 17.0804 53.3746
13.1262 27.1034 42.9282
6.28253 8.72426 28.7665
4.14033 5.6271 17.3969
7.66891 9.83306 35.7313
10.318 20.6966 40.4379
8.1165 6.95738 23.4509
12.5005 12.9368 30.9935
4.5681 8.01574 21.2248
12.0871 29.1622 61.9532
11.262 14.358 28.4062
5.30349 11.6749 38.9231
8.91845 13.4264 36.489
7.7161 13.4501 41.4411
11.8909 15.691 43.0448
7.83807 7.38469 18.0887
7.84956 13.6908 35.6869
