# pn-170911/CsIIF-65-CsIIA-1280-1959.psd
# Power spectrum* (dif=0,1,2) (really just |FT|^2)
# NOTE: only the first half! (symmetric)
# weeks: 1280-1959
# 735 clock-days, 403 excluded
# PSD: 1441
31818.4 0.97826 0.0768233
2.11839e+06 41.1932 0.172103
9.06e+06 179.048 0.138218
2.35213e+06 91.387 0.129397
2.25532e+06 152.363 0.158666
807277 82.2079 0.140016
593336 87.7792 0.165985
434792 90.1603 0.165518
333653 83.4399 0.159439
284049 92.0381 0.176079
201169 77.4147 0.166171
179908 83.8012 0.176552
149915 87.4169 0.224144
119193 81.8524 0.205916
115695 91.5362 0.237686
92006.6 83.3789 0.230983
83687.6 87.4878 0.274183
71422.4 80.8823 0.279921
65035.1 81.8256 0.2697
63654.5 89.4384 0.307548
49911.2 82.4923 0.315363
48626.2 80.3351 0.303974
44698.4 81.9558 0.334978
40597.4 79.5298 0.364206
37681.3 82.6028 0.361082
33968.2 82.6203 0.410337
31844.1 83.678 0.406632
29431.6 80.14 0.394463
29054.3 85.8426 0.483719
26581 86.247 0.477189
23207.5 79.6112 0.509869
22041.6 79.0486 0.524453
20873.8 84.0008 0.557571
20323.2 85.8677 0.591396
19549.1 84.4882 0.598664
17794.2 83.1039 0.597604
16601.4 80.6005 0.654226
15313.5 80.3446 0.651046
14943.4 81.8414 0.730984
14600.1 84.4233 0.755297
13526 83.0456 0.762432
12816.7 80.9032 0.791911
13146 86.1813 0.889852
11331.6 81.5094 0.824728
10918.2 78.7955 0.824388
11212.6 85.1389 0.960842
10631.4 84.9094 1.01242
10174.9 86.1598 1.00986
9497.8 81.6176 1.01352
9076.46 81.3327 1.10285
8546.78 77.9574 1.10978
8348.08 79.9093 1.1152
7857.66 79.679 1.14653
8177 82.7172 1.22891
7450.96 84.226 1.31413
7314.27 83.5288 1.41087
6880.15 81.5214 1.37899
7054.8 82.6197 1.41723
6738.36 85.009 1.48351
6211.68 80.9325 1.50404
6263.22 82.7071 1.52089
6136.06 84.27 1.64036
6081.59 82.5215 1.64622
6011.95 82.2017 1.67371
5623.91 84.6315 1.7886
5405.65 81.5375 1.77956
5341.97 86.1436 1.92322
5175 82.1629 1.85315
5136.83 84.4913 1.98579
4566.19 78.8931 1.88173
4791.56 83.2287 2.10323
4562.56 85.9033 2.19412
4471.89 75.4825 1.9917
4122.7 81.2339 2.21061
4342.64 83.5078 2.30312
3776.39 77.2542 2.14233
4020.72 81.7548 2.31857
3701.17 83.9653 2.45076
3826.09 81.6866 2.49516
3492.83 79.3931 2.46212
3521.8 79.9519 2.50787
3315.47 82.3306 2.75139
3281.14 79.8588 2.67566
3176.5 84.0875 2.88427
3086.66 78.6849 2.78727
3038.42 77.8969 2.79652
3175.44 86.9226 3.19584
3117.31 84.532 3.14043
2729.88 79.2594 3.03671
3057.08 86.6062 3.38038
2731.45 82.4398 3.2752
2781.7 85.0545 3.44221
2719.55 83.6666 3.50648
2553.56 77.6707 3.29902
2427.96 81.4631 3.5642
2400.28 79.1348 3.55684
2255.43 77.8142 3.44657
2407.99 83.562 3.82334
2250.92 78.9017 3.70279
2095.5 77.0042 3.65786
2087.66 82.3771 4.02228
2041.84 79.5036 3.91754
2102.06 84.3095 4.28093
2084.7 81.8592 4.22211
2100.86 81.1974 4.19796
1965.23 80.863 4.33991
2068.7 86.6545 4.676
1958.72 81.5474 4.50258
1766.67 78.3495 4.41883
1790.84 79.7574 4.62516
1748.51 80.4393 4.69592
1833.39 84.0338 4.99449
1654.01 75.3333 4.58581
1847.87 84.4653 5.2042
1590.9 79.4013 4.90147
1620.58 77.5625 4.9219
1525.32 76.6751 4.92084
1511.81 75.0715 4.94615
1525.12 81.13 5.42035
1463.87 78.8319 5.3569
1477.41 80.1757 5.47994
1505.63 80.3381 5.63037
1407.7 78.7378 5.61611
1477.1 83.9463 5.9771
1330.63 75.5866 5.60796
1391.77 80.5459 6.08796
1361.02 76.7524 5.79112
1220.14 72.5956 5.6257
1377.03 84.8456 6.64055
1263.91 77.258 6.06951
1194.68 73.4637 5.95945
1242.87 79.5482 6.50942
1225.92 80.9694 6.66859
1246.3 75.9724 6.44335
1214.9 79.4013 6.75519
1163.31 76.308 6.68109
1119.42 73.8561 6.59042
1013.5 70.3472 6.23817
1116.94 79.6053 7.1625
1092.37 75.6735 6.89174
1036.82 76.3976 7.04396
1110.85 82.5541 7.76656
1115.12 82.5404 7.81217
1016.3 78.9148 7.59988
1045.03 79.5682 7.78316
965.405 76.2162 7.68712
947.19 71.9405 7.34599
1022.59 82.1251 8.38204
1006.11 80.7573 8.26291
907.586 75.1129 7.92568
951.019 75.4528 7.96467
892.069 76.399 8.22088
928.54 77.4575 8.4813
909.317 77.9609 8.48254
918.209 73.8423 8.31712
837.57 76.0332 8.62307
813.47 73.7738 8.4193
866.712 75.106 8.7506
877.906 73.427 8.65146
841.735 77.0933 9.31569
793.341 76.5959 9.31205
830.231 78.5543 9.49242
846.901 78.9216 9.71116
742.305 75.2847 9.52572
768.331 71.9862 9.17051
783.64 75.4775 9.69458
740.224 74.5386 9.80705
727.432 74.1836 9.70442
725.003 77.0456 10.1892
687.757 72.8822 9.9893
746.951 76.3626 10.3888
748.799 76.4392 10.3397
706.175 75.0459 10.4821
693.863 77.0187 10.8368
680.595 70.0634 9.91312
704.79 73.626 10.5546
662.895 71.8735 10.4115
684.745 78.4115 11.5865
645.029 71.363 10.5873
613.467 69.2382 10.3429
621.15 71.8935 10.9845
648.378 74.5458 11.5758
638.781 71.362 11.1321
620.213 75.0511 11.7751
624.334 75.0265 11.8557
622.905 78.1036 12.4424
614.876 73.6396 12.0769
639.107 79.5933 12.8448
596.98 73.544 12.2383
601.314 74.2625 12.4693
574.859 72.2576 12.1599
558.215 71.1954 12.1546
565.633 76.5937 12.9574
527.572 66.1748 11.5862
570.607 74.6299 12.9705
613.494 80.168 14.1911
534.923 72.9388 12.8767
540.083 72.3408 13.1437
529.458 69.8351 12.8176
551.186 71.1685 13.2183
531.213 71.6785 13.448
537.062 71.8496 13.5197
504.347 71.7342 13.5463
544.678 79.4768 15.3738
517.633 71.8344 13.8204
484.868 69.9704 13.7841
542.611 76.6346 15.0191
482.13 73.51 14.8507
511.062 74.0555 15.1028
468.305 70.5003 14.0841
523.44 72.4016 15.0342
451.955 70.3541 14.617
525.42 71.0339 14.9234
451.725 69.3332 14.7037
502.142 70.0388 14.8676
458.871 69.0669 14.9025
481.374 71.0215 15.4867
428.01 69.1999 15.2831
473.067 74.4734 16.5448
417.949 67.3316 15.0637
461.259 71.368 15.7794
461.637 72.1877 16.3776
445.545 75.8747 17.4058
470.406 72.774 16.7438
411.204 71.6291 16.658
439.201 69.1242 16.2668
426.56 70.8729 16.7436
418.922 68.794 16.632
406.169 69.0289 16.6324
440.005 71.7254 17.27
407.427 67.2445 16.8509
433.219 70.1448 17.2409
418.059 74.7359 18.508
383.295 72.9085 18.4424
389.985 69.982 18.1204
397.805 67.6431 17.2354
379.102 64.403 16.7562
364.675 65.148 17.1166
393.889 71.2761 18.5808
370.569 70.4457 18.7944
363.865 70.0236 19.088
367.425 67.9594 17.9679
361.296 68.1628 18.5924
395.579 73.8597 20.3667
352.258 67.7817 18.6534
337.262 66.6479 18.5878
337.98 67.1379 18.8757
327.212 69.8046 19.7282
325.382 65.0921 18.5896
339.477 65.4433 18.6565
307.295 61.1401 17.6235
320.248 65.723 19.1855
301.842 64.8552 19.1715
307.776 66.1338 19.7709
332.452 70.2546 20.7497
320.974 70.9953 21.244
312.77 68.4907 21.1622
333.54 70.9821 21.6783
315.684 68.5925 21.371
303.803 70.4008 21.6082
295.437 66.264 20.6921
297.92 66.7123 20.5338
321.119 71.0118 22.8406
309.281 67.681 21.8763
294.987 67.3961 21.668
307.098 69.2491 22.4038
309.423 69.0452 22.4008
290.938 68.0481 22.2471
303.955 70.5398 23.5661
294.425 62.6994 21.1155
257.026 64.3879 21.6733
291.213 63.65 21.7683
270.225 65.4422 22.2887
289.474 67.8856 23.5512
277.79 67.1975 23.6014
270.12 64.2772 22.8228
263.955 64.3833 22.6764
285.903 67.1094 23.6209
285.128 67.2782 24.0664
254.721 68.054 24.6055
263.627 66.498 23.7238
256.069 64.2664 23.5742
246.108 62.9748 23.1742
245.23 66.5261 24.6538
247.311 61.6237 22.7092
258.286 66.4328 25.0106
291.904 66.6609 25.0466
254.802 64.2572 24.9627
259.505 71.5032 26.7634
231.587 65.1297 24.8302
284.071 66.0323 25.8905
252.203 65.7217 25.1817
248.545 65.258 25.4452
229.68 63.1506 25.5123
231.969 64.3958 25.7242
244.907 65.2603 26.0767
247.119 65.2088 26.3184
228.593 67.1198 27.438
237.088 65.5258 26.4184
211.694 64.6516 26.8836
223.918 64.788 26.6189
239.151 68.4368 27.6986
230.229 61.4663 26.6248
222.432 66.9841 27.9084
218.225 63.1672 27.1537
221.096 66.5028 28.4624
223.088 64.4392 27.7455
218.627 66.2342 28.5048
202.56 59.5593 25.7994
208.495 63.1968 28.239
221.383 65.2306 28.3892
219.819 61.7355 27.2145
204.844 58.5032 25.5856
217.435 65.2427 29.0417
203.747 59.7725 26.9341
203.16 64.8648 29.3984
210.972 62.9481 28.9201
192.055 60.2877 27.5133
212.722 68.5278 31.5977
193.906 61.2958 28.6068
205.13 63.4148 30.156
198.777 64.6873 30.492
195.621 63.6727 30.7224
206.809 63.1381 29.5764
209.776 67.0965 31.7053
188.148 64.251 31.0272
181.355 61.6546 29.8196
184.993 59.0652 28.3398
173.439 57.3435 28.658
178.663 59.6279 29.6052
179.192 60.5272 30.1173
188.558 62.1451 31.4524
194.869 64.5487 31.7303
191.438 59.7905 30.1745
186.525 64.6327 32.9563
196.878 63.471 32.0321
178.947 60.1805 31.2046
186.265 61.8588 31.2047
175.316 56.3361 29.5918
176.221 61.5367 32.4033
184.551 58.8049 30.693
180.833 63.4228 34.3946
173.809 58.5183 30.92
170.27 58.3402 31.0201
195.484 61.8037 33.5521
165.948 61.5049 33.3762
182.698 62.4147 34.1424
172.448 62.6887 33.8359
181.179 57.2052 31.6252
170.811 60.0533 33.1738
165.593 57.7316 31.8212
176.297 58.8832 32.5012
184.094 59.7327 33.4825
173.623 60.32 33.9638
176.554 60.9413 34.6542
174.605 59.3498 33.2174
172.836 62.7975 35.7743
172.827 61.6425 35.7092
165.987 61.5412 35.8408
161.004 59.2168 34.3819
162.172 59.1554 34.527
165.588 60.7463 35.9117
160.936 57.2979 34.2819
167.363 58.2049 34.8476
161.482 58.8019 34.6469
157.804 62.2005 38.0577
167.596 62.117 37.6216
165.671 60.8916 37.0292
164.247 55.9898 34.0261
151.617 59.0035 36.1223
172.264 61.8426 37.8549
143.478 57.1058 36.3561
160.353 59.3994 36.5371
157.895 60.5313 37.5745
154.952 61.4276 38.6356
147.829 59.1161 38.552
159.353 57.7194 36.1812
139.646 58.4299 37.1964
141.715 57.9829 37.3268
143.93 57.5335 37.3684
161.723 62.7098 39.856
141.945 54.4269 35.5101
134.33 54.0314 35.8702
143.534 58.9731 38.5609
144.482 58.9437 39.3685
140.406 57.1916 38.0951
151.225 60.2045 39.2975
135.641 57.4465 39.0115
137.64 56.7381 38.1394
128.182 53.3337 36.8978
138.988 58.1359 39.5845
139.739 58.2112 39.5982
138.918 56.1791 38.9553
147.715 59.4639 41.0548
126.675 57.5849 40.2167
141.452 58.3457 40.4022
134.494 53.8932 37.8303
123.373 54.5123 37.374
130.649 57.9916 40.7896
137.159 57.5757 41.3593
133.949 53.5843 38.1514
130.939 59.6643 42.6939
133.052 57.2302 42.4851
133.232 58.6178 42.1631
121.146 54.8586 39.7627
132.33 54.5502 39.9732
117.115 51.2456 38.6555
125.119 54.3849 40.3194
130.174 58.9819 42.9163
123.33 55.5978 41.064
116.511 52.1451 39.1474
113.314 52.3796 39.6409
120.249 54.795 41.076
131.003 61.0548 46.0034
122.517 50.6256 39.0761
119.17 55.9718 42.115
111.232 52.591 40.4309
109.27 53.7462 41.9002
110.769 52.2698 40.8373
114.695 56.8157 43.6795
114.98 56.568 44.3856
119.05 57.8203 43.8051
115.163 53.7841 43.2636
116.547 53.2464 42.3334
104.636 51.7581 41.1802
116.786 57.083 46.0748
120.11 58.3447 46.8667
105.552 50.6575 40.3984
128.938 55.9112 44.7254
115.435 55.8779 46.0765
113.193 54.2664 45.2
110.481 53.8336 43.5468
108.887 51.6026 42.6598
101.089 53.3004 43.7828
112.225 58.8342 50.345
116.194 56.3416 45.791
104.713 54.399 44.9517
109.784 54.2212 46.1982
101.151 52.5338 43.6667
102.064 53.7025 46.2075
106.692 57.7433 48.5619
112.143 56.5728 48.626
106.228 52.7359 46.604
105.954 53.7662 46.3217
100.009 54.1624 46.0983
100.401 52.8018 47.1071
110.299 54.4521 47.3204
100.038 53.0963 46.8711
101.598 54.9971 47.3371
99.1321 54.0095 47.5774
97.3605 53.9746 48.5297
101.208 52.6798 46.5648
99.6447 50.6103 46.0091
93.6007 55.7836 50.6786
104.216 54.003 47.2543
102.151 57.6571 51.7037
100.688 52.5907 49.0514
91.0384 52.2145 48.6091
96.745 52.3004 47.1897
95.1155 53.5052 49.0619
95.2264 52.5751 48.2045
83.8116 51.5981 48.389
98.4661 56.7016 53.7358
94.8243 53.6521 49.8114
86.0849 52.1061 49.861
98.6671 56.1926 52.0158
92.6995 52.7296 50.4935
84.3053 49.1623 48.0039
92.4102 53.1892 49.7258
83.8794 47.6291 46.2218
94.1411 53.7592 50.0055
90.5508 50.1819 48.3893
88.5946 52.4442 52.1769
91.9964 50.3818 48.6446
91.1091 49.1666 48.5948
98.2491 50.6757 49.0875
91.5953 48.3311 48.3079
93.468 49.4441 47.3132
80.7706 49.2308 49.2471
87.1244 49.9552 50.6016
91.3223 52.0146 51.3669
85.3601 48.8775 48.8363
88.3373 49.9578 50.5025
82.8875 52.3527 53.4794
94.4367 53.5065 53.1197
83.7941 49.4838 49.4115
85.3409 54.6046 55.0905
80.9167 48.174 50.6488
85.7373 50.8783 52.8219
90.5792 48.1807 48.8418
84.9221 49.4692 52.275
82.7084 49.5114 51.4453
86.7063 51.5431 54.0101
91.7934 51.3891 54.3164
86.005 51.4782 54.185
84.0424 50.6373 52.1777
84.3776 47.3217 51.5947
87.2811 49.2069 51.8281
85.6045 47.8988 51.4983
81.5113 49.6479 53.423
88.2136 49.7774 53.2448
86.7719 51.9306 53.7292
87.4431 50.6165 54.4581
79.8275 49.6456 54.0977
86.9663 49.1226 55.0783
73.3703 50.4321 55.2182
89.0862 52.4252 57.8224
82.1593 50.2661 55.6811
86.7656 48.8684 53.0513
87.1263 48.6132 55.1009
83.2476 49.6411 54.4287
71.6536 46.31 53.0868
82.8718 50.2307 54.8954
78.5597 46.2999 53.8375
82.7886 51.2913 57.2425
77.2494 48.667 54.9511
76.547 51.1319 58.4825
81.048 49.5322 55.5352
81.2426 53.1823 61.6201
76.0889 48.1965 55.6126
77.372 51.9454 59.4638
84.3444 50.123 57.6628
80.776 51.4146 57.6088
75.6676 48.3953 57.6661
75.9093 47.9916 56.9084
76.7957 47.9493 56.8455
82.1108 45.7522 54.7031
75.6192 48.127 55.2306
71.7393 48.7176 58.782
79.0227 47.4249 56.2927
71.0941 48.9122 59.4418
76.6613 50.5139 59.5651
76.8537 49.7249 60.0384
70.5607 48.4916 58.5884
74.2175 52.9798 63.9622
72.5561 46.0918 55.9864
73.4035 47.2072 55.881
65.995 42.294 52.927
73.2252 46.68 56.4329
67.3548 46.3209 56.7113
67.5256 47.0548 60.6644
71.8394 48.4722 59.1557
70.0973 48.5322 59.0303
71.4708 48.3162 60.3541
75.3739 51.0031 64.586
69.3395 46.4302 56.3585
62.2922 44.4782 57.7841
65.1793 47.1555 59.5168
71.2334 50.6896 62.9763
71.1697 48.6079 61.9572
69.1751 49.1539 61.9455
66.82 44.4294 57.3433
66.0235 49.1379 62.7442
64.1049 47.2335 61.409
67.8353 45.314 59.1537
69.2118 49.8664 62.5661
69.0806 44.7759 59.7937
71.717 49.4453 61.8285
63.3492 47.5527 62.077
67.1147 46.2443 61.2002
71.6181 46.7257 60.9257
66.7482 47.5314 62.8636
69.062 48.4069 64.7013
64.7731 47.5801 64.2062
72.0501 47.1809 62.9329
68.3472 45.7765 60.9374
67.3545 47.0334 64.5883
67.5979 46.8771 63.1161
66.43 47.3159 61.0767
69.756 46.1452 62.3741
64.6957 47.2441 65.2674
64.6941 45.5179 60.6209
64.3593 44.9851 60.7458
65.9124 48.837 67.9559
61.1584 45.703 61.2676
60.3545 47.0949 64.9304
56.223 41.7692 59.0115
60.8058 44.4265 60.8734
62.2405 45.242 63.4478
61.6494 46.5019 65.1255
60.1443 46.6529 64.6887
59.5683 46.2683 65.1975
59.1728 43.807 61.9547
62.1519 47.9218 66.4663
60.9751 46.0075 66.0082
60.8824 43.0246 61.3514
58.2544 47.3111 65.6401
54.9542 46.7539 66.0756
57.588 44.7659 65.1036
52.4434 42.5866 62.157
56.7586 43.6559 61.4447
54.7992 46.1441 66.02
51.7947 43.2384 62.7894
55.5576 43.9803 63.3946
58.9221 45.9772 67.8348
57.3996 48.2642 70.9164
60.7067 46.5257 68.5687
56.638 45.4731 65.4444
56.2815 44.2888 65.3572
57.7679 44.3599 67.9225
60.4488 49.0913 68.368
52.6924 45.0287 66.9067
55.0992 45.1969 68.8883
53.5695 44.7452 66.7943
54.1039 44.0402 67.6404
54.9105 44.2426 63.9317
49.3596 42.2982 65.9052
55.7046 44.0938 66.1129
54.7967 46.9743 69.455
55.9692 45.3631 69.6969
51.064 42.4931 66.9267
56.2904 46.1747 68.9199
53.4334 46.0551 72.8366
56.042 45.8157 68.8146
54.6108 44.6329 67.0744
49.2457 40.5808 64.9505
55.8334 44.1647 68.4756
52.8418 42.4893 65.3218
52.7599 42.4568 65.1913
57.4631 46.0894 70.5019
52.7849 43.5435 69.2481
50.8244 46.7209 74.9984
53.0776 43.616 67.0869
50.5304 46.623 74.3613
48.9008 45.0005 72.2389
52.7408 44.4958 70.2993
49.3887 42.627 66.4735
49.4363 42.6634 69.6935
48.6343 45.47 71.9751
52.654 44.2046 71.1291
49.868 44.4887 70.1044
47.8768 43.8173 71.1598
49.5737 45.3495 73.313
52.6925 44.767 73.6661
52.4886 45.5812 74.3716
51.6365 42.8616 68.7178
48.9587 44.3643 71.2556
51.4637 42.007 70.557
50.1391 44.5062 71.9385
52.1494 43.2469 68.1448
52.6537 46.1822 77.0354
49.7161 43.0867 72.9384
52.5342 43.1802 70.6844
51.7839 43.7189 70.9422
50.8929 40.9893 69.4712
52.4085 46.6775 79.0402
53.6211 44.9444 73.0124
48.2151 41.373 69.6175
51.1013 45.8918 77.2972
46.4679 40.3501 70.1673
49.9659 42.4949 71.2732
49.1526 45.8579 75.0729
48.5022 43.1652 73.4206
51.3933 45.1117 77.1862
54.7979 43.9474 75.5724
44.327 40.5393 70.1933
48.8972 43.0324 76.0933
50.0765 45.751 76.5331
52.7127 40.1465 70.176
49.1765 39.3623 69.307
50.0555 43.9368 77.717
47.2634 46.0059 80.1271
53.9333 44.6808 74.0436
49.7737 40.2709 71.2958
43.5766 40.8742 71.0401
49.8607 43.298 75.3959
47.1179 42.66 76.4922
47.2459 40.5905 71.0268
45.4264 44.4117 81.393
54.0307 46.1341 80.2148
47.5384 41.1642 73.6949
50.7709 43.7008 78.1752
48.6373 42.4728 77.3722
45.3953 42.0857 72.9674
44.5354 42.2623 78.2716
47.4395 42.2574 74.785
45.1889 39.2914 71.7846
49.9997 42.2856 76.3963
47.8638 41.743 76.0588
45.3136 43.9178 78.8277
43.7526 43.3576 80.5684
49.4697 42.0434 76.0001
45.1295 41.2671 75.8425
46.8565 40.1725 76.3676
47.2378 43.6028 80.0194
42.8679 39.7873 76.1873
48.8684 43.1249 79.0095
43.3213 39.0947 73.0963
44.3506 42.3457 79.1879
46.5339 43.123 77.9659
43.6732 40.0879 75.7569
47.528 42.8591 78.4348
40.2779 36.8789 69.9509
42.8962 39.9247 73.7658
46.0457 40.472 74.6595
41.4183 39.9742 75.921
40.2716 41.8445 78.4692
45.2966 39.6744 74.5051
42.4388 41.0401 78.237
43.0043 40.6067 77.4371
40.4973 40.3085 75.5038
42.8842 39.9787 77.8003
44.1129 41.2618 78.8683
41.3919 39.5449 74.2108
43.2978 41.7139 80.929
45.5313 39.4084 78.4758
44.5892 42.8193 80.6061
43.4368 41.0337 82.4936
45.2207 41.2211 79.6158
41.8877 38.8794 77.9976
45.5895 41.6846 79.6953
40.4428 40.5046 77.8351
43.3975 40.8179 78.1989
39.7551 36.5081 73.1788
45.1989 40.4363 78.4631
38.5374 38.2048 77.9107
41.3736 42.1513 83.0868
41.1954 39.9321 80.6512
47.1914 41.0934 79.4454
35.2013 37.4484 78.3049
39.892 42.7015 83.9832
38.379 40.7798 82.179
42.6145 40.1361 78.067
40.2058 40.0624 81.6776
39.4413 37.8267 77.5148
39.4561 40.4175 80.6493
40.8529 40.616 83.4746
38.5719 40.6616 82.3331
41.5548 40.2874 80.019
39.6294 39.4012 79.7485
41.7476 38.8403 81.102
39.0831 40.0642 83.7302
39.8515 39.6787 79.6082
38.2293 39.6293 81.2985
36.4237 39.3192 84.2743
39.3452 43.557 89.2243
37.517 39.6016 79.0622
39.145 38.563 83.5664
38.9567 39.3345 79.1062
35.3176 41.7783 86.4973
38.2277 42.7251 88.2951
38.7846 41.2138 84.5803
40.1079 37.3799 79.1446
36.1787 39.0284 81.0803
37.2772 39.1178 85.1179
40.1728 39.5032 83.9568
37.5327 40.3604 86.6329
36.1718 39.5586 84.7017
38.9592 39.9629 84.8017
38.4158 42.314 87.6515
34.303 38.6452 82.4778
36.1987 39.3569 81.7409
35.7697 37.8887 82.4374
35.2031 38.9911 82.8602
37.8854 38.8818 81.1059
33.4918 39.3102 85.4278
36.4318 40.2512 84.6302
34.1003 39.3273 87.3743
35.2106 37.9384 83.2758
34.3449 39.0977 85.0266
34.8501 38.4276 84.7251
32.4829 41.2712 90.7643
40.0414 40.3776 86.8153
37.5011 42.1809 91.9477
38.2199 39.0969 84.3293
37.4456 40.2754 88.4091
34.1547 38.7859 84.3357
34.6864 36.6335 81.5911
36.2532 39.4291 87.8558
36.0184 37.8379 85.4156
34.4422 41.0144 88.3235
32.6498 37.5008 87.0832
38.585 38.4603 82.7237
35.4427 37.3461 80.3783
36.055 41.3141 94.4091
34.6451 39.0482 89.0197
35.6388 37.3089 84.9316
34.5821 39.5372 85.8409
35.7448 39.5318 89.7813
33.8888 38.4212 87.7956
35.7376 41.4904 92.9515
35.1537 41.0066 90.4806
34.2078 38.7899 90.0034
34.6405 36.7661 81.5516
33.0257 36.6164 82.3326
34.3727 36.3524 86.0894
35.9231 37.9331 84.8731
32.6045 37.7252 87.5461
35.2208 38.1857 88.9345
34.115 40.3806 93.2341
39.4751 42.6123 94.6354
35.6959 37.6073 86.479
33.7621 38.0957 92.1098
33.5928 39.8898 89.0884
34.9685 37.0395 85.4735
33.2521 39.1125 87.1906
36.473 35.7054 82.4565
31.9532 37.3341 88.8103
36.6393 36.408 88.2987
34.1305 38.4831 91.6884
38.2774 37.5881 82.8939
33.4917 37.7724 87.2477
36.3482 40.1081 96.0984
36.6043 36.9868 88.204
36.8354 37.9545 91.5292
34.5648 37.7027 87.0656
31.4367 38.0663 90.601
35.3759 38.0216 88.7451
33.177 40.0545 92.981
33.9512 36.9692 93.6306
33.9033 38.4646 88.1735
33.4266 37.8976 90.3201
33.0885 38.1247 90.7111
35.5001 38.1632 96.4032
37.4408 37.2801 85.3619
33.3057 36.9119 89.7812
40.446 40.855 97.7605
31.3085 36.8424 90.5368
34.8375 38.9743 95.5486
35.7614 36.5668 91.6461
34.7526 37.7848 91.8407
33.2619 36.5588 89.1546
37.4117 35.9837 86.3266
31.4791 34.6606 85.1231
33.7776 37.2595 89.1194
29.3945 39.8454 93.9484
32.9717 36.8482 91.744
32.1138 38.6535 96.9221
32.0916 38.3179 93.304
28.7347 35.8958 90.5485
30.416 38.4752 94.5258
33.2833 37.9449 92.2171
30.7666 34.7382 88.3349
32.0472 37.3818 93.6185
