# pn-170911/CsIIA-av-PTBB-1280-1959.psd
# Power spectrum* (dif=0,1,2) (really just |FT|^2)
# NOTE: only the first half! (symmetric)
# weeks: 1280-1959
# 39 clock-days, 6 excluded
# PSD: 1441
63594.8 2.67323 0.0351412
1.66033e+06 26.2777 0.0144944
1.28241e+07 313.786 0.0189859
2.14617e+06 73.4611 0.0167116
1.98195e+06 163.872 0.0273206
633075 57.8834 0.0231567
484114 71.4606 0.0314667
506670 96.6071 0.0333985
232278 54.9185 0.0375567
229470 58.9703 0.0329391
172925 66.6242 0.0465268
133600 64.1431 0.051697
97235.1 62.0996 0.065479
111544 82.8739 0.0652864
73737.3 58.1814 0.0732672
85938.4 81.9349 0.101228
54767.5 52.8464 0.0809788
61242 63.6157 0.104355
52672.5 59.0124 0.106782
50377.5 64.8198 0.125184
53139.9 72.2605 0.140794
33803.4 58.3386 0.138135
33444.9 61.4481 0.168801
37913.9 74.136 0.225881
20924.3 45.3434 0.136559
24285.5 55.3286 0.173386
21927.9 53.9094 0.201078
29204.8 68.4959 0.263362
20969 55.1179 0.239495
24162 62.6198 0.249588
18522.3 61.1939 0.292002
20843.3 61.4641 0.291449
16166.7 63.7161 0.321382
14323.5 47.4132 0.250601
18860.4 66.2768 0.40545
12163 49.1825 0.312691
10828 53.5765 0.359694
11553.5 57.5033 0.356462
15461.6 69.9643 0.501024
16614.5 81.5783 0.595747
13134.9 63.4649 0.492049
8364.83 58.8021 0.529297
10197.4 59.2093 0.486007
7737.22 46.0142 0.425029
7298.25 47.1326 0.462099
8025.7 56.6857 0.546916
6778.69 71.4062 0.750449
6841.35 48.9054 0.505742
5597.87 62.8909 0.675363
8652.63 66.2605 0.791274
6203.79 54.0896 0.690526
5163.94 46.6021 0.597869
6459.32 58.2344 0.830136
5345.71 62.4054 0.807742
5177.58 56.2882 0.852443
5136.66 56.7077 0.844501
5135.62 61.6458 0.91317
4724.11 61.675 0.967791
6244.27 75.4744 1.19603
5153.01 56.543 0.980462
3423.24 50.047 0.840489
6402.01 82.7641 1.45994
4095.82 59.2329 1.07691
4324.13 56.1584 1.06179
4007.18 60.3978 1.19649
3007.17 57.5819 1.15187
4305.73 72.9508 1.54043
3631.77 64.1474 1.41687
3180.6 57.91 1.26998
3306.4 44.3092 1.00907
3315.08 64.1493 1.50947
3281.11 66.447 1.61927
3512.07 56.3179 1.35403
2650.69 43.7678 1.10514
3110.84 61.3362 1.61859
2719.86 59.9317 1.55684
2234.2 57.4956 1.62623
2069.73 40.5774 1.15613
2442.33 44.365 1.28348
2389.49 52.2121 1.59904
2732.13 52.5413 1.6114
2363.01 51.2235 1.6654
3518.92 59.6143 1.91481
2236.1 52.2643 1.65571
1913.98 42.4101 1.52639
2769.88 63.8233 2.12666
2074.48 57.4021 1.89137
1344.35 52.6754 1.84326
1724.46 54.5553 2.04784
1613.04 50.8732 1.9719
2152.2 60.6591 2.33052
2429.93 63.766 2.46045
1502.58 50.2419 1.9761
2110.31 64.527 2.66626
1866.38 51.2255 2.10941
1808.29 51.8984 2.18166
1878.23 73.4175 3.19509
1929.67 63.8391 2.86621
1654.03 61.7193 2.78799
1631.01 45.622 2.15009
1456.86 58.1658 2.69559
1687.8 57.4028 2.74809
1226.51 41.4566 2.08325
1536.2 64.1027 3.37654
1538.09 65.9068 3.38105
1194.82 42.4672 2.23652
1082.61 43.2512 2.3023
1709.59 71.2522 3.92928
1138.36 43.8969 2.52905
1482.1 66.1702 3.74961
1374.36 52.3641 2.9222
1319.25 46.8211 2.68277
932.362 42.0988 2.59725
1268.63 57.9192 3.38915
1053.94 55.2519 3.33558
1104.07 50.1042 3.20752
1280.62 65.6418 4.14694
976.539 52.9029 3.42122
780.826 35.7531 2.48058
1399.03 64.856 4.25616
917.485 58.6929 4.11568
1027.63 51.1257 3.53711
1066.27 55.4032 3.98429
1128.11 51.331 3.73268
1171.43 56.9669 4.18914
1153.83 61.0194 4.30695
903.733 50.4616 3.70558
915.65 42.2239 3.27058
1078.72 52.4394 4.20566
1071.74 56.2769 4.26151
688.571 47.1651 3.8911
899.342 58.2773 4.57487
995.609 63.9093 5.20355
907.717 65.2097 5.4986
637.942 40.1819 3.44606
896.226 57.3903 5.08456
772.833 53.8588 4.71285
650.878 40.8098 3.74718
784.615 44.6373 3.94919
782.848 48.9251 4.50169
852.539 49.4117 4.64109
753.838 49.5406 4.78341
801.617 48.2763 4.58325
656.909 42.9189 4.20457
528.086 39.5269 3.91186
667.82 50.7031 5.02264
727.397 47.2903 5.03358
721.574 56.7184 5.60664
651.171 42.468 4.34432
690.586 53.8866 5.67847
664.74 44.7129 4.67316
632.336 59.9466 6.66177
373.969 31.2819 3.48682
613.854 42.7912 4.66788
679.257 57.338 6.55968
587.606 49.3833 5.57628
605.178 47.4178 5.31896
774.347 60.5708 7.22977
443.766 46.8895 5.72879
702.19 57.014 6.57654
535.012 47.7194 5.75132
741.717 53.3681 6.52591
613.497 56.0284 6.99846
371.003 33.9711 4.52346
733.1 58.1764 7.03998
536.095 45.1488 5.91302
481.329 57.6664 7.35905
441.951 49.2613 6.5617
650.926 62.1111 7.83855
716.399 62.4058 8.4488
517.788 43.804 5.97901
611.422 52.3775 7.30815
480.313 49.4978 6.87629
436.279 42.2584 5.87476
570.022 51.8773 7.18654
493.096 46.9223 6.94179
519.554 53.4001 7.86664
469.378 49.7309 7.45116
487.315 57.8913 8.40202
393.924 49.3896 7.82
409.883 42.6065 6.21327
327.707 36.6985 5.74714
330.318 39.0146 6.19523
461.427 47.8424 7.20407
324.601 36.2705 5.96407
408.29 47.0628 7.58379
381.177 44.3385 6.92306
299.787 34.8957 5.74103
376.701 43.0677 7.30585
417.338 54.634 9.20555
349.797 41.0476 6.881
508.094 71.7454 12.4483
326.995 30.993 5.22377
310.993 34.8695 6.17461
334.001 41.0173 7.12137
379.355 52.4911 9.43641
353.071 51.184 9.08086
450.557 58.095 10.3463
445.426 52.6688 9.47646
362.19 57.3915 10.6194
346.11 38.6129 7.52953
307.871 54.1182 9.9564
312.228 40.0523 7.34487
389.802 53.3501 10.2818
316.864 42.2717 8.67182
300.995 34.0992 6.72942
309.357 45.1819 9.18207
331.117 44.0724 8.51951
326.294 45.6481 9.59827
291.353 41.0296 8.60443
305.552 44.1007 8.99847
258.71 35.3159 7.16484
253.201 42.3936 8.91129
308.812 52.4819 11.4891
371.858 55.9403 12.2191
270.993 37.9259 8.08679
308.677 45.4848 9.70847
327.698 57.098 12.0649
274.816 45.8443 10.2749
390.263 67.6957 14.6219
222.488 39.738 9.38853
275.123 42.5828 10.3766
303.187 42.4235 9.05824
298.021 43.3928 9.60471
225.352 38.6027 9.62066
276.77 44.5039 10.0819
254.937 39.6055 9.57832
290.957 44.0764 10.4588
205.279 32.4948 8.72181
253.632 39.4515 9.53971
285.453 60.2319 14.2479
305.999 44.5057 11.1601
211.455 35.1706 9.6078
283.731 42.9658 10.6002
268.86 42.4732 10.9614
238.938 43.8307 10.8105
260.811 52.2791 13.59
205.632 32.0756 9.02726
318.866 56.6157 14.092
237.854 44.3036 11.6746
274.821 48.4816 13.1761
209.188 39.1085 10.5515
249.044 39.3871 11.1664
221.337 50.7431 13.843
246.196 48.3412 13.2371
193.73 32.5812 8.93945
232.39 39.3024 10.5108
271.303 49.7758 14.7268
190.561 39.2906 10.843
200.145 48.5029 14.5192
262.736 55.8408 15.1136
193.738 46.0558 14.5446
219.658 43.4996 12.4623
187.465 46.9692 14.2316
371.758 66.7015 18.8157
170.009 39.2267 12.5407
185.832 27.9971 8.05237
176.275 41.8839 13.4398
154.434 32.7875 10.0545
244.741 43.1465 12.9121
238.665 52.837 16.1893
155.829 34.5045 12.0364
169.759 45.3107 13.5039
237.542 47.0413 14.5817
137.715 29.0473 9.42386
199.974 43.4492 14.0927
144.656 38.3799 12.7726
211.383 41.4343 13.582
166.112 35.9016 11.5927
192.303 47.5529 16.4286
153.276 39.4768 13.1705
188.045 44.3327 15.6317
218.5 48.9981 16.1196
194.339 36.6456 12.8223
140.325 33.1055 11.3296
181.417 37.8422 13.0079
170.781 45.8543 15.2037
168.365 40.1046 14.6482
163.662 42.3321 15.7959
150.461 30.4386 11.2462
215.714 46.3838 16.209
102.825 28.1081 10.3113
132.991 33.9262 13.332
251.738 60.3413 21.9752
146.319 35.1267 12.2938
163.235 43.2975 16.0899
183.885 43.22 15.0501
171.039 48.9902 18.3312
161.025 39.8583 14.9434
156.765 39.2801 15.2158
161.695 47.6334 20.0693
192.941 50.6081 18.7688
152.234 41.0315 15.9431
121.702 32.7792 13.5223
151.106 33.4227 13.8305
119.107 32.7431 12.9559
123.578 26.8484 11.1302
86.7251 27.6102 10.7133
140.067 41.5163 17.578
141.154 41.0175 16.7062
124.177 37.0455 15.4662
163.639 47.9454 20.9333
140.573 40.4709 15.3395
128.642 31.67 12.97
134.424 41.3611 18.5224
151.84 42.283 17.5864
121.57 33.9248 14.4242
150.203 44.0822 18.9716
102.73 33.2974 15.7004
117.346 31.8592 14.1864
164.312 40.3369 17.3917
103.945 30.4477 13.1342
117.324 52.6201 23.9599
146.944 42.5182 19.8259
123.123 31.7771 14.692
121.593 32.6225 13.6777
129.302 37.4438 17.0934
130.892 36.7059 17.227
125.886 38.6835 17.33
127.466 37.1229 16.41
86.7361 30.3371 14.5571
108.477 32.1412 15.0417
134.062 29.1416 13.0435
123.08 32.0619 15.702
112.551 34.8952 16.8734
122.79 31.9329 16.9088
99.8421 30.9183 14.4608
124.695 41.3678 20.3005
99.9599 29.1802 14.8832
119.922 38.0392 17.1368
99.7254 32.6079 16.5663
101.05 33.1397 15.1221
118.044 42.3917 21.5674
97.4823 36.5531 18.5759
86.6845 26.4771 14.3347
114.019 35.1038 16.2247
95.3158 34.3972 18.1589
124.3 40.1141 19.7903
116.985 35.4068 17.8345
119.423 42.0241 20.8593
81.0483 22.1474 12.6347
97.7491 36.2381 18.5763
103.202 39.2091 20.6069
115.781 40.6633 20.9916
113.77 36.5626 20.621
94.6101 31.5037 17.8038
103.332 29.9214 17.3869
102.948 33.7214 19.19
105.553 30.6131 17.9429
108.255 39.7017 23.3738
117.406 35.5063 17.6698
89.8407 29.6217 14.9428
91.498 31.8002 17.577
107.745 45.4344 25.5178
85.3566 30.9535 17.0724
94.7314 35.276 20.5139
110.133 32.4438 18.8341
118.58 41.3449 24.1601
118.277 43.1175 26.2753
86.6562 34.1699 19.7324
93.7915 33.2246 18.834
102.571 35.5967 21.704
100.225 36.4151 20.59
85.0843 32.3387 20.329
98.4015 32.0416 21.9165
91.5521 34.071 21.404
86.3541 32.7136 18.6863
91.9129 26.5026 16.7688
84.7724 36.671 20.894
84.6519 29.7962 18.2349
66.9035 23.6426 13.8784
80.4771 25.3424 16.3721
75.9052 33.1574 20.5916
90.3439 34.5774 22.6769
99.4448 43.6701 26.8054
66.4195 28.5776 18.2619
86.0712 27.0713 17.838
92.9282 30.4544 18.9974
88.7163 32.1823 23.3337
78.5146 40.4837 28.8593
95.35 29.6826 15.7431
96.6869 40.1203 26.3953
85.6718 48.0142 28.2096
73.9009 29.4825 19.96
49.6908 22.7893 16.655
78.8249 31.974 21.113
93.5242 43.6442 28.1339
72.1133 29.794 20.3972
102.268 41.2448 27.523
62.4931 27.9942 19.131
82.6279 31.1507 20.1851
60.3215 25.636 18.699
84.8914 30.0101 18.4215
51.2625 22.8346 16.7294
65.9096 30.1938 19.882
61.7646 24.3563 17.4619
62.7401 24.5167 18.0326
64.0026 27.9 19.0712
61.0171 18.9594 14.1942
77.8642 29.1041 19.8867
62.216 26.7369 19.2621
77.5862 27.8005 21.0106
68.6881 30.9242 22.8402
80.6939 28.8238 21.0164
60.461 26.1404 18.2302
66.9171 29.5458 21.8343
57.2296 21.6796 15.8273
88.1925 40.3128 30.6894
71.5368 28.7768 19.8946
51.7212 28.4248 22.1892
84.0641 31.352 24.6526
73.3712 30.0439 22.7743
70.2751 27.2006 21.198
66.0267 25.1196 19.4823
69.6438 32.2866 22.7349
66.6393 22.9704 17.6077
61.1831 27.6763 22.1277
65.8279 32.7264 23.2605
62.6918 29.5284 22.3329
58.7896 30.115 23.6289
77.773 40.967 30.555
61.2643 25.1398 21.517
50.4751 20.863 14.9176
61.3476 31.2302 23.6804
59.8945 27.8317 24.4023
67.0114 30.8771 27.8495
60.4382 34.5499 27.1201
58.9597 34.3977 27.9753
57.1644 23.8066 17.8794
53.1836 26.425 22.8991
62.5704 23.4777 18.248
68.933 27.7041 21.4926
55.1452 24.5473 19.868
58.3784 29.4023 25.0639
52.1134 21.222 18.6073
67.5703 34.0309 29.5029
50.0682 21.4426 19.342
79.4657 35.7549 26.6288
41.8399 22.6331 21.3386
54.1766 35.7054 28.4667
79.4083 40.9811 33.5147
55.489 27.8035 24.0187
70.4234 37.1692 31.1131
51.5982 29.4966 26.9467
55.5773 24.147 20.0091
51.4471 17.2772 15.5237
49.3701 29.9849 27.7001
51.1248 24.1384 23.5783
49.4999 26.9042 24.204
59.2292 27.9477 23.7684
58.6953 27.2459 24.2803
51.2872 22.5763 18.6612
54.4655 28.3117 25.1872
46.4959 23.8105 20.793
48.211 28.3885 24.4015
60.0026 33.3338 31.187
55.1025 25.1878 23.4621
46.0185 17.5838 16.0856
64.4944 25.85 22.9735
47.5521 23.651 22.4378
57.8213 24.9333 21.6222
40.6822 17.8919 16.3751
52.2156 26.1347 26.0345
57.1997 29.0027 24.9992
39.1189 23.6747 23.5962
56.6745 25.3426 27.2478
56.7975 26.775 20.9791
39.4665 19.5083 20.0491
57.3142 29.9838 26.5839
37.5849 20.6302 21.4329
45.5653 22.2413 22.9359
51.561 19.6717 18.1311
53.5829 29.6863 27.856
42.9989 20.8885 22.4761
47.4193 24.0014 22.6797
58.2721 33.7665 33.489
48.4124 28.5641 27.7411
31.0165 17.1505 15.8933
49.1337 29.4827 27.9015
52.0222 27.4054 24.1015
39.2684 29.9309 31.701
51.1396 23.6698 22.6785
40.6905 21.1067 21.7957
40.3795 22.644 21.6444
38.8764 21.0192 21.6565
43.5613 22.8295 22.9872
34.1925 24.3763 26.2997
55.1292 30.9979 31.5438
55.7494 33.7555 35.4826
39.4829 22.8935 23.9261
44.4737 29.5564 34.8642
51.249 36.549 34.6117
37.0127 17.8908 20.2259
51.797 21.827 23.5515
43.3467 22.2635 22.7912
45.5117 24.4379 27.1217
43.8646 24.4073 25.7407
46.6282 30.1911 30.7017
38.7347 19.1032 19.7239
43.7755 26.9128 30.8158
53.1518 31.9492 33.9902
32.5932 20.7064 23.6911
43.3694 20.0506 20.91
44.1985 27.161 29.1874
53.1429 23.2533 25.1303
40.124 24.0279 25.5044
35.7849 16.5437 20.5724
41.7767 22.6843 24.737
40.5924 28.0803 33.1069
48.476 26.8225 28.3742
40.7841 25.8019 27.948
43.0149 27.9525 30.9146
26.7686 21.1828 26.5702
41.9836 22.298 24.815
39.512 26.7298 32.0565
44.4306 26.2594 26.6705
37.6334 17.3584 21.3959
39.6362 23.436 25.9201
47.6309 25.1588 26.3154
37.088 23.8639 28.0731
44.7605 20.8479 24.7253
38.3076 19.9825 21.6896
41.186 27.726 33.1805
36.122 21.8711 28.2564
44.7946 23.3978 29.3024
29.4067 20.0247 25.404
41.9028 24.4872 22.6644
33.666 16.3479 19.4698
25.9735 17.4457 23.0463
37.6701 23.39 26.3766
35.4006 22.5664 25.7691
37.5804 21.8519 25.4871
34.9165 21.9041 27.0898
33.748 17.7422 22.691
39.5357 23.4779 29.0896
32.775 25.3141 29.6505
38.6522 26.9525 35.6339
39.2952 21.5825 27.1487
36.2922 19.9062 22.6427
28.552 22.3508 30.4642
32.4905 15.7156 21.264
36.1334 25.5493 24.2534
31.3892 19.5411 23.1203
28.1846 20.5738 23.9071
27.5961 20.2434 28.2549
35.2612 17.4089 23.3524
28.7372 20.861 29.0561
36.9009 23.7418 23.6995
33.4385 21.2747 26.7556
28.0215 20.9883 24.4807
26.9992 12.2074 14.8905
29.2703 17.5054 23.361
33.7187 20.2761 27.9542
34.7685 23.479 31.7532
36.5101 20.7677 22.4506
35.2863 26.3225 36.2464
30.2601 19.1031 31.8736
31.9751 20.7353 20.9013
26.3256 20.066 29.3402
33.1239 19.7401 22.9029
21.4461 16.3293 19.4031
33.753 19.0524 27.3393
28.8865 16.2741 20.4037
19.7684 13.349 23.279
39.0196 25.2048 28.7431
29.4594 19.4223 27.708
36.846 19.6447 27.4396
38.1322 23.8754 26.1034
38.0202 23.4384 32.4808
25.3677 17.2638 21.3037
35.4557 21.3149 30.763
30.2334 27.0918 39.555
24.8632 18.4413 24.8275
33.1813 15.5313 20.5007
28.162 19.3589 24.6394
38.0207 28.3691 39.5193
19.3099 15.7436 20.9633
28.4254 14.623 20.9578
29.241 20.6824 28.2599
21.1327 14.9286 21.058
29.2995 19.4767 26.3022
19.9668 12.5045 21.6648
33.0313 18.5573 23.1731
24.1197 23.4026 35.9394
31.7984 21.0092 32.1248
28.1603 18.004 29.2112
36.3245 20.8512 26.4058
27.4474 15.866 19.6486
29.2876 26.0296 39.8148
30.1028 21.2573 34.1967
31.7257 25.3399 29.6195
26.7983 17.0591 23.7133
27.3681 21.4769 29.7705
26.5723 19.7563 26.4992
30.1246 15.885 24.349
23.5215 19.6851 28.6204
26.813 11.5286 21.4918
24.5946 20.7497 28.774
29.2278 22.216 31.5019
20.7866 12.6304 24.3141
29.1312 26.8468 31.3983
22.3272 18.7184 33.45
27.1462 15.1181 17.0741
25.2604 14.3349 21.8674
20.6585 12.9008 20.3641
24.8232 14.0599 21.662
24.3215 18.0843 27.7768
29.0518 17.4515 27.3023
21.2672 17.0215 28.0848
27.8525 18.9531 28.2008
24.9184 16.1106 22.4839
21.9966 18.8694 28.3115
27.9288 21.8528 27.9841
21.9893 20.5504 30.5026
23.3172 17.4194 29.5524
26.205 21.7584 39.1665
22.3792 16.1914 24.3861
26.1509 20.0078 30.7185
30.2611 19.1068 24.4662
26.0162 21.4866 37.4699
22.6147 12.0819 18.4242
25.2168 20.4753 29.6237
26.1518 14.1234 24.0818
22.182 19.8345 32.0949
22.9788 13.909 25.2531
22.8359 18.0753 27.2539
24.5891 16.5852 22.981
20.4089 15.5205 24.8614
20.5405 14.3622 26.5582
23.4817 19.3994 30.5439
19.8757 22.7853 31.6557
20.7921 11.4366 21.8841
21.0557 18.0013 31.2141
21.03 15.4944 27.8673
22.5528 16.1778 26.1096
20.47 10.6265 16.4927
23.8041 19.8887 34.4242
26.8458 17.3943 26.4452
24.9505 13.7714 21.6403
24.2483 13.967 25.2514
30.5667 23.7337 32.6107
19.0924 19.1137 34.6732
22.5022 16.063 28.875
31.9247 26.5569 39.1117
30.0335 20.2031 34.806
32.2432 28.2265 39.8566
19.0512 14.8883 27.0842
21.2266 15.7313 30.9347
21.1969 15.153 22.4224
19.6938 14.5236 27.4624
21.3356 19.0891 34.3717
22.6481 12.525 23.9202
20.9079 10.8743 17.7293
22.1006 14.6817 23.7334
19.3312 13.9782 20.9089
24.6342 18.4368 36.6951
25.8058 21.9408 34.5487
21.7627 16.665 25.3933
19.6611 14.2615 26.6174
20.8133 18.2644 29.5051
19.611 15.1677 24.178
17.5044 13.6076 25.3454
22.8618 17.216 30.859
20.5991 16.2916 28.7686
15.6629 11.2042 26.6097
21.4579 14.8165 21.636
16.0418 15.0438 29.8047
21.6895 15.4158 27.3189
23.2487 14.3797 22.7829
18.8191 13.2529 29.728
22.9692 15.9338 19.9441
19.9378 15.7878 30.5901
19.0028 13.1075 24.6496
18.6241 13.4872 27.7488
20.8568 14.2865 25.5128
20.5558 18.7131 34.9074
26.3153 16.8029 27.4373
18.663 13.4783 26.6282
18.9188 15.5309 23.0677
19.8612 16.2559 31.746
20.3678 17.2004 30.1408
19.0827 12.6651 25.4649
18.2704 11.6496 21.8202
16.7371 14.9688 32.0596
22.3959 17.4181 29.2966
16.7461 12.5433 25.5858
19.8732 20.4891 35.8266
14.5962 15.1023 29.3791
21.1641 10.7843 21.479
20.5085 15.8549 33.0023
23.7401 19.864 30.7613
17.4252 13.9975 26.7599
22.2083 14.1069 34.1135
19.2553 18.3192 22.9852
16.0639 17.6924 36.1903
18.4784 15.8295 28.993
15.2037 12.3232 22.6244
16.8556 12.0911 24.1456
16.7772 12.3969 23.5786
21.9355 15.0685 31.5333
19.8637 14.871 28.4914
23.4512 23.7462 40.1898
17.53 10.6688 24.3684
18.2159 13.9393 30.0159
20.6104 16.9073 26.0252
15.947 18.4818 32.1781
16.6709 15.1614 37.0529
18.8865 12.8279 22.8165
21.4632 16.8695 30.6253
17.5445 13.7582 26.4777
17.7926 13.7315 32.866
20.6853 16.038 30.0305
17.1228 12.3507 20.5517
17.3739 16.5209 33.6041
15.4625 17.7752 32.3371
16.1784 13.0607 29.111
20.416 15.672 33.7273
18.9966 13.3799 24.1246
16.6821 13.1479 32.0893
22.2973 17.0735 27.3635
14.9478 12.2414 26.0996
17.7319 13.4838 27.2337
19.6116 11.4197 25.6422
16.8098 17.3818 35.6307
16.754 15.363 34.9597
18.6425 17.1577 28.5154
18.118 14.0239 27.1764
20.8532 17.0252 28.4265
14.4187 16.6005 34.5115
15.9232 15.4278 30.8784
12.1383 10.9504 29.8445
16.478 13.4652 24.9802
16.8461 13.3648 30.6639
19.0253 18.9968 34.8865
13.5028 12.2836 20.8391
13.3733 14.7625 33.4592
17.0619 11.999 26.2213
16.0266 10.587 23.2153
14.467 9.52017 21.2064
14.4914 11.8409 27.1186
16.1842 14.9045 33.4902
15.6332 15.0279 30.4834
17.0909 11.8981 22.022
14.5705 10.5405 20.8979
16.3086 14.4484 33.4701
18.8215 16.6359 31.6485
14.0946 10.906 25.4145
18.0197 13.1454 32.0043
19.9073 13.9881 22.8175
12.671 10.3395 29.4182
18.3721 14.5465 28.5411
18.0962 13.2757 24.326
16.02 12.6859 25.1834
13.624 9.95984 23.0366
16.9357 13.5346 34.3084
19.0545 15.4559 28.9065
16.4701 10.8335 21.9621
18.8416 15.2939 33.2368
14.2879 15.0297 30.1421
18.5933 13.9821 24.3153
14.0254 11.976 28.4055
15.7005 12.3186 29.7511
14.7954 13.3123 32.4337
19.9183 15.6966 30.4058
15.6536 10.9784 21.8929
16.9956 13.9138 29.0914
12.0229 10.475 24.0599
17.5099 24.2456 59.6367
14.9168 11.1658 26.8744
14.0431 9.39069 22.3703
16.9291 16.409 32.7836
15.9637 13.4115 34.4463
16.6506 10.9077 22.2908
13.3199 9.62601 19.6817
12.1618 9.89255 27.5466
16.1725 9.99163 24.9713
13.8506 14.4828 32.401
15.4754 13.7169 31.301
12.4489 12.1823 28.9547
14.6886 10.8367 22.5271
12.6639 10.7694 20.573
13.9815 16.1974 36.7534
16.0864 15.8216 31.3072
10.844 7.59447 18.527
14.702 10.8312 25.3789
12.0509 12.7475 27.9571
17.3295 16.3316 32.9139
12.5522 11.6157 28.2827
14.6154 9.9357 27.5486
13.7574 13.7405 23.1164
14.2631 17.5203 37.1377
13.0748 12.2333 31.6942
12.286 12.1363 23.5034
12.496 12.3701 36.0649
11.2949 12.1746 30.1538
17.1813 12.8284 26.4423
15.0297 13.6438 35.779
18.0173 15.3226 36.4542
15.0304 11.96 24.7144
11.8483 9.36322 22.5604
15.22 13.5727 32.9501
13.6781 14.569 31.0852
13.7657 12.118 32.4857
17.4568 15.0439 32.9098
10.4908 12.4554 36.1055
16.1604 14.9284 27.998
13.8169 12.6161 30.4084
11.0261 9.27303 22.5856
13.7541 11.9667 31.4078
12.3492 10.1121 23.3845
13.5074 13.2693 24.2101
10.154 8.81371 20.4693
12.281 11.7699 30.6671
12.7774 8.87994 23.1712
14.1552 11.939 24.5249
12.9447 11.759 28.593
13.5828 11.6121 33.2665
15.3045 15.2312 38.8466
13.7588 9.95044 20.5157
12.8474 13.0904 29.1493
13.4589 11.4464 31.8004
14.1149 10.0136 26.3927
13.6889 8.5772 24.13
14.6106 13.4479 29.0292
13.0673 12.7564 27.671
11.7768 11.9927 27.9083
12.0003 7.39485 18.9985
12.2184 8.49698 17.7777
11.7347 9.42362 29.2457
10.8268 13.0205 45.4513
16.8331 17.8481 33.0047
13.1671 14.9887 34.1589
13.2705 9.10186 22.3325
10.5502 13.2891 33.3864
