# pn-170911/CsIIA-39-USN3-1280-1959.psd
# Power spectrum* (dif=0,1,2) (really just |FT|^2)
# NOTE: only the first half! (symmetric)
# weeks: 1280-1959
# 2575 clock-days, 849 excluded
# PSD: 1441
71639 1.86213 0.0324707
2.57173e+06 30.6012 0.0200031
1.47217e+07 326.327 0.0257722
1.62799e+06 59.038 0.0226585
1.93462e+06 135.993 0.0297612
614666 59.3226 0.0264233
430109 58.8055 0.0297391
301861 56.3443 0.0325298
246331 60.8601 0.0367048
182354 56.3132 0.0421355
155086 57.945 0.0470924
127172 57.4108 0.0524606
108663 58.5944 0.0596016
93061.7 58.1342 0.0653122
81139.2 60.7259 0.0761106
68256.3 58.3196 0.0843766
61156.4 58.1486 0.0902511
52167 57.3823 0.099628
48708.5 59.6303 0.112047
42051.2 56.7124 0.114853
37004.2 55.7091 0.125163
34634.2 56.3097 0.1403
32094.4 57.4382 0.152088
28983.7 57.9743 0.166427
26470.2 57.4354 0.175378
24029.7 56.3882 0.185993
22297 56.4731 0.196984
20907.9 56.9134 0.216387
19369.8 55.2162 0.226372
17960.9 56.4565 0.245092
16785.7 56.2777 0.259819
15800.5 56.4201 0.280682
14887.5 56.564 0.291705
14276.1 58.0237 0.317053
13468 56.8163 0.32876
12150.6 55.5919 0.342587
11657.3 57.7106 0.378433
11126.2 57.0485 0.393097
10468.1 56.2317 0.406866
9781.51 54.6407 0.413223
9300.72 55.3611 0.442425
8763.63 55.1086 0.460049
8568.91 57.1991 0.502793
8220.11 57.3798 0.519527
7617.67 55.5313 0.529757
7464.08 56.4745 0.563553
7250.06 58.5512 0.611647
6760.45 56.4025 0.614965
6476.28 57.0189 0.646879
6454.92 57.0207 0.674208
6219.2 58.6801 0.717946
5723.01 56.1919 0.712566
5392.44 55.3176 0.724434
5419.78 56.682 0.771969
5242.65 56.6369 0.805038
4969.55 56.7462 0.835151
5048.17 58.6579 0.890222
4453.89 53.5365 0.839788
4540.69 56.213 0.91563
4287.24 54.6309 0.918787
4040.86 53.6165 0.933615
3996.18 56.6101 1.02075
3921.09 55.7956 1.0393
3864.41 56.4933 1.08758
3657.66 55.5597 1.10392
3607.72 58.0542 1.18201
3354.38 55.4912 1.16225
3386.55 56.5417 1.23155
3317.86 56.9608 1.27707
3079.88 54.874 1.2624
3067.51 56.1356 1.33384
2884.83 53.6307 1.30129
2909.18 56.5689 1.41437
2773.53 54.0098 1.38184
2676.01 54.3774 1.43941
2709.61 56.018 1.51065
2583.17 55.18 1.53213
2510.27 54.874 1.56383
2439.38 54.2027 1.58713
2448.07 55.136 1.65089
2367.18 55.4168 1.70017
2276.83 54.9133 1.73479
2173.06 55.7782 1.79343
2159.86 55.0809 1.81353
2073.74 53.1122 1.80017
2033.69 54.856 1.90266
1975.46 54.2003 1.91876
2001.2 56.0561 2.02652
1968.73 55.8414 2.06809
1878.17 54.9786 2.07188
1792.16 53.7811 2.0888
1768.98 55.3962 2.20538
1777.95 55.6408 2.24439
1662.91 54.7571 2.25393
1659.5 53.6971 2.25623
1631.07 54.571 2.35462
1536.69 53.9151 2.36685
1558.16 53.6392 2.40904
1564.29 54.729 2.51976
1522.57 54.9406 2.56511
1499.88 56.0588 2.67046
1428.41 53.8794 2.62461
1413.23 54.3385 2.68637
1426.54 55.2883 2.79389
1381.87 53.7393 2.77996
1341.83 53.3329 2.79377
1348.99 55.716 2.98606
1292.59 54.3944 2.97737
1228.43 52.7848 2.93318
1204.29 51.2774 2.90482
1213.12 53.5099 3.07846
1232.55 54.8893 3.21811
1160.7 54.2021 3.24813
1168.68 54.363 3.31833
1103.54 52.4784 3.24757
1095.45 52.9893 3.33356
1080.45 52.7413 3.37432
1038.59 52.6666 3.43045
1025.81 53.6388 3.54843
1036.82 53.8553 3.6148
994.862 51.5528 3.55054
995.215 53.4249 3.73528
977.192 52.2933 3.68676
976.751 53.5101 3.83713
900.461 51.3913 3.74962
915.522 51.8284 3.85254
931.673 54.828 4.14379
902.917 53.5434 4.10016
848.36 51.0172 3.96769
851.418 51.0731 4.02151
871.491 52.9039 4.26312
837.333 51.8837 4.2113
828.544 51.9613 4.28644
801.018 50.379 4.22086
794.274 52.2767 4.44992
805.809 53.305 4.60001
738.498 50.3479 4.42307
761.796 51.9646 4.61835
752.547 52.7083 4.74841
738.08 51.6398 4.71025
714.94 52.0522 4.85073
719.257 52.8412 4.97554
711.855 53.304 5.10156
706.012 52.5545 5.08553
685.192 51.2429 5.01926
675.036 51.3826 5.09753
664.648 51.458 5.18974
635.881 50.6032 5.18081
640.819 50.2547 5.18761
633.588 51.9184 5.4735
617.26 50.2554 5.3346
601.905 49.2009 5.29763
606.792 50.1194 5.47102
593.524 49.4598 5.4711
562.536 48.2799 5.39876
569.545 49.5892 5.63043
566.32 50.6251 5.82484
560.446 50.5003 5.8833
561.771 51.168 6.02594
547.934 49.8043 5.94352
542.048 50.5793 6.10324
558.994 52.0172 6.37864
541.129 50.4664 6.25138
514.178 48.5694 6.08854
526.702 51.3151 6.47286
495.215 49.5298 6.35815
501.286 49.4829 6.43427
484.071 48.4163 6.37153
488.73 49.5002 6.57059
474.631 48.6599 6.53019
477.159 50.459 6.86364
476.4 48.9827 6.73286
459.031 48.8393 6.79541
449.463 48.7839 6.87628
450.908 48.3443 6.87087
437.936 48.9015 7.1063
456.602 49.8318 7.25573
443.325 49.4168 7.34311
433.071 48.0783 7.20283
426.772 49.9539 7.521
403.512 47.5642 7.2363
423.122 48.3548 7.4395
419.016 49.998 7.80078
403.289 48.4205 7.63466
412.991 48.3991 7.68123
394.914 47.2351 7.62826
381.632 46.3279 7.51288
370.332 46.6436 7.74017
395.854 49.3237 8.13937
369.955 46.1184 7.71694
385.543 48.2744 8.21935
365.697 47.5464 8.1516
372.725 48.0106 8.29941
358.163 46.4729 8.13759
359.532 47.8118 8.48654
342.785 45.2654 8.05063
333.945 46.0817 8.3166
334.798 46.3699 8.39392
340.116 47.2474 8.73684
350.102 47.6193 8.86255
330.812 46.3732 8.67606
322.12 45.5804 8.65127
314.363 45.1911 8.67197
326.548 45.8802 8.84708
314.15 46.6535 9.13633
318.082 47.4819 9.33077
303.154 45.6334 9.04909
304.283 45.7843 9.20493
305.069 45.494 9.21565
303.183 46.7549 9.55311
303.459 46.4877 9.6089
296.49 45.3539 9.45005
282.002 44.6859 9.36932
289.66 45.3989 9.68157
278.446 44.4075 9.49989
274.376 44.0286 9.52264
272.902 44.0341 9.63922
274.536 46.8673 10.303
268.561 44.1072 9.82706
269.5 44.7592 9.97826
277.294 46.3061 10.4564
269.217 46.1299 10.5102
262.334 45.2762 10.5129
263.684 44.4912 10.2932
252.906 43.3234 10.1793
253.17 43.6312 10.282
253.557 45.6238 10.8912
240.272 43.9756 10.5554
245.655 43.9828 10.7201
242.648 44.0437 10.7744
239.27 42.9716 10.6628
242.758 43.5568 10.8044
241.073 43.7919 11.0311
232.728 44.1403 11.1447
230.764 43.8592 11.2217
228.284 44.6349 11.3944
230.329 43.5631 11.2932
227.347 43.4799 11.4369
219.869 43.9297 11.6806
219.084 41.9271 11.0372
220.969 42.6539 11.4281
212.734 42.3285 11.3849
218.122 44.3503 12.1177
207.272 42.2771 11.6743
217.741 44.2503 12.2164
215.224 43.4588 11.9799
199.874 41.6171 11.8097
203.03 42.7156 12.2079
200.7 41.6355 11.9284
204.041 43.5112 12.5813
197.124 41.7763 12.0574
193.746 41.1651 11.9844
192.313 41.7823 12.3313
195.536 42.0283 12.392
189.649 42.4136 12.72
189.569 41.888 12.6724
184.518 41.4549 12.6228
187.713 41.5652 12.6738
180.663 40.643 12.5137
181.732 42.5227 13.252
182.647 41.6416 13.1516
183.722 42.0467 13.2119
180.44 41.9979 13.3798
178.192 41.6998 13.4843
174.439 39.8733 12.7803
175.876 41.0492 13.4028
169.221 40.1533 13.0751
164.638 39.3274 13.0627
170.864 41.5808 13.7677
163.444 40.0144 13.4001
171.579 41.4349 14.0241
163.023 40.2054 13.6569
160.333 39.563 13.4453
161.661 41.26 14.3058
163.09 40.2596 14.033
160.377 40.3319 14.0765
158.716 39.6397 13.9584
161.608 40.6546 14.4186
153.879 38.8789 13.8556
156.791 39.9832 14.4035
153.492 40.6647 14.6961
153.234 39.4711 14.3512
149.061 38.9744 14.3637
143.834 38.245 14.1959
150.205 39.6085 14.5806
145.274 39.9795 14.9558
145.938 39.7801 15.0346
143.699 38.6207 14.6598
140.937 39.4453 15.1789
144.646 39.6824 15.2853
143.449 39.4536 15.3022
144.422 40.7858 15.8458
137.707 37.968 14.9788
138.083 40.0864 15.8722
137.721 38.5331 15.3365
136.743 38.8875 15.5559
134.145 38.6599 15.4868
135.649 38.3647 15.5417
132.84 38.0235 15.5267
130.199 37.8003 15.4083
132.666 38.6087 15.9731
126.9 37.9606 15.8256
126.18 37.363 15.6085
125.199 37.8861 16.0729
127.175 37.5984 15.8733
125 37.7689 16.12
125.018 39.3076 16.802
122.289 37.3588 16.0701
119.954 37.5581 16.4372
122.525 37.8204 16.427
118.23 36.789 16.3517
117.341 36.8181 16.3475
116.188 36.1425 16.111
121.002 38.7485 17.3041
122.382 38.366 17.4277
119.498 37.9693 17.0179
115.772 37.7719 17.3147
115.853 36.7836 16.9013
115.272 37.7869 17.578
112.966 36.7243 17.068
112.651 36.5274 17.0925
108.143 37.3107 17.5326
109.212 36.6521 17.3714
107.904 35.6657 17.0032
109.075 37.6576 18.027
107.599 36.3176 17.4511
107.622 36.8533 17.8801
105.161 34.939 17.0924
104.437 36.1737 17.7724
104.196 35.9204 17.8903
107.742 37.5946 18.4556
104.901 36.9636 18.6677
102.36 35.6411 17.9305
101.541 36.0828 18.0145
99.6155 36.7277 18.7217
99.9032 35.9382 18.4029
93.8918 34.126 17.6078
98.1995 36.3723 18.7482
99.2259 35.5158 18.4579
94.186 34.3135 17.8993
95.9475 33.2633 17.3584
94.5237 35.1377 18.5751
98.3927 36.4156 19.4272
95.5982 35.8775 18.9921
91.8319 35.3331 19.0523
90.9266 33.6375 18.1357
89.6973 33.8123 18.5311
92.4416 34.5229 18.754
90.1765 34.5048 19.0186
92.5827 35.1424 19.4758
92.3663 34.0282 18.6356
89.6141 33.4525 18.9333
89.7324 34.9615 19.5837
87.259 33.9743 19.2113
88.1681 34.4633 19.479
85.6749 33.5327 19.0628
83.2091 32.6928 18.7536
84.9112 34.6928 20.155
85.5535 34.0706 19.7851
84.1967 34.2362 19.7668
85.0302 33.9062 19.8381
81.8032 32.9787 19.4577
80.7689 33.2893 19.7091
81.5512 33.4783 19.9469
80.2476 32.8809 19.7952
81.8513 33.262 20.0217
78.8255 32.4616 19.6905
80.1627 32.8466 19.9659
78.0433 33.3874 20.4801
79.7997 33.0067 20.2016
77.7969 32.4653 20.0567
76.4468 32.528 19.9523
75.7377 31.7397 19.81
77.9122 33.0718 20.7143
75.9065 32.1906 20.3733
78.1273 33.839 21.4125
75.112 32.2922 20.3947
72.7437 31.6698 20.3045
70.7692 31.7494 20.6763
73.1698 31.3394 20.2096
71.5359 31.808 20.7898
74.0145 32.2355 21.327
72.7836 31.9669 20.9298
72.1493 32.287 21.1304
71.129 31.8827 21.0557
69.346 30.9669 20.5577
69.8902 31.5281 21.0883
73.2375 32.6175 21.5969
71.5471 31.9564 21.6162
67.4821 31.1564 21.2224
70.5058 31.7047 21.3756
72.322 33.4054 22.9021
69.4592 31.8831 22.134
68.0278 31.1031 21.1949
66.7992 30.3939 21.3067
68.2892 31.0515 21.745
68.8638 32.6987 22.888
65.8469 31.4277 22.1065
65.9905 32.0518 22.8675
67.1774 31.8514 22.4386
64.1529 30.8778 22.3077
68.3802 31.4183 22.358
63.4789 31.251 22.415
62.7615 29.8047 21.663
65.9499 31.2171 22.6095
62.5053 30.3474 22.2817
61.4951 30.0609 21.9778
61.7295 29.9683 22.0175
59.7384 29.5109 21.8807
62.0434 30.1054 22.5601
60.5693 29.3347 22.013
60.789 29.95 22.5375
60.1232 29.8938 22.5991
59.5514 31.1092 23.358
58.2355 30.0557 23.0241
58.1872 30.1837 23.2904
59.0926 30.5495 23.1855
59.8869 29.9396 23.2084
56.3724 29.2064 22.6874
57.1717 29.8115 23.2288
58.0166 29.5286 23.171
57.3476 29.0963 22.9131
56.243 29.1922 22.9687
57.5781 29.7043 23.5078
57.3897 30.0832 23.7128
57.2562 29.1829 23.4315
56.649 29.4357 23.7872
55.9384 28.4568 22.721
54.7556 28.8199 23.5873
54.7093 28.8512 23.5857
53.8044 28.8316 23.5884
53.2964 27.7974 22.6228
54.14 29.4576 24.179
52.9198 29.2867 24.5448
52.7028 28.4799 23.8129
52.3612 28.9398 24.1467
52.351 28.626 24.0527
53.0267 28.4102 23.7492
51.5677 28.5009 24.1722
52.2233 28.1714 24.03
52.3008 28.807 24.3399
52.0578 29.3276 25.2212
51.0494 29.4031 24.9587
50.8078 28.6084 24.7228
50.6134 27.8856 24.621
50.467 28.0747 24.35
49.8548 27.8044 24.222
49.0144 27.5753 24.1576
48.4045 27.4739 24.2624
48.2609 28.0807 24.9715
48.8898 28.234 25.019
49.0407 28.1648 24.6746
47.4326 27.9695 25.2734
48.5123 28.1694 25.3524
48.4629 27.3557 24.8634
46.9573 27.2828 24.9674
46.7612 27.0043 24.4154
46.9194 27.7468 25.4001
46.6779 27.9382 25.9657
46.648 26.5997 24.3105
45.574 26.8702 24.9071
46.7168 27.155 25.3983
46.7815 27.1938 25.2724
44.4374 26.3195 24.6367
45.7488 26.9349 25.4173
45.7897 27.2933 25.7456
47.091 28.2568 26.553
42.6876 26.0593 25.1278
44.9657 27.4416 26.0681
44.846 27.2975 25.9981
43.9859 26.6469 25.7059
44.1078 27.8034 27.0802
43.4556 25.7774 25.2509
43.5785 26.4125 25.459
42.4748 26.4836 25.7192
42.726 26.6516 26.0218
41.5305 26.1883 25.9255
42.1288 25.8877 25.6039
43.4086 26.5759 26.2524
40.6687 25.3215 25.6175
42.9595 26.9747 26.3541
40.6199 25.4332 25.5961
40.886 25.7666 26.2423
41.8173 26.0324 25.9716
40.6646 25.3034 25.709
41.0205 26.2591 27.0203
40.2317 24.894 25.4279
39.992 25.2431 25.5634
39.8871 26.09 26.9902
39.0917 25.5591 26.1152
38.6113 24.7903 25.7803
38.9669 24.5209 25.4587
38.6993 24.8831 26.5476
39.708 26.1538 27.2909
38.9257 26.0764 27.0401
38.2272 24.5832 26.3417
37.6065 25.286 26.6636
37.4071 24.4379 26.1987
39.4624 25.8237 27.7383
37.6151 24.9909 26.674
37.7743 25.0479 26.9346
36.9424 23.933 26.0542
36.9081 24.7753 26.6496
37.3259 24.9097 27.1601
37.4944 24.8807 26.9667
36.5211 24.7015 27.1588
37.091 24.9612 27.4734
36.661 24.407 26.6599
35.9938 24.7143 27.0684
36.5186 24.6116 27.8148
34.9853 24.4224 27.4484
36.6486 25.5456 27.9608
35.8512 24.3774 27.3744
35.0434 24.4123 27.7771
34.6173 24.5227 27.8156
34.8247 24.1145 27.1516
34.6049 24.1789 27.6095
35.414 24.3853 27.7333
34.8713 24.2821 28.0864
33.6441 23.35 26.7617
33.7023 23.979 27.5652
32.4957 23.7837 27.9067
34.6229 24.6332 28.8062
34.622 23.9507 27.901
33.2962 23.4811 27.6317
32.8797 23.1601 27.458
32.7559 22.8733 26.5784
33.0484 23.4746 28.3716
33.6501 23.717 27.7791
32.3054 23.9062 28.93
32.0747 23.1237 27.6675
33.7955 24.0996 28.2738
32.6383 24.1758 28.9011
31.5347 22.4372 27.0559
31.2802 22.7396 27.547
30.8518 22.4826 26.9508
30.9839 22.8698 28.1465
31.125 23.2561 28.4701
31.0507 23.2691 28.2792
30.6259 22.5451 27.9528
30.4139 23.0036 28.3073
31.9749 23.4736 28.5467
29.945 22.1029 27.7493
31.432 23.2374 28.6311
30.3169 22.7383 28.7164
30.3935 22.9847 28.6111
29.7403 21.8408 27.3274
30.2329 21.9597 27.5393
29.3072 22.1702 28.1527
30.3435 22.9194 29.1942
28.9137 21.5618 27.8153
29.7314 22.0526 28.3243
28.2468 21.6475 28.2356
28.8628 21.9678 28.1402
28.8321 22.5401 28.8146
27.8667 21.4751 28.0995
29.0584 22.546 28.8112
28.672 21.6381 28.3069
28.743 22.2463 29.2774
28.7047 22.5044 29.5743
28.477 21.6053 28.8488
28.1846 21.5527 28.2132
27.5026 21.2582 28.0816
28.1519 22.336 29.733
28.2806 22.5229 29.7671
27.9858 22.1751 29.9267
28.5778 20.9002 27.9375
28.1396 21.9786 29.1681
27.9046 20.983 28.1406
27.1921 21.8806 29.5627
27.8011 21.6281 28.9888
27.091 21.4653 29.1321
27.5334 21.5325 29.4583
26.74 21.5239 29.4267
26.9847 21.3108 29.8162
26.5021 22.2726 30.379
25.5477 20.5573 28.5942
25.7806 20.6798 28.8241
25.8398 20.138 28.3983
26.5235 21.7937 30.0993
26.3213 21.2983 29.3973
25.7063 20.5866 29.0573
25.7343 21.1694 29.6842
25.33 20.8321 29.2608
26.1608 21.3281 30.2347
25.0537 20.8579 29.9832
25.8464 20.8861 29.8667
26.6959 21.5566 30.4056
25.5652 20.9698 30.0301
25.2993 20.6971 29.2896
24.8557 19.9042 28.6348
24.8139 20.4021 29.3509
25.6741 21.411 31.1144
24.8073 20.8735 29.9812
24.6761 20.6191 29.878
24.3364 19.9387 28.844
23.7405 20.1249 30.0415
23.9967 20.0029 29.6597
23.9196 20.3149 30.1471
24.0797 20.4027 30.0179
23.7813 20.2147 30.3025
23.8902 19.5642 28.499
24.0317 20.285 30.1695
23.3493 19.3747 28.8916
23.7329 19.889 29.5976
23.6279 19.4787 29.6755
23.1884 19.8615 30.2805
23.7152 19.9775 29.6918
22.7806 20.358 31.1733
22.9846 20.2207 31.1521
23.8143 20.2617 30.1337
22.9516 19.554 30.1962
23.1792 20.4863 31.0617
22.6205 19.4392 30.4351
23.1764 19.2329 29.2167
22.8823 20.0056 30.9006
22.5591 18.9201 29.4689
22.7016 19.4427 30.1709
22.1955 19.4772 30.5437
22.5125 18.7883 29.0413
21.4394 18.8979 29.7824
22.0231 18.5679 28.8771
22.302 19.5848 30.5624
21.7531 19.216 30.991
21.6222 18.9704 29.8737
21.296 18.296 29.5604
22.1686 19.7073 31.3191
22.1419 18.7949 29.8503
21.3651 18.7581 30.1744
21.3619 18.7848 30.3074
21.3737 18.9592 30.3715
21.2909 18.6838 30.0698
20.8837 18.8629 31.0801
21.1948 17.9633 28.9443
21.1307 18.7878 30.1521
21.2596 19.3228 31.9387
21.0519 18.7558 30.9588
20.8119 18.8925 30.256
20.5342 17.8783 29.3743
20.3441 18.6934 31.2844
20.7686 18.9006 31.5575
20.9968 18.5045 30.2247
20.4818 18.1352 30.1377
20.5299 18.6096 30.6101
20.0553 17.9851 30.1573
19.9636 18.5932 31.1578
20.7284 19.6722 32.6277
20.1018 18.2788 31.2597
20.3523 18.3827 31.1383
19.8933 18.3694 31.3502
19.8351 18.2748 30.4227
19.4868 17.8464 30.5522
19.5081 18.2791 31.3903
19.9386 18.1036 31.0092
20.1018 18.4882 31.7703
19.7817 18.2021 31.0375
19.3473 17.9333 30.3944
19.2453 18.4357 31.9818
19.0039 17.781 30.6439
19.0363 17.8825 31.6122
19.1022 18.1724 31.0338
18.5905 17.3824 30.5719
18.6602 17.6909 31.282
19.4358 17.858 31.0393
18.9679 17.438 30.3928
18.9817 17.6905 30.7886
19.1935 18.558 31.9316
19.1601 18.2618 32.455
18.1249 17.3158 31.2151
18.026 16.9982 30.5049
18.082 17.1145 30.1434
18.6091 17.8583 31.7141
18.832 17.6354 31.799
17.909 17.4035 30.8337
17.8884 17.3371 31.962
18.6254 17.2468 31.2025
18.0646 17.3326 31.4265
18.0955 17.8524 32.6955
18.1316 17.1046 30.9543
17.6739 16.7474 30.9799
17.9393 17.3677 31.7241
17.7631 16.7961 30.766
17.8151 16.7621 29.9438
17.2499 17.1468 31.6545
17.197 16.9786 31.5519
17.6376 16.6214 31.0211
17.599 17.0887 31.5614
17.602 17.229 31.3433
16.9731 16.6988 31.153
17.1049 17.0014 32.1098
17.0443 16.4334 30.5849
17.367 16.987 31.5223
16.8391 16.8538 30.8425
16.8547 16.4697 31.5157
17.2868 17.1604 32.1888
17.0675 16.0023 30.5405
17.0459 16.38 30.6535
16.8324 16.5332 31.3636
16.1295 16.038 30.9462
16.9162 16.212 31.1697
16.6686 16.4766 31.8635
16.7929 15.7476 29.8343
16.8698 16.754 31.3901
16.4292 16.4143 32.1126
17.2077 16.6691 32.2145
16.9082 16.5154 31.1538
15.8455 16.2592 32.269
16.5825 16.9131 32.5007
16.3632 16.2845 31.7658
15.9603 16.0706 31.9786
16.4422 16.0732 31.2639
16.4768 15.8604 31.0457
15.9023 16.1172 31.4574
15.7362 16.2984 32.4612
15.817 16.1007 31.4557
16.1689 15.9184 30.9667
15.7789 16.096 31.3435
15.2951 15.9854 32.1676
16.1359 16.1446 32.0036
15.9267 15.9071 31.1983
15.6252 15.6984 31.681
15.2759 14.8986 30.059
15.7413 15.2461 30.7993
15.5097 15.4615 31.4616
15.1126 15.6346 31.5915
15.426 16 31.6163
15.3715 16.2396 33.1045
15.342 16.1324 32.4726
15.3805 15.2846 30.5671
15.2866 15.3778 31.2546
14.7938 15.264 32.248
15.473 15.1006 30.645
14.9789 15.9015 33.0032
14.8738 15.4248 31.5739
15.2776 15.8951 31.9875
14.53 15.1879 31.0768
14.4733 14.8104 31.0624
15.3735 14.9138 30.5304
14.5709 15.9586 32.9213
14.7647 15.097 31.844
14.7066 15.488 31.9247
14.8501 14.9907 31.2707
14.4357 15.064 31.3113
14.0019 14.6541 31.4144
14.186 15.2306 31.7424
14.5668 15.7801 33.7907
14.3977 15.1183 32.3463
14.4613 15.6867 33.3677
14.3072 14.9231 31.2577
14.0648 14.4825 31.1591
14.8722 15.6377 32.8651
13.9677 14.7842 31.6445
14.2062 14.997 32.3078
14.1797 14.8277 31.6254
14.3307 15.2214 31.6559
13.7848 15.0985 32.92
14.1344 14.9886 32.6065
13.9618 14.7363 32.4645
14.1845 14.2546 30.3473
13.8482 14.0726 31.1336
13.7619 14.7728 32.3009
13.996 14.6567 31.5016
13.5647 14.4403 30.9848
13.7873 14.8299 32.1789
13.745 14.1184 31.0015
13.6175 14.8772 32.6326
13.5 14.3084 31.4495
13.4843 14.0509 31.3775
13.6629 14.0075 30.7283
13.3793 14.1538 30.9978
13.754 13.7706 30.0846
13.3651 14.0422 31.705
13.4622 14.3663 31.8561
13.4114 14.1099 31.8672
13.2267 14.1099 31.982
13.3828 14.0372 31.2378
13.5443 14.8628 32.2888
13.0137 14.0761 31.974
13.1296 13.7875 31.6781
13.4673 14.3685 31.8547
12.8951 14.3268 32.184
12.8923 13.9475 32.0903
12.7589 13.9213 31.5786
13.0191 14.2045 31.42
13.0295 14.3954 33.3418
12.8157 13.6655 31.4709
13.1719 13.5119 30.8586
13.293 14.5427 32.6077
12.7582 13.9208 31.9184
13.0717 14.7506 33.9065
12.7237 13.5683 31.7277
13.1483 13.7913 30.9519
12.6021 13.8036 31.9389
12.5162 13.796 32.0317
12.2702 13.8199 31.8426
12.6029 13.6745 32.0026
12.3552 13.5055 31.461
12.4607 13.3888 30.2539
12.032 12.8604 30.2064
12.3545 13.4333 32.2915
12.3304 13.3611 31.9713
12.6874 13.8265 32.1526
12.5845 14.0864 32.6478
12.264 13.6915 33.3835
12.4538 14.0252 32.8734
12.221 13.4819 31.1089
12.0728 13.376 31.9057
12.2217 13.617 32.248
12.3426 13.5802 32.8446
12.4479 13.1892 31.401
11.9971 13.3257 31.9463
12.3027 13.6125 32.3563
12.346 13.7015 32.6788
11.8448 12.8453 31.6284
12.228 13.589 32.542
11.9772 13.276 31.3597
11.8465 12.7559 31.2023
12.0992 12.8667 30.8941
12.2831 13.1875 31.9775
11.9026 12.8024 30.8427
11.779 13.6952 33.4769
11.7218 13.1051 31.7382
12.0798 13.0582 32.1182
11.6342 13.1481 31.793
11.8438 12.7996 31.1898
11.707 12.658 31.249
11.8881 12.8158 31.9208
11.4752 13.3424 32.5056
11.4328 12.5453 30.7214
11.3904 13.0737 32.3771
11.3914 12.7981 31.8753
11.5582 12.7129 31.6836
11.6735 13.3366 31.9761
11.4761 12.6731 32.0893
