# pn-170911/CsIIA-26-AMC2-1280-1959.psd
# Power spectrum* (dif=0,1,2) (really just |FT|^2)
# NOTE: only the first half! (symmetric)
# weeks: 1280-1959
# 1 clock-days, 0 excluded
# PSD: 1441
4604.29 0.0495107 0.00352904
97959.3 0.173997 0.00372048
634807 16.0332 0.00558501
2208.18 0.264618 0.00395224
172705 13.0667 0.00871829
31722.3 7.17756 0.00399365
23843.3 7.58249 0.00410664
45430.7 14.0278 0.00215317
27042.9 5.52278 0.00128246
1184.93 0.0123521 0.00394396
5818.8 4.31951 0.0102021
930.481 0.0115393 0.00360665
3968.71 2.78063 0.00060138
4243.44 1.9304 0.0008496
1731.63 3.83482 0.0106266
3705.85 3.23053 1.29937e-05
17454.1 15.4267 0.0307158
8151.04 10.9662 0.00379415
16222.9 21.6871 0.0165905
3536.28 4.05018 0.0194101
4934.68 5.49167 0.0157986
13415.4 35.9654 0.0927294
673.22 1.93853 0.0161908
482.88 1.54831 0.00141057
175.844 0.260727 0.00733069
2682.92 5.02496 0.0295945
5774.46 12.4185 0.042597
2258.56 7.605 0.0508422
1846.94 3.8927 0.00732416
1827.74 5.86376 0.0456189
5749 17.5521 0.0716959
1644.07 4.59153 0.0357146
1902.15 5.83341 0.0427082
1025.68 2.6506 0.0146046
1149.67 8.99908 0.0360354
13.8243 0.686371 0.00563123
487.027 1.08342 0.0145777
279.901 2.84641 0.0362791
664.201 5.37428 0.0664315
560.315 3.95282 0.0118295
593.12 5.07152 0.0681661
155.837 1.23543 0.00298114
557.831 5.04274 0.0753235
17.9067 0.893194 0.0236987
4019.34 33.0916 0.231457
252.474 2.92349 0.0142888
338.994 3.864 0.0218733
1315.72 9.54778 0.0738937
1460.81 17.3431 0.150789
493.021 4.29405 0.0718093
612.687 4.53816 0.0753243
721.202 6.85462 0.12096
126.466 0.439286 0.0174628
296.242 1.87461 0.0130114
7.38029 0.344102 0.00612724
567.372 7.41002 0.1551
90.5553 0.795763 0.00263281
1406.02 17.8706 0.212559
1634.09 19.438 0.318818
107.938 0.756986 0.0286021
461.172 12.3265 0.230748
95.2736 1.05467 0.00554851
637.49 7.22292 0.117565
321.748 7.73154 0.114228
548.395 8.96599 0.224561
324.492 3.43983 0.0604343
112.538 2.90343 0.0357479
269.276 5.04722 0.0742188
27.6668 1.71735 0.0499335
44.7 1.20986 0.0524112
543.491 17.8878 0.401682
469.111 7.02791 0.133002
352.043 7.4796 0.231699
23.9517 0.0073939 0.00311497
58.066 4.15489 0.127751
374.273 6.59466 0.136386
364.737 12.9653 0.433753
197.727 2.14742 0.0453017
711.443 15.5742 0.377893
180.699 4.96489 0.115
12.7588 0.00581072 0.00160243
189.931 6.18316 0.248677
421.778 16.004 0.450825
188.902 8.53423 0.32689
30.6196 2.86051 0.103418
260.115 6.31995 0.246347
121.834 7.07143 0.327938
42.684 0.0933249 0.0128866
333.479 6.43636 0.197083
517.954 14.3611 0.580129
611.965 17.1196 0.658147
255.092 8.11345 0.258873
8.09478 0.0354459 0.000431601
205.202 9.1038 0.453057
358.113 9.40559 0.378986
550.953 18.7862 0.890775
59.3769 3.17238 0.084425
5.5826 1.24853 0.0705581
228.671 7.21639 0.384486
42.4706 1.16559 0.109383
66.2843 3.7118 0.108922
200.158 12.3637 0.533797
32.6429 0.409014 0.0327521
96.2445 4.39733 0.185467
122.079 9.3967 0.514882
199.396 9.92621 0.622227
41.1199 0.472477 0.0143891
70.1123 5.06891 0.385047
92.5657 2.06115 0.0668648
94.7466 2.69586 0.17766
32.6478 0.462151 0.0382917
133.781 7.10405 0.29623
82.6924 5.18133 0.253257
47.7709 1.02473 0.0500882
11.5296 0.593816 0.0215324
20.3065 0.281994 0.0315964
29.5316 3.19343 0.174397
42.8338 4.14819 0.31911
31.1948 4.3 0.410374
133.237 7.96518 0.450795
666.3 36.0069 2.40728
60.2218 6.96056 0.500897
226.479 11.2524 0.747886
15.0952 2.72017 0.170619
21.2152 0.312342 0.0246475
163.466 12.511 1.01995
118.671 13.8629 1.35554
191.879 12.3897 0.705043
69.6654 3.48034 0.191962
62.1794 2.67986 0.159982
105.613 4.82467 0.388307
10.3919 0.0937038 0.000862076
146.923 11.3253 0.906603
187.123 15.1325 1.34018
109.739 5.72184 0.368356
183.275 10.9808 0.952749
75.1087 4.71572 0.526149
53.8687 5.69329 0.464202
13.2123 2.77534 0.243654
115.26 11.5793 1.18699
28.1763 3.52098 0.492929
234.911 17.3845 1.80129
1.16531 0.368099 0.0454433
148.073 18.1733 1.58407
24.3899 1.81106 0.124383
49.9394 9.84431 1.15191
41.4506 1.37009 0.059968
204.263 14.7947 1.49942
69.3597 4.82072 0.470522
5.62013 1.24246 0.162831
24.3829 4.50907 0.435689
22.8507 0.859173 0.0509058
5.6902 0.181013 0.0485031
5.78377 0.200361 0.0198185
192.896 16.7705 1.83376
64.1958 7.6066 0.985865
45.3812 3.88622 0.327974
14.7342 2.72891 0.277947
32.226 2.85719 0.366663
14.9104 3.20295 0.349046
68.0654 11.6774 1.66114
38.5981 6.22154 0.648675
1.9436 0.796507 0.186058
19.4684 5.22565 0.728486
125.492 13.2543 1.47216
41.9006 4.55426 0.670003
21.5471 4.57435 0.533293
1.06294 0.245062 0.0728572
37.4986 4.54096 0.498278
59.5672 13.3838 2.11678
59.2668 8.86163 1.19376
69.5821 3.87792 0.268851
202.642 23.0038 3.06765
18.7776 2.21803 0.286175
2.87048 0.0792028 0.0387927
50.6041 4.22303 0.52102
9.30345 0.425225 0.0690358
17.4522 1.44207 0.292324
101.038 21.9157 3.37773
13.5625 0.248382 0.084833
74.2346 6.87613 0.816066
15.1436 0.970827 0.146646
27.6681 3.13116 0.5101
1.05896 0.702593 0.169743
78.786 7.2656 0.976499
14.874 1.26197 0.214966
69.1865 7.52278 1.237
50.9145 7.9587 1.41667
57.755 14.3973 2.409
31.3606 5.29654 1.12137
38.2901 4.3061 0.89362
74.6374 9.33938 1.8326
0.788606 1.02636 0.314019
49.4369 8.57662 1.16399
21.8027 2.24855 0.302227
60.7475 6.1736 0.980709
74.4724 10.2319 1.98819
17.594 4.56738 0.952689
15.0665 1.56461 0.531269
47.2223 6.74739 0.831571
41.0518 5.53471 1.2847
47.9255 9.46051 1.29906
15.4591 6.0159 1.17462
82.7587 12.0091 2.38754
24.9541 7.21811 1.30643
63.7447 9.87715 1.94405
64.478 17.021 3.06554
15.1355 1.30411 0.307513
22.658 5.84453 0.990698
39.3861 13.1412 2.79029
6.0542 0.0279917 0.00285092
1.371 0.323054 0.148539
65.8403 19.2122 4.28123
54.3036 5.76742 0.95355
4.15845 3.17381 0.808655
16.7201 0.947672 0.173983
90.1816 18.3573 3.86773
3.2735 3.08258 0.901414
38.6966 3.89842 0.652852
20.4119 2.30189 0.413137
13.9779 1.68369 0.357214
16.5624 2.54115 0.653899
6.324 2.14363 0.569863
19.8087 3.07288 0.982236
6.72289 1.96599 0.283288
8.78399 2.00867 0.586575
48.4983 15.4114 3.20232
11.0064 6.76218 1.86338
6.76455 1.90199 0.711396
26.9017 10.3861 2.80669
28.6789 2.98203 0.557659
2.01505 0.297946 0.0767608
0.504745 1.57494 0.653603
25.4156 2.29509 0.360523
39.5556 6.64787 1.78195
10.2808 1.7481 0.311888
3.62373 0.833134 0.229808
7.90462 3.51507 0.913801
2.15963 0.351266 0.219458
35.2014 7.05979 1.86836
3.54959 1.29156 0.185143
54.9077 16.863 4.94191
30.9164 12.6992 3.50744
2.66255 0.435926 0.35707
31.8341 3.92933 0.676535
8.43143 0.511351 0.0682774
46.5835 10.2136 3.26813
39.445 14.06 3.79721
21.2126 3.72709 1.36144
17.409 5.65544 1.2303
5.01414 0.480371 0.137177
5.18415 0.630603 0.326709
6.94782 2.75604 0.439997
75.3166 32.0227 9.96916
1.77339 1.15024 0.800034
6.99122 0.551721 0.364819
3.08145 0.438306 0.439205
92.7275 20.2112 5.29879
0.705934 0.00884535 0.00327805
16.8474 3.9784 1.65261
35.1655 11.2509 3.01433
12.0599 8.2763 2.98428
13.4573 1.31164 0.293094
13.27 5.2289 1.97281
5.09543 5.1946 2.27164
3.70741 0.742366 0.311184
10.8817 2.4771 1.22134
1.90716 2.87209 1.69386
66.8471 14.0842 3.21195
15.7166 5.22355 1.63679
0.348068 0.147003 0.0580153
9.61467 7.21813 2.74966
1.85194 2.0277 1.46623
95.1082 28.3105 9.89043
32.8935 8.02906 2.06063
60.0213 20.009 8.08156
46.1967 10.9108 2.5453
1.48128 0.192465 0.230301
14.6034 3.075 0.66419
17.7142 4.74702 2.34449
41.4829 15.4644 4.65837
37.9023 21.1147 8.02311
4.5256 0.0942993 0.368797
33.5312 10.9624 4.05208
47.1751 10.4018 2.93276
23.5028 5.7708 2.18055
13.9665 5.05334 1.808
0.330342 1.31536 0.661611
24.7864 6.14573 2.34839
5.28408 4.81713 2.13928
71.0227 21.4556 8.20489
1.31904 0.778083 0.488801
10.584 4.3539 1.33698
3.49656 3.33761 1.44639
3.27247 0.800609 0.691797
1.36341 0.311011 0.0912056
9.19525 4.33829 1.47686
34.3985 9.90085 3.89282
6.17947 2.78514 0.962567
5.85598 3.96106 1.50466
8.20509 6.83717 2.89998
9.36139 1.59388 0.347641
8.28409 3.50404 1.45346
1.4107 1.68597 0.581028
7.85717 5.95163 2.18236
0.265331 0.984 0.47822
16.3466 10.6259 4.59978
1.02962 1.34299 0.90139
6.39035 7.85335 5.02547
13.5378 1.57644 0.445826
41.5997 25.9954 12.6257
39.0449 8.99588 2.80789
4.65382 0.806716 0.211317
1.90819 1.78685 1.2506
7.75536 0.941979 0.568612
20.9994 8.59527 3.22213
11.342 4.0738 2.31199
33.8004 10.4155 4.35998
21.4268 11.6891 5.51
0.0461912 1.21106 1.18654
6.78508 1.94704 0.461264
16.7906 5.87524 2.67309
9.86949 8.65659 4.23449
8.4058 0.765431 0.0970094
23.6797 10.0076 5.87163
21.3976 12.9347 5.51446
19.8716 8.16285 5.01613
35.4833 14.0605 5.12593
0.87801 1.42075 0.785511
3.11934 0.726844 0.500561
7.0967 4.78938 2.04805
1.31586 1.81305 0.727346
0.760629 1.46213 0.688665
0.717063 2.00052 1.1465
0.428723 2.1628 1.7536
29.7762 12.0569 6.1206
8.35482 6.84375 3.0263
2.47474 1.37789 0.849345
15.6693 12.8534 7.37036
12.3038 2.35591 0.906093
0.480701 0.923345 0.208005
21.7226 18.4659 10.4923
1.92487 3.37417 2.72911
1.42824 1.37518 1.32353
6.01926 5.93783 4.6476
0.5215 1.41686 2.58348
16.3788 2.19083 0.257078
10.0756 1.95769 0.611557
0.373042 2.42004 2.22972
21.3412 8.46034 5.64815
19.5498 6.46876 1.7677
8.43116 6.84293 2.9913
17.7872 15.5743 9.92483
1.20857 1.79868 3.12211
19.4223 7.62917 3.8048
29.8917 14.099 8.8067
32.4346 12.4531 5.59711
12.2199 7.5339 4.33072
2.24845 0.934138 1.26376
0.610246 0.791898 1.72909
24.2669 8.83339 5.26625
7.23768 2.78239 0.554273
3.53534 6.24617 4.96823
10.4126 2.52939 0.906145
0.259571 2.83932 5.07245
60.933 24.3445 9.79802
6.09664 0.261743 0.209532
76.4692 37.6665 19.8576
0.703309 0.515575 0.848367
0.67088 0.813452 0.279066
1.12394 3.28071 2.66003
14.1754 7.90071 5.06536
20.938 6.98494 3.24021
6.09653 2.47719 1.68008
2.46296 3.07215 1.93003
16.2597 13.459 11.8197
57.9148 27.2233 13.6182
8.64807 3.7038 2.17355
6.18406 2.8318 1.40022
2.42104 0.776366 0.595897
5.48575 1.72379 1.12271
1.06825 1.00284 1.07958
4.77344 1.65792 1.38222
6.1148 8.88484 10.7907
21.6195 10.1757 4.67945
31.189 12.8573 4.50634
32.6764 17.5631 9.60876
2.3202 2.50545 1.63379
12.1986 8.69112 6.81926
2.45652 4.25121 4.00175
14.2849 4.14769 2.01195
23.7442 11.0288 6.32647
15.3277 10.5367 7.17127
9.57477 4.53428 3.55502
1.80458 2.25252 3.15035
1.06209 0.183163 1.59187
25.9664 13.5642 6.75899
0.0370885 0.0807223 0.289611
26.0362 18.3336 11.3229
1.72655 2.86583 3.84592
4.9533 4.41451 2.04921
1.7454 4.67229 4.47261
11.1231 5.18927 3.54569
17.6242 10.2353 7.98292
1.61728 0.85297 2.07958
7.84812 3.87445 2.14921
7.64441 7.7401 8.07
8.32964 2.91716 0.636693
3.87899 3.06824 1.83804
5.68484 7.09274 4.61036
6.9031 6.91886 8.18907
11.4748 5.29563 1.55095
9.61718 15.5247 14.6218
23.734 9.59562 3.91299
6.26843 10.197 9.03294
18.428 8.58565 4.38236
2.50413 0.434738 0.0793931
15.1674 15.1765 13.8838
11.0889 4.48885 2.06506
2.91351 6.1257 6.46492
16.1479 7.49304 4.02203
2.38799 1.67079 2.32243
3.46705 1.7143 0.571623
1.15391 2.74025 1.82592
0.828765 3.04351 3.39753
3.1645 0.568248 0.320169
0.128183 0.454361 0.510175
1.42126 6.59142 8.68052
15.5575 4.72228 1.91128
1.31158 0.227543 0.00703923
2.43842 4.26134 3.85913
0.458939 0.894364 2.33265
8.28665 2.33677 0.984612
1.06959 1.98477 3.28243
8.38476 5.70793 4.53282
4.49451 0.656296 0.262524
1.43283 7.20889 10.0427
6.67209 2.0037 5.31517
33.666 13.2416 5.09274
13.5915 5.54881 2.56623
9.10144 3.76186 1.18056
12.2269 8.54385 7.09214
7.28455 3.71012 2.72601
26.0067 16.0061 11.2542
6.112 5.59809 5.0411
5.84311 2.26566 1.45433
10.9691 10.3642 9.77355
1.92746 3.88127 4.53718
8.18541 3.50215 2.54761
8.82081 4.40973 3.50347
19.0585 10.9158 8.13052
18.3365 12.7423 9.82039
1.41027 2.47496 4.53799
11.5951 7.20948 3.57171
17.4776 12.7767 10.2001
11.0133 8.92263 8.81931
3.13341 2.79879 3.66826
0.440708 0.765444 1.42835
1.25684 1.43702 0.354982
1.96284 4.85452 4.43097
2.20264 5.16196 8.01776
20.579 10.8982 7.14781
8.37173 5.86057 6.82264
3.27483 1.7298 0.615656
13.231 11.5888 9.70223
7.54117 3.63845 2.86417
0.966445 1.34676 1.79153
17.191 13.0248 12.1401
0.440036 0.438437 0.0371267
1.03499 0.530607 0.436602
1.70544 1.14313 2.01447
2.93296 5.79434 5.12915
3.06654 4.11961 6.85318
11.666 5.3255 4.39788
6.64152 5.33684 3.13894
1.51809 1.85843 3.16369
7.18463 5.67484 6.96649
16.0325 6.41655 1.69726
24.5473 23.8855 25.5658
7.72047 10.1715 9.85513
15.7369 7.78356 4.15494
4.83888 2.57551 1.44512
13.2358 11.9259 11.8092
15.8548 16.3295 18.628
0.536704 0.752466 3.08162
2.18504 1.74957 2.72946
3.90107 4.6505 2.6777
3.01021 2.27162 2.24333
5.4586 7.30056 12.553
5.14238 4.4755 1.81978
1.06851 0.562222 1.37362
0.0652086 0.0936028 0.201205
1.33063 2.14786 1.14675
0.227096 0.481781 0.821211
3.90497 3.98262 7.28147
5.88214 5.87181 2.09279
4.28252 8.95303 9.08252
2.88571 1.02662 0.551874
1.01602 2.18421 0.843682
6.46226 16.195 19.4084
6.44768 5.02177 6.1128
6.81855 8.30333 13.3186
8.8303 3.15688 1.73483
0.195216 2.32783 4.59261
1.95964 1.59517 4.5569
13.6941 8.04707 5.0742
2.14867 0.240753 1.38392
12.5912 6.46364 3.26384
14.4232 14.5319 15.4388
1.35617 0.718023 3.69149
10.3573 6.9392 3.43808
1.39752 1.42743 1.44597
11.8034 8.88914 7.01738
5.19328 8.12079 13.7558
10.2391 14.5329 19.5722
14.9762 12.6558 7.47316
1.36188 5.84413 10.532
7.85496 2.10621 0.934155
24.3521 23.2056 22.7035
7.58419 8.02568 12.94
16.5664 18.7435 18.5842
0.252835 0.260323 0.331617
1.10892 0.429328 0.570263
5.45405 6.90111 10.9308
0.163363 0.506967 3.33316
5.49506 5.7824 3.18246
0.838447 0.558732 1.01755
12.9269 13.1954 15.8565
0.0219777 0.498247 3.84692
7.60816 8.25647 7.95732
0.424847 0.294208 0.540424
0.252511 0.407626 1.05291
5.19941 5.77264 3.102
3.05949 2.80167 2.32035
3.85978 7.43499 15.7516
15.702 20.0667 14.5547
4.07546 12.824 17.2565
2.43067 1.71151 4.42841
4.85465 1.0535 0.431717
7.4091 5.87957 6.84398
3.56901 2.57133 2.57797
7.02777 8.63519 7.46746
2.81513 5.70665 5.93077
5.1836 14.3833 23.2406
5.81126 7.27515 6.4221
3.22498 7.80662 10.7741
7.1313 7.47353 12.4547
13.0616 26.3519 32.4969
0.864006 3.95378 19.7214
24.9392 15.1933 9.43419
6.89671 12.3675 15.1239
5.65451 1.41371 1.20495
11.3302 8.88136 7.18161
7.79066 8.25378 10.4309
0.615564 0.905986 2.68289
2.55728 6.95944 9.53919
5.81512 2.3815 1.05395
2.05489 2.57793 6.10409
5.76174 2.47415 0.40717
22.2649 34.0233 39.1832
0.255442 3.50027 13.2691
5.58168 3.93743 2.7265
3.22761 1.42436 1.18331
5.59511 7.5584 13.7135
2.11685 1.80624 1.06341
3.91836 3.31236 4.58877
0.377583 0.774175 3.0865
5.2459 10.1382 14.2653
1.09685 2.96248 7.83805
6.64881 3.17374 2.07589
5.50006 9.10366 9.34521
3.63394 6.27387 15.6239
17.3017 20.7959 18.9146
1.18593 0.148657 1.84672
7.56819 4.88334 1.81959
10.8001 19.4523 30.3146
3.79704 2.33424 2.0681
2.63562 7.41745 13.2858
6.60368 4.28856 2.9486
0.344939 0.621425 3.32184
8.20047 12.4712 14.2793
0.442959 0.350934 0.896496
3.89501 5.38944 9.89941
0.348218 2.60312 8.86032
6.36457 7.00633 6.43064
2.03434 0.0285335 2.42369
18.2863 21.1751 24.647
0.965423 3.35614 14.0137
5.40292 3.65987 1.81448
4.77985 6.05714 1.94782
3.52332 7.1613 6.0203
0.859522 3.9533 4.72341
0.662903 1.23771 4.95568
5.93698 11.3312 8.56522
1.28711 7.49423 11.242
3.82004 9.85093 20.5132
3.40229 0.876069 1.13263
3.28152 2.09847 1.83871
0.343269 0.133272 1.41227
3.86432 8.02577 9.31094
1.49097 8.23084 16.2433
6.83895 9.64709 18.8997
17.0372 23.6313 32.5674
3.5929 6.19183 9.69364
2.86473 1.79541 2.80138
2.10406 0.220555 0.091198
1.05189 0.918081 2.16929
2.25194 0.577548 2.61792
11.9253 15.9043 20.6047
1.25789 4.54922 8.49213
2.97705 1.01672 0.416845
0.310947 2.76728 6.17195
3.05632 0.503834 0.318579
5.35427 5.11215 6.50491
0.408404 1.55553 2.19235
0.436843 2.19161 10.0333
8.31076 6.07651 1.81358
6.02552 11.4764 17.3569
0.310532 0.0939502 1.55354
3.33735 12.0184 20.6902
6.55281 8.25176 18.1892
7.65527 4.55414 1.38979
1.29827 3.41585 8.06091
5.81656 3.27422 1.62216
0.540515 0.0778857 0.864967
3.91949 3.05976 4.50889
6.60666 6.19999 5.53747
1.80146 2.24881 3.39385
0.963038 0.935976 1.50018
1.08161 0.602746 0.470598
8.67092 15.5725 23.6079
4.0762 12.6382 21.9026
1.10947 0.900794 5.60501
0.061484 2.71868 13.0344
3.9834 5.14116 7.35196
3.95651 1.78858 0.592189
0.399463 0.600082 1.57879
1.5068 0.940122 1.95573
4.11417 2.2071 2.32504
4.96646 5.21946 5.84506
2.69634 3.6975 6.64441
5.29959 9.10518 5.37078
3.93662 8.38387 8.60373
1.93699 8.01923 12.682
1.71637 13.5863 31.7987
4.15511 5.93014 24.7859
7.59231 3.5077 0.150177
3.97534 8.65146 29.3464
8.83982 11.3879 17.307
19.7232 28.7381 20.9875
1.93404 9.74924 12.6753
1.05931 10.0492 23.4708
3.9517 4.16418 10.7907
2.045 1.3108 8.84337
9.38653 9.70837 11.4328
0.737462 1.71934 4.45115
1.79202 5.2096 8.96018
12.149 25.1441 44.4502
1.78868 0.239992 9.19037
7.06574 12.7763 11.7657
0.146139 5.81612 19.6224
7.36345 4.83173 7.61912
2.1639 3.46984 4.97879
1.71413 1.3147 4.67617
4.514 1.64556 0.190182
7.14861 10.6432 15.7754
0.800018 3.91492 18.3605
10.2034 15.6044 16.1873
1.01736 1.61898 0.0728262
7.4264 27.3267 43.8613
0.45983 8.89063 43.4119
15.7901 13.5069 15.5743
3.87001 0.124838 5.70944
11.3729 8.07215 1.79132
8.82973 12.1562 11.1846
1.10028 2.06991 1.39342
4.30509 13.3766 27.5779
1.75073 0.0322459 1.80299
2.5756 1.81562 1.75597
1.1118 1.50657 2.10659
0.826148 0.870853 2.87166
3.04243 4.63575 11.6231
2.65101 0.451426 6.68435
15.1275 22.4631 28.3794
0.159149 0.476194 1.92726
3.86734 6.3814 10.7475
1.37376 0.289841 0.671448
1.20842 0.144312 2.53269
6.43817 5.64002 1.60066
7.30451 12.5899 14.5749
3.16739 11.7164 28.5706
1.28157 1.65706 4.39286
2.88414 7.89533 19.4225
5.42206 9.39725 15.3162
1.54843 6.45923 23.8446
0.733364 0.72226 11.2627
5.81055 11.8537 22.4489
3.72238 4.06176 3.91306
0.214592 2.06035 18.6325
7.05118 11.7829 9.76733
0.728059 0.539875 10.4149
8.1305 15.5448 13.9821
8.48589 21.4883 32.7129
1.1574 1.05401 0.346206
0.475798 1.48742 2.77509
6.61507 25.7502 44.6707
1.15617 2.83993 15.5044
4.29871 1.75316 2.86373
1.0833 0.874659 1.15827
7.03045 22.8269 35.8308
1.24031 0.50449 6.07783
4.05305 10.2951 15.3393
0.0189409 4.97143 18.8997
2.61304 0.0518438 1.1024
0.232404 4.94926 25.01
6.60365 1.97751 1.88085
6.36512 7.03015 7.14502
1.18138 1.14526 2.42968
1.87939 13.7386 42.6988
11.7306 7.8797 3.71628
2.65642 3.19741 3.96588
0.00174331 0.851706 5.09023
7.47701 14.7148 36.197
5.18256 7.47783 5.11822
0.291944 0.156752 1.60115
1.01539 0.127224 1.54688
4.55629 7.46298 12.9531
1.44327 4.98815 15.427
5.07877 5.57933 3.0774
0.764289 2.87244 2.51176
0.478414 5.22891 11.4599
0.829036 3.59403 14.242
4.72041 2.64708 1.42262
0.79093 3.04664 17.304
6.46616 5.71428 0.643804
5.64321 15.7399 28.05
0.470968 1.14092 4.20302
0.398247 5.04987 23.2478
11.369 18.1936 33.1531
3.91283 5.43423 6.30128
2.72935 5.89942 16.8833
4.25105 4.06994 4.38372
0.996312 0.377536 1.49827
2.2028 2.86554 14.0486
12.5367 28.163 51.1582
4.57846 3.07049 5.53782
1.56476 1.21887 1.27231
2.31193 4.66755 8.1156
1.24901 5.63993 10.4745
0.378507 0.117463 3.10511
1.40616 6.36583 16.5617
5.8587 6.70239 8.95482
0.043853 0.615427 1.0924
0.124882 3.42791 10.7878
2.39095 0.533812 1.14484
2.71254 3.93803 8.53342
0.959636 4.48895 10.4212
2.26704 1.87859 5.88091
2.73158 14.7889 38.1525
8.27222 8.09223 9.86119
1.65027 15.4935 59.7249
11.1004 8.33147 2.64155
1.1413 1.04799 11.9881
11.2405 15.3061 11.25
1.63875 6.40962 20.6684
3.45258 12.4088 24.6667
4.93271 6.61507 12.2674
1.19626 4.35018 19.3408
7.41559 7.50959 6.6621
2.47886 4.13804 10.6093
1.94979 9.81734 25.9647
3.33179 0.0922497 9.21028
10.117 14.8183 16.4915
5.39152 10.1014 19.2814
3.11275 4.57248 5.78879
0.581086 4.0552 15.4513
7.84167 13.716 23.8246
0.531603 1.25194 2.27408
3.04015 7.11512 24.1857
3.70392 8.33336 9.56232
5.57384 24.7884 81.5446
14.4675 17.6975 16.8865
1.72018 0.596563 0.44955
0.758202 0.665161 10.1449
12.5459 25.7884 37.6627
1.2197 11.9021 37.3696
4.41742 9.93225 54.8858
11.6363 7.68935 10.7989
9.95497 16.9692 24.5369
3.93283 6.57008 10.134
3.98978 8.66079 3.76102
2.75582 10.9972 23.274
0.803172 2.04007 5.04305
2.94337 5.52096 6.56572
1.76122 1.7579 1.62768
4.73252 12.0764 24.7978
0.44116 0.797974 2.65421
1.8817 3.36672 10.9309
2.20748 3.23294 0.321062
3.14413 9.47848 19.4292
1.5415 7.18063 16.1419
0.836091 2.02648 4.65711
2.55179 3.73998 3.1735
1.14999 4.67369 12.7533
4.58169 25.3351 62.8849
6.10118 5.89861 21.1725
3.2588 3.28964 1.27759
2.82141 8.24815 21.0758
0.935681 2.96128 16.4358
