# pn-170911/CsII-av-CsIIA-1280-1959.psd
# Power spectrum* (dif=0,1,2) (really just |FT|^2)
# NOTE: only the first half! (symmetric)
# weeks: 1280-1959
# 538 clock-days, 231 excluded
# PSD: 1441
97605.2 1.88638 0.0517067
4.79895e+06 71.6579 0.0286106
2.83049e+07 577.506 0.0388029
3.8166e+06 146.046 0.0338838
3.76164e+06 265.532 0.0473387
1.29235e+06 134.272 0.0428205
1.03139e+06 142.239 0.0518043
768622 152.081 0.0633433
540530 141.181 0.0675266
414420 136.254 0.0774793
377874 142.582 0.0963942
302891 136.917 0.10304
229030 135.874 0.122884
208573 140.162 0.132933
182691 132.32 0.153448
158421 140.145 0.176226
136681 142.614 0.204223
117580 137.34 0.21639
117474 154.53 0.262993
92314.1 127.071 0.246789
83753.5 129.846 0.276292
79917.7 138.195 0.324148
71741.7 135.023 0.328742
61571.3 127.406 0.342642
59386.8 138.64 0.401226
55949.7 136.684 0.438393
51390.9 137.153 0.470115
50043.3 134.892 0.494673
46462.2 137.146 0.533971
42420.7 138.577 0.573447
38866 136.709 0.613702
38118.3 141.526 0.675496
35235.2 139.089 0.703311
34268.1 146.892 0.777634
28844.6 130.11 0.731238
27680.8 141.06 0.847853
25625.7 132.285 0.840135
26138.2 134.301 0.88093
23386.6 129.649 0.918766
24523 141.391 1.043
22950.2 139.097 1.08941
20952.1 137.054 1.12399
19245.7 130.125 1.13159
18175.5 131.777 1.18317
17966.2 138.636 1.29141
18089.5 140.578 1.38082
17407.8 140.392 1.41867
16091.4 133.029 1.43967
16128.6 145.713 1.61964
14870.4 136.854 1.56769
13355.1 136.581 1.65601
13868.9 141.809 1.76431
11928 123.683 1.61733
11175.1 122.905 1.67605
10715.9 126.794 1.76629
11059 133.034 1.93358
10457.5 127.733 1.95601
10248.4 132.077 2.06029
9596.4 122.73 1.98884
9134.96 123.624 2.06126
9690.18 134.881 2.33649
9239.46 132.312 2.34627
8737.51 125.277 2.2983
8186.04 127.93 2.43331
8865.27 136.11 2.67474
7584.3 128.864 2.62509
8016.75 134.23 2.80528
7627.44 131.011 2.84582
7208.7 124.216 2.75895
7440.88 135.64 3.11193
6600.1 123.425 2.8931
6799.09 132.288 3.20148
6023.1 118.221 2.93619
6239.58 123.86 3.14379
6285.15 131.816 3.45013
5855.57 123.15 3.32249
6108.51 138.043 3.83505
5441.26 124.433 3.55069
5375.68 122.639 3.56732
5154.58 124.47 3.72032
4735.33 117.345 3.59556
5504.27 136.691 4.26684
4701.55 121.075 3.91583
4578.77 118.655 3.89913
4908.13 128.869 4.35181
4368.05 120.343 4.14092
4197.49 113.266 3.98438
4410.69 125.951 4.53569
4208.12 124.821 4.65724
4075.55 123.551 4.66828
3943.15 121.443 4.71035
3811.77 120.523 4.69236
3810.82 123.458 4.96722
3653.49 127.14 5.28594
3821.92 126.632 5.30807
3454.46 120.678 5.18878
3655.27 121.839 5.31806
3352.58 117.516 5.22687
3236.67 120.096 5.57669
3482.94 128.609 5.97132
3207.15 120.934 5.7549
3106.81 123.363 6.0005
3107.51 124.694 6.16953
3094.45 125.786 6.37646
2948.27 115.819 5.93351
2867.56 120.592 6.32365
2886.34 121.026 6.48323
2470.98 107.897 5.83043
2838.42 122.63 6.71681
2551.57 115.348 6.48693
2678.35 123.787 7.19202
2584.01 116.77 6.83452
2616.28 127.892 7.58791
2420.05 116.324 7.06512
2441.67 114.549 7.01235
2296.84 112.807 7.12582
2307.26 114.196 7.22032
2199.11 113.045 7.35397
2111.55 105.659 7.02612
2067.49 109.375 7.28668
2125.54 111.763 7.64061
2060.56 113.144 7.92815
2085.14 117.535 8.27215
1914.55 110.261 7.92486
2043.68 112.357 8.16477
1884.52 105.973 7.86398
1819.52 114.094 8.50208
1941.81 122.445 9.40598
1776.51 107.755 8.37724
1819.22 112.89 8.8835
1629.78 107.016 8.59787
1772.08 113.53 9.19333
1628.32 105.34 8.81322
1660.4 109.943 9.18815
1625.34 108.505 9.23885
1612.02 108.734 9.41818
1569.93 110.217 9.52351
1531.81 109.604 9.67585
1631.79 109.704 9.9238
1490.49 106.362 9.6431
1534.8 107.436 9.95431
1505.43 109.045 10.2733
1469.97 113.34 10.8708
1459.42 106.483 10.2919
1390.73 99.5727 9.77847
1339.21 103.51 10.2719
1358.35 105.826 10.6993
1417.84 112.148 11.4386
1388.62 115.991 12.088
1253.69 106.791 11.2396
1173.15 100.202 10.5855
1159.78 94.3646 10.1826
1307.4 107.62 11.6414
1254.63 103.513 11.312
1159.42 100.834 11.1351
1207.59 102.263 11.6782
1134.44 99.0413 11.3184
1099.68 97.5831 11.4172
1187.37 110.536 12.8518
1150.51 106.027 12.768
1015.18 95.1093 11.4947
1097.11 103.534 12.5817
1010.37 99.4441 12.3305
1081.13 99.2114 12.3887
1082.6 104.144 13.3433
989.654 96.6092 12.5141
949.949 97.7735 12.5531
973.77 95.8862 12.6359
1001.87 99.6257 13.2333
937.235 100.125 13.5217
939.581 102.159 13.8398
921.612 98.0128 13.4257
905.639 94.6088 13.0346
900.755 89.4908 12.6787
876.584 92.2873 13.2173
934.417 104.014 14.9477
836.696 90.3329 13.2014
890.217 95.1955 14.1165
835.163 93.8165 14.0222
851.14 97.8765 14.5617
757.817 87.4732 13.4468
790.962 94.1907 14.3631
804.98 95.1254 14.7168
806.416 94.3188 14.8491
746.32 88.769 13.9981
750.289 92.7828 15.0997
765.597 96.2698 15.699
759.449 89.3492 14.7438
718.331 91.2618 15.0188
719.997 87.1181 14.5492
705.056 85.6419 14.5343
754.878 96.0336 16.5958
729.108 93.1942 16.3532
697.07 88.694 15.4315
686.86 92.423 16.2581
673.692 87.1169 15.6951
698.979 93.8112 16.7183
689.337 93.5474 16.8247
631.381 89.4026 16.4754
614.584 84.8635 15.9368
626.227 86.1821 16.2716
671.281 92.3256 17.3336
615.582 88.6395 16.996
604.33 81.8006 15.7933
581.489 83.6529 16.1965
582.784 78.03 15.5312
596.56 87.5756 17.3639
571.997 83.9044 16.6555
636.328 89.8139 18.1474
564.804 82.8297 16.9354
529.183 81.5514 16.8192
578.442 83.9896 17.7021
529.901 87.2677 18.284
522.809 85.9416 18.2311
532.486 82.6247 17.6876
511.996 78.6238 16.9326
505.943 81.3821 17.7402
530.449 80.5671 17.7035
488.185 81.4749 18.28
519.257 85.1978 18.8914
501.627 79.7963 18.1138
488.46 81.3784 18.2983
496.762 82.7228 19.0834
464.705 81.1303 18.8041
458.426 75.6644 17.8399
472.038 80.6804 19.1556
428.06 72.8241 17.4875
437.132 78.2807 18.9139
466.359 78.0643 19.0798
446.949 80.427 19.5168
440.873 79.6989 19.7807
408.758 71.079 17.2357
397.191 72.6921 18.4777
386.529 72.0887 18.4135
440.032 79.5838 19.8961
418.078 83.2625 21.6752
452.164 86.1943 22.4819
402.765 73.5213 19.4444
393.644 73.5311 19.2789
396.856 72.9988 19.8304
376.864 72.0915 19.6514
394.405 78.2327 20.6024
394.695 77.0396 21.0445
383.626 73.1613 20.0715
394.346 79.1334 21.8091
382.658 74.994 21.0639
347.575 66.9743 18.8689
363.275 76.3168 21.6151
351.861 69.3097 19.7746
397.483 78.4795 22.5496
380.461 77.2684 22.4031
378.776 73.7452 21.5893
352.64 70.655 20.8489
327.577 68.193 19.9677
349.939 73.061 21.819
319.978 71.0226 21.7877
336.875 72.6828 22.081
332.197 70.9687 21.5271
342.185 71.9177 22.079
313.367 67.955 21.2578
322.835 74.5739 23.5997
323.569 71.6616 22.5999
313.095 71.9281 22.4645
308.495 73.8658 24.2465
290.952 66.8001 21.1727
303.768 65.4961 21.3578
284.183 68.8519 22.5356
296.821 67.3938 22.2766
293.925 71.572 23.9491
310.241 73.6604 24.2291
306.799 66.7645 22.8856
291.586 69.2781 23.5873
280.716 68.0405 22.9021
281.871 68.0669 23.7761
272.882 66.8305 22.9984
267.06 60.8118 21.7829
272.284 63.8918 22.4405
280.444 64.6247 22.8439
259.265 58.6658 21.49
265.594 65.2866 23.2359
264.12 69.4326 24.6068
254.914 67.577 24.573
258.796 67.1756 24.8795
256.148 63.9926 23.5378
280.811 70.9314 26.1164
272.885 67.6759 25.2124
248.462 63.5935 24.3916
261.369 63.4651 23.5759
234.745 60.2238 22.9348
232.848 63.0935 24.3409
240.496 68.0532 26.2627
244.218 64.4568 25.3988
254.981 62.1736 24.1632
224.022 59.9426 23.7563
235.113 61.97 25.0467
233.72 63.8523 25.6307
234.828 64.224 25.4734
221.117 58.2475 23.3452
225.287 61.2485 25.2385
222.041 64.3706 25.7419
217.256 63.0699 26.5818
218.815 60.8188 25.2867
206.265 55.878 23.1332
231.105 65.7537 27.731
216.076 59.4882 25.243
210.662 60.8896 25.7791
194.327 60.8411 26.682
217.743 57.3084 24.5073
191.236 60.6337 26.2397
187.808 54.7075 23.5775
215.145 63.1927 27.7672
192.419 52.2177 23.144
197.35 58.4781 26.329
197.354 58.2938 26.4046
209.892 62.4159 28.2554
192.301 57.9462 26.0944
192.473 57.4915 26.3356
183.496 58.2857 26.5579
189.708 57.6125 26.813
193.552 58.2083 27.2523
178.149 53.8752 24.9979
176.248 56.1905 26.1052
179.206 54.8553 26.596
185.145 58.9337 27.4031
166.954 52.1946 25.3744
179.676 55.2855 26.1413
174.911 55.9253 27.3546
178.13 56.5379 27.9828
174.029 52.6574 26.268
184.223 56.4913 27.8085
175.166 55.7619 27.2225
167.192 52.9711 27.0475
172.306 56.0872 27.6465
172.907 59.5421 30.1145
177.027 58.7333 30.1161
170.082 60.0832 30.5749
161.483 52.4804 27.2993
159.809 53.5849 27.3215
147.593 49.8891 25.868
159.091 55.7379 28.6754
157.355 52.0797 27.8255
159.312 53.441 28.0061
157.176 52.7946 28.4266
149.962 51.2793 27.1191
147.814 53.0733 29.2404
154.531 52.4385 28.2754
150.553 52.5935 28.7999
157.856 54.027 29.431
145.358 51.8464 28.4725
158.445 56.0044 31.1356
148.502 51.4356 28.3661
144.95 54.9288 30.3312
149.738 48.646 27.7266
151.154 52.1574 29.1453
145.78 53.1016 30.4166
140.992 48.1712 27.8181
140.482 50.3809 28.8212
133.67 50.1845 28.5189
134.955 50.4125 28.9205
142.528 50.4817 28.7896
133.334 49.7907 29.8389
134.411 49.9842 30.0658
144.035 52.8361 30.2101
132.936 51.6114 30.5573
127.88 50.9281 31.2786
130.819 48.4875 29.3063
125.263 48.9931 29.3166
129.681 46.696 28.1577
118.64 48.8682 29.9855
124.867 47.3885 28.8158
125.46 46.039 28.2503
114.639 43.5961 26.5535
121.905 45.1497 29.0788
128.257 46.0344 28.6228
121.275 48.1892 30.1171
116.625 44.6984 28.0078
123.304 45.5446 29.4285
117.921 46.9018 30.0966
107.983 42.6212 27.4569
115.752 48.3471 31.7801
125.077 47.761 30.6398
115.931 45.261 29.8524
124.985 45.4684 29.131
108.891 47.2114 31.0101
115.777 48.7759 32.5814
115.769 46.6407 30.8088
120.244 47.7575 31.0887
112.103 45.1854 30.3996
108.337 43.0298 29.3068
107.458 45.1569 30.9851
102.061 44.5552 29.9039
116.106 46.1852 31.7264
116 47.3382 33.201
108.155 44.1179 31.0235
111.931 45.8075 30.6522
104.426 46.3223 32.8092
109.464 44.5344 31.038
106.063 43.4373 31.0206
109.873 48.8464 33.4323
109.847 48.9386 34.6284
98.2212 43.9596 31.5663
100.805 41.407 29.8377
97.0369 43.6595 31.773
98.8121 42.9492 31.4889
108.091 45.069 31.6307
98.6571 41.0682 30.8404
100.832 42.5751 31.4993
99.8607 42.1745 30.6832
96.5845 41.065 30.3743
98.395 42.2053 31.7383
98.0366 43.9862 32.9609
94.1502 42.5296 31.6285
94.5634 40.5982 31.2899
105.709 43.8278 32.0749
103.51 45.7498 33.764
92.2627 43.7951 34.4099
86.9213 42.2601 32.4506
100.67 42.6536 32.6594
89.9453 36.9138 29.2152
97.6383 44.9225 34.1816
93.8759 41.0338 32.6978
94.8069 41.4001 33.0605
93.5087 42.0197 32.3419
85.9568 41.894 33.0918
87.9112 42.3029 33.5867
91.1359 40.7299 32.6983
95.6307 41.8391 33.3364
84.6983 39.3534 31.0126
85.1791 41.6493 34.1565
85.1444 39.0982 32.035
84.7365 40.0877 33.0063
84.4226 39.1288 31.9007
86.1775 39.8311 33.1814
85.4747 39.9329 32.9144
78.0989 37.4201 30.4838
85.0098 38.2591 31.3738
88.0119 42.2441 34.8141
84.0719 39.1774 32.6223
76.3538 37.711 33.1194
81.3868 39.0741 32.7475
74.0446 36.4389 32.1108
79.6049 38.0216 33.0622
89.8153 41.1654 34.9604
79.579 40.7076 35.227
82.4 40.4696 35.6962
77.8829 37.0258 32.829
77.9491 38.4632 33.2271
74.3208 38.6857 33.9114
82.5657 39.6363 34.6024
75.9956 37.981 34.0536
76.0304 39.9057 34.8018
70.3621 34.9992 31.5211
75.4101 37.2071 33.2279
72.4416 35.2622 30.5691
70.6598 36.5715 34.0802
74.9691 35.7865 32.8169
73.2633 37.152 33.2142
70.5438 38.2134 34.3916
68.6634 36.0678 33.6008
71.4536 37.4945 33.6683
71.1654 34.6838 33.1217
74.5099 36.5729 34.3262
73.9524 36.8505 34.282
71.1301 36.0149 34.1211
74.3473 37.4918 36.0941
69.7218 34.857 32.614
65.479 32.7914 31.1936
64.4504 35.5252 33.9489
72.5093 35.6621 33.2229
65.3896 34.1511 33.7123
74.7185 39.4068 36.5918
72.9212 39.6135 37.986
66.9312 36.5036 35.2153
68.3201 34.9892 35.0701
64.8768 35.8097 34.9041
61.2196 33.0402 32.098
63.4178 35.3934 35.5661
65.8621 36.4355 36.4365
65.8122 35.9564 34.5322
65.1465 34.2951 35.4434
69.214 38.2052 37.9185
60.5841 34.4576 35.2089
69.1057 34.5206 34.277
61.6547 33.7071 34.774
62.3783 34.8383 33.1189
55.2387 32.7767 33.8936
58.3854 30.5564 30.9859
63.1264 33.0437 34.6705
60.8637 32.3578 33.1508
67.1711 34.5454 35.13
63.7882 34.4089 35.5051
56.4258 29.7022 31.0585
56.5709 31.2767 33.2681
58.5042 32.1134 33.5558
62.5198 33.5237 34.6649
54.0454 31.6392 33.318
56.1166 31.6745 34.0195
61.9958 35.6084 36.239
52.6184 30.0651 32.5918
52.8595 30.4444 32.8255
58.5253 33.8687 37.6046
52.9976 30.0455 32.3563
59.6901 33.7459 35.678
57.8193 31.3402 35.4144
55.9132 31.5507 33.8679
55.5921 31.3603 35.1505
60.0348 32.6764 35.6671
56.5502 33.3923 36.4864
55.9057 30.5833 33.2725
56.5549 31.8192 35.5232
54.0971 32.1552 36.4904
55.2875 32.8348 36.401
54.4532 29.5415 33.9619
61.6279 33.5797 36.2766
55.7424 33.0358 37.7595
53.6627 33.2661 38.1479
56.2608 33.4012 37.36
54.2608 31.4913 36.867
53.2858 31.2977 36.3688
52.4392 29.9217 33.149
53.3866 30.5073 34.7273
49.5552 31.805 36.9773
50.965 30.5572 35.445
51.6316 31.6709 36.0666
51.1586 30.6727 36.6788
51.1011 29.9943 35.2576
51.3074 30.574 36.8386
52.4173 30.089 35.4036
50.6756 28.6796 33.8547
51.8985 30.4652 36.1827
50.2338 29.2707 34.4236
51.4387 30.4264 35.4891
51.0496 30.7684 36.3526
50.2857 28.9013 34.2743
45.9897 27.968 34.3659
49.2371 28.8625 34.1811
48.7808 31.3141 39.7068
47.788 31.1968 37.8185
46.2049 29.1916 36.1663
48.4223 29.7114 35.8543
46.5299 28.7705 36.0921
52.6 31.6495 38.8098
45.1725 26.4297 33.8554
48.7388 30.8078 38.3816
48.7299 28.6343 35.4704
47.137 29.829 37.6954
48.0449 28.8981 35.486
47.0397 29.5062 36.8874
45.7223 30.8272 39.0353
44.4941 27.1861 35.2812
46.1224 29.4805 36.7865
45.8469 27.9806 36.5953
44.5937 26.8361 34.4245
45.8111 29.4039 38.1025
44.9665 25.5617 32.9458
42.7575 28.1196 37.5939
44.7427 28.4816 35.4289
45.4045 27.6524 35.132
43.1133 26.9145 36.8145
45.3659 29.6756 38.6016
42.5031 26.3519 34.9815
41.0069 23.7712 31.7337
43.3504 25.9133 34.6034
44.4623 25.1109 32.1291
44.6807 30.2749 41.4922
40.0094 25.5405 35.2513
44.5213 27.4741 36.3156
41.7022 26.3241 33.8538
39.4979 24.5585 35.154
45.0505 26.5323 34.7264
42.5826 28.4009 36.6719
40.1578 25.6896 35.8534
44.4772 28.8184 39.4538
39.7911 25.2868 34.4155
42.2722 27.8482 38.026
39.5652 24.0319 34.0624
40.619 26.7043 37.5046
41.0776 26.3563 36.5782
40.3366 25.3876 35.7297
42.0643 29.3904 39.6912
40.9931 26.5961 36.8217
38.2733 25.0794 35.3946
41.2726 27.419 38.3231
39.7104 24.2036 34.481
38.3425 24.4217 34.9531
37.895 25.1266 35.7521
39.4028 25.6153 37.1224
38.9093 22.8519 32.6562
39.5378 25.2084 34.9715
38.1573 25.826 37.4651
38.0544 25.3714 36.7392
37.5467 24.9415 36.5114
40.0053 28.1244 40.1353
38.2182 24.4825 35.1717
37.9683 25.811 38.4677
36.8687 24.4973 35.9129
37.8723 24.515 36.0517
37.1754 24.306 35.1802
36.9497 24.1026 37.1456
36.9344 24.5222 35.5017
36.3129 25.3618 38.7028
35.5084 23.3476 32.3329
35.2552 24.2449 36.771
37.7815 24.9434 38.0053
37.5361 24.7941 36.527
35.8861 24.9082 38.4463
38.0091 27.5327 39.5876
36.9771 25.2394 37.1342
35.2832 23.7972 37.6484
36.5148 26.2947 40.0843
39.5742 27.8002 40.4618
35.488 24.5592 38.8983
34.5164 23.7225 36.2931
33.559 24.025 37.2276
35.7035 22.6026 33.9017
35.1725 22.0658 33.5883
34.2538 24.2599 37.6179
34.3998 24.4128 38.5362
35.2766 24.7928 38.7761
34.347 23.2873 36.2079
33.9598 21.8566 34.6712
34.1548 23.04 36.2569
33.9582 24.0434 37.9428
34.9967 23.5884 37.5758
33.0948 24.3667 37.8563
33.8502 22.7048 37.554
33.2998 23.3714 36.693
34.1908 21.3126 33.5064
33.3055 22.6615 36.8884
31.9754 24.5864 37.701
34.1635 24.3287 38.4766
32.049 22.8494 37.8665
33.4906 23.9477 38.0887
31.0668 22.2509 36.9448
31.727 22.5364 35.927
32.5235 23.6821 38.3145
30.9109 21.0527 35.4506
31.1401 22.4866 37.0167
32.8836 22.5035 36.5752
29.1361 21.4332 34.6677
32.0425 20.7644 34.6505
31.8474 22.1941 36.4998
31.4275 21.6564 35.5186
32.3929 23.4719 38.7297
29.9771 20.1024 35.3044
31.1464 23.2362 41.1411
31.8056 25.2077 41.9068
33.7921 22.6356 39.0317
33.368 22.2734 36.0294
28.637 22.0065 37.7452
32.6953 23.0646 38.394
30.1956 20.8681 33.8543
29.4853 21.1738 36.1314
31.0881 22.3327 38.386
31.0733 22.8006 39.1664
30.3378 21.462 37.2957
29.2877 21.326 37.0561
30.8022 23.475 40.5229
27.4331 19.9385 35.889
29.938 21.0123 35.7695
29.1543 22.0165 37.825
30.4048 22.3456 38.0167
29.3169 21.4387 38.8645
30.026 21.5042 39.3686
30.9464 21.4803 34.7127
27.6541 20.4501 34.7285
28.373 22.556 40.3686
28.5351 19.7555 35.2256
29.9178 21.1631 37.1267
29.0568 22.1545 38.3772
26.7262 20.1758 36.7852
28.9157 21.8033 40.5392
30.3645 22.4852 39.1774
27.0209 20.9941 38.8618
27.9368 19.6002 35.1964
27.6132 20.5026 37.2232
29.6579 21.9304 37.9954
28.4417 19.8879 36.9574
29.1732 21.7661 39.6121
27.1547 19.5214 35.9917
28.3197 21.3896 38.5518
27.4275 20.1412 35.8293
25.7847 20.3683 38.5643
28.3073 20.77 37.0699
27.0342 20.2104 36.8212
26.0943 19.8164 37.986
29.6186 21.5781 38.6863
26.4725 19.1717 35.274
25.3226 17.9018 35.2339
25.9369 19.2132 36.7423
25.6434 18.854 34.2344
25.964 21.2023 38.7935
27.6046 20.299 39.1017
27.0558 20.0682 38.3516
26.8137 21.6598 40.0903
27.2236 20.4588 38.2723
25.5278 19.5869 35.8929
25.7673 19.4481 36.8639
27.3924 21.0751 39.6739
27.0853 20.3105 37.823
25.7575 19.9802 38.0202
24.4469 18.7007 36.8645
24.2465 18.2668 35.2265
27.8774 19.5044 37.4376
25.3714 18.7921 37.017
26.5818 19.8567 37.3348
25.3198 21.0416 40.5176
26.2272 20.289 39.7524
25.1522 19.4769 37.3461
26.2247 18.9277 37.9971
26.0162 19.1033 36.7542
23.8476 18.8068 37.5656
25.9039 20.3957 39.4389
25.2753 19.4246 37.3999
22.9264 19.3681 39.1142
26.0591 19.6646 39.1568
23.9709 18.9028 37.4851
25.6144 19.4327 37.5468
23.3229 18.2427 38.6264
24.9204 18.728 37.4467
24.1194 18.6241 36.1882
24.568 18.0689 36.3417
23.7351 17.6044 34.904
22.4517 18.3236 37.6642
23.1109 18.3329 37.6808
23.6514 17.8388 36.2407
24.9936 19.6546 40.678
25.0523 20.41 41.8641
23.7625 18.0768 36.5477
25.4895 18.6687 37.9619
25.2759 19.5224 40.0157
23.1895 17.5139 34.8728
22.9322 17.6996 35.0743
21.2403 18.9471 37.5609
24.5985 19.8389 40.8186
22.4547 18.0246 38.6391
24.0775 18.2908 36.4508
22.4522 17.8781 36.3501
22.9226 17.7257 38.0014
23.4677 18.1701 37.414
21.6636 17.2875 36.2949
22.7671 17.8625 38.0009
23.2715 19.1342 38.5571
21.6399 16.9 36.0759
22.034 18.548 38.2725
22.3882 18.7853 38.763
21.5325 16.5162 37.1038
22.3239 16.8079 36.6457
21.807 18.2674 37.069
21.8401 17.3628 37.5396
22.0023 18.1472 37.2869
21.0378 16.1453 35.6513
22.84 17.5262 36.148
22.6917 19.2167 40.0407
22.6346 18.244 38.2551
21.6481 17.1463 37.6226
21.2014 16.8053 37.1718
21.4233 16.4115 36.0037
21.1595 17.0396 38.7999
22.631 16.9587 36.3447
20.8761 17.4028 40.2418
23.6351 18.9731 40.2869
22.4419 17.3124 37.4183
21.9911 16.8949 37.0829
21.1883 16.4395 37.2222
22.5636 17.2546 36.3765
21.391 16.3795 34.0897
21.2422 16.7116 36.9428
21.2512 16.8515 37.4394
21.1546 16.1618 37.8771
20.7505 16.15 34.1366
21.5213 17.5184 37.3569
20.0797 15.3137 34.0867
20.3139 16.9568 39.079
21.1073 15.9817 34.9841
20.2907 15.562 36.4807
21.4725 15.9614 34.8843
20.3936 17.3437 39.4769
21.1564 17.1239 36.6805
19.911 17.4804 40.5192
19.6731 17.2979 40.1234
20.5602 15.9596 36.8013
19.8963 16.661 37.0641
20.6958 15.8315 35.4497
20.3574 15.9463 36.3706
20.3307 16.2744 38.0906
19.5184 16.028 34.5577
20.5809 16.5826 38.1723
19.8455 16.4159 37.2039
20.5906 16.0081 35.222
20.1102 15.403 36.253
21.1995 17.4749 40.4253
20.4053 14.8657 35.2923
20.0699 17.2248 36.8895
19.2885 15.7991 38.3543
19.4384 15.3519 35.2497
19.1202 15.7284 35.9023
19.2218 16.7036 39.4304
20.3151 15.4876 35.7351
19.6134 14.8113 37.4004
19.9484 14.7059 34.003
19.5121 16.5766 39.5434
19.4952 14.9276 34.6769
19.8081 16.3805 39.1193
19.296 16.1634 37.9152
18.8363 15.7412 34.9773
18.7724 16.5028 39.4065
18.2967 16.3419 40.3004
18.8595 16.5373 40.9132
20.0325 15.3986 34.0582
18.8187 14.1116 33.2747
18.8564 15.7504 38.2963
19.3908 15.4898 38.5817
18.0114 14.6049 35.6142
19.6348 14.4905 35.0976
18.7927 15.0408 35.2936
19.4914 14.6707 35.0371
18.9065 13.3449 33.2352
19.8408 15.0547 36.1281
18.5908 15.7344 37.4329
18.8933 15.2254 37.554
19.2193 15.3269 36.953
19.4314 16.1337 38.5498
18.1017 15.8456 39.1367
18.9706 15.2779 38.2872
18.4378 15.5493 36.8882
18.983 15.185 38.7778
19.8975 14.6825 34.0689
17.8993 14.9254 39.2017
18.732 15.5783 37.4105
18.5236 14.2396 35.6296
17.5877 14.7566 38.1317
19.0086 15.4767 36.503
