# pn-170911/CsIIA-33-CsIIF-1280-1959.psd
# Power spectrum* (dif=0,1,2) (really just |FT|^2)
# NOTE: only the first half! (symmetric)
# weeks: 1280-1959
# 526 clock-days, 187 excluded
# PSD: 1441
59396.7 1.72059 0.107742
2.46311e+06 43.9145 0.432655
1.04127e+07 214.081 0.462254
2.41985e+06 91.5897 0.582274
1.3416e+06 85.0383 0.528648
818483 84.165 0.565045
647823 87.5146 0.598932
443815 87.1934 0.658385
375037 94.168 0.61228
278652 88.755 1.07163
211941 79.7431 0.750784
188822 89.1072 0.753396
153079 86.2253 0.767105
132452 83.4889 0.668672
131076 93.0756 0.783175
109691 94.5904 0.802125
86032.8 87.9303 0.822287
73687.7 79.4676 0.938584
65672.3 84.8114 0.7434
58738.5 83.5469 1.18567
54271.3 81.3092 0.743176
52626.8 89.9513 1.09532
44841.5 82.6649 1.07481
43589.3 84.9593 0.941862
37158 83.1184 0.844361
38448 88.2789 1.04492
32799.6 84.5839 0.931406
28325.3 76.8398 1.0098
28243.5 78.124 1.0745
26632.1 83.9829 1.09519
25577.3 85.3459 1.24878
22143.3 72.5581 1.04901
22666.8 84.9192 1.09525
18328.5 74.6666 0.991747
21525.7 87.6862 1.1317
19536.1 84.3564 1.37591
17858 82.4966 1.5301
16106.4 81.6316 1.28361
15304.7 78.3605 1.27426
15502.5 85.7966 1.2919
13263.3 80.5438 1.29517
14543.4 88.5994 1.46858
13412.5 83.8017 1.30673
11674.1 79.917 1.39116
11121.3 77.6796 1.36923
10818.7 76.5716 1.42929
10944.5 76.5286 1.60935
10448.8 79.3258 1.59403
9734.89 82.0547 1.51646
9904.78 86.0484 1.69082
9254.29 87.74 1.82508
8833.64 79.9734 1.85472
9021.88 87.0506 2.21144
7952.84 79.5025 1.62698
7488.43 81.7555 1.76405
7357.09 80.3625 1.94507
7623.46 79.9661 1.93645
7446.27 84.1219 2.033
7338.25 80.2213 1.74078
6590.42 81.2699 2.15766
6598.28 82.9959 2.10935
6344.32 84.3714 2.50211
6376.36 83.8959 2.36175
5544.82 73.4317 2.1508
6020.33 81.4898 2.37993
5258.4 78.2712 2.20019
5093.08 78.721 2.08162
5566.14 86.4038 2.35668
5213.01 84.2656 2.6344
4706.94 81.588 2.54257
4667.64 79.7528 2.54954
4666.4 86.7919 2.7211
4480.1 83.8106 2.8142
4676.86 85.1239 2.75956
4591.45 78.2836 2.82448
4369.05 80.4454 2.76819
4337.18 85.6929 3.19404
3821.4 76.6747 2.94106
4236.03 83.4393 2.85559
3879.05 83.7515 2.87992
3511.81 75.5403 3.0886
3777.68 77.705 3.18249
3371.29 77.5882 3.14886
3367.29 79.4499 3.13274
3717.49 85.1745 3.39006
3456.34 85.3342 3.41767
3411.99 81.2931 3.47459
3218.7 91.3873 4.04374
3270.45 90.5484 4.20597
3047.45 78.9892 3.68512
2813.53 83.0369 3.8603
2696.06 76.8507 3.63206
2714.5 84.4733 3.93485
2800.61 81.683 3.8867
2693.14 83.444 4.0629
2868.53 88.2706 4.47397
2972.29 88.8798 4.1227
2649.91 84.017 4.26178
2456.28 79.1447 4.10002
2597.32 86.0854 4.40274
2509.5 83.0225 4.3781
2355.66 81.4409 4.46533
2278.52 80.8407 4.38364
2464.48 89.2606 4.96684
2176.2 79.942 4.5501
2192.11 78.9837 4.59785
2131.68 80.5668 5.11332
2154.25 74.03 4.62654
2088.29 81.7815 4.86802
2156.6 84.3314 5.24091
2075.98 84.5195 5.12328
1977.01 83.2419 5.4156
1838.8 81.1853 5.48163
1933.6 80.3472 5.21747
1710.48 78.2291 5.73415
1879.48 79.1564 5.81015
2019.25 87.8931 6.03928
1852.81 80.3434 5.71373
1777.66 79.9078 5.6531
1555.35 76.7868 5.66007
1646.82 82.6952 6.00973
1734.96 88.8079 6.67835
1752.57 83.0588 6.23789
1498.28 73.6272 5.77542
1498.53 79.9737 6.58218
1558.43 80.5959 6.41356
1442.04 79.2685 6.58211
1354.39 80.027 6.75055
1427.73 78.467 6.28855
1354.25 75.6287 6.29056
1516.87 82.5805 7.26656
1409.26 81.2742 7.1279
1471.03 78.2748 7.03246
1398.72 81.7303 7.13232
1293.67 81.6701 6.86718
1347.03 79.7356 7.11243
1251.83 81.5903 7.86227
1242.01 77.0338 7.32385
1271.64 78.5695 7.66486
1160.85 77.9678 7.2714
1125.08 76.7396 7.09652
1192.77 85.0069 8.43652
1173.19 78.4125 7.72564
1232.96 80.8184 8.03518
1066.65 83.5185 8.53994
1128.77 82.024 8.78017
1338.49 86.6201 8.75557
1131.61 80.3935 8.83036
1144.02 85.2032 9.22979
1073.92 82.6298 8.60058
966.426 75.0098 8.47582
1086.38 82.6648 8.99044
962.969 78.5367 8.94182
1065.28 77.7292 8.80047
1173.01 80.0917 8.96418
954 75.5185 9.1657
987.814 82.5045 9.6229
1047.69 82.9238 9.51036
961.392 72.7547 8.53161
967.031 84.0346 10.1488
991.902 85.168 10.1719
946.81 77.2548 9.68566
903.407 76.1763 9.59549
899.282 80.5919 10.3804
845.926 74.1749 9.85906
817.592 72.9023 9.54937
988.526 88.5005 11.7625
888.805 83.5193 11.4227
867.869 79.4943 10.7501
885.695 86.2908 11.7191
830.926 76.5007 10.3226
859.097 77.2824 10.9554
857.289 86.3375 12.418
928.812 83.4212 12.0844
824.827 74.0939 10.927
789.562 79.5069 11.7439
746.125 75.8813 11.199
767.231 78.1946 12.189
768.334 79.021 11.7035
846.079 80.4312 12.0598
770.325 76.5998 11.6673
806.921 74.7087 11.5741
807.808 75.9386 11.8756
776.589 79.9743 12.5576
797.533 75.5029 12.2782
732.846 77.0284 12.8285
759.604 84.3639 13.3821
746.772 75.2145 12.0911
733.474 77.3891 12.9142
712.662 77.8741 13.4485
755.722 78.4268 13.3404
737.053 74.9543 12.7383
790.168 81.5348 13.7457
730.916 82.0935 14.1225
655.556 80.0242 14.1315
725.612 82.8216 14.8471
662.055 76.7061 14.1854
684.515 83.0406 15.1454
649.213 75.3762 14.1753
658.078 75.8307 14.2949
659.066 84.7216 16.1138
643.321 78.4863 15.0962
697.805 78.2147 14.5766
612.843 77.2504 14.9561
676.77 79.6871 15.8687
621.66 72.4504 14.5064
634.576 77.419 16.2058
667.787 80.5422 16.3117
586.117 73.689 14.9441
633.103 78.3226 16.1187
598.204 76.923 16.0594
684.923 73.916 16.2507
544.615 75.0831 15.957
578.021 76.0635 16.1168
602.048 80.492 17.7788
626.586 82.713 17.8818
629.3 78.4595 17.0954
472.54 73.0815 15.799
573.758 76.7153 17.1136
539.418 77.3895 16.7795
601.77 76.454 17.3062
543.899 83.8411 19.2613
545.735 77.5273 18.3173
607.145 77.5095 18.1531
545.315 78.7719 18.5794
528.527 77.2936 17.7623
501.687 75.4561 18.3111
528.888 81.3488 19.4973
520.903 76.7858 19.086
537.537 73.0846 17.6719
474.276 74.4155 18.6481
481.338 74.322 18.7924
519.522 76.2736 19.4665
516.627 74.8231 18.5698
476.025 72.3634 18.7085
503.621 79.2459 20.2633
425.5 77.4348 20.0957
481.31 73.8425 19.4171
413.294 71.7039 18.8277
446.535 74.0311 19.0613
417.452 74.6619 19.9186
445.441 76.4611 19.9442
501.518 73.1339 20.3698
472.818 76.7073 21.1114
422.518 72.2818 19.6824
416.521 78.5105 21.8405
410.761 70.9927 20.4553
431.852 69.8258 20.0566
410.304 68.7804 19.0217
429.566 76.5245 21.0257
418.831 70.3518 20.301
435.227 73.6634 21.7016
397.731 76.3721 23.2044
462.322 77.2543 22.4549
435.472 77.6987 23.1853
466.063 76.8051 22.4475
421.519 73.7282 22.7385
426.3 85.0898 26.4991
441.741 80.5284 25.5061
397.265 74.7943 22.8959
371.783 75.3285 23.7546
445.788 75.2993 23.3346
418.104 77.2188 24.4726
401.155 78.1327 25.1257
372.141 73.6407 24.003
439.146 76.5828 24.8062
459.464 75.5219 24.7091
338.837 71.5396 23.2355
362.409 73.2794 24.3618
357.629 73.1954 25.6663
419.052 77.753 25.6854
333.069 73.0955 25.6228
398.306 74.6677 24.9991
348.259 75.3499 25.8665
396.441 74.9216 26.0392
358.546 76.6119 27.7216
390.471 80.4171 27.3642
335.954 69.9162 25.1432
358.743 75.6312 25.7825
346.136 70.6876 25.8208
411.852 70.5424 26.2754
405.557 72.4119 26.6165
383.089 69.9565 25.5335
385.504 69.8008 26.2641
404.38 76.2191 28.5516
444.307 74.0345 27.8039
541.701 72.6913 27.8061
452.021 73.6771 28.2274
345.713 71.8225 27.4659
383.342 69.5701 27.6612
653.191 73.0055 27.7544
522.056 77.6225 30.9102
429.933 76.6809 30.2428
412.462 76.1816 29.878
441.535 74.7623 29.5881
381.981 75.2036 30.1789
320.922 68.5405 27.439
326.112 68.7016 28.367
305.359 69.2173 28.9563
288.595 71.8569 29.4596
323.329 73.4647 29.4375
348.545 76.2225 32.6255
407 74.1821 30.8032
322.05 71.9611 31.0996
276.283 67.168 28.8391
310.576 75.059 32.7102
379.52 77.4393 33.9682
285.705 75.7109 32.4663
292.386 73.7311 31.9444
258.15 71.9709 31.9209
335.572 74.8835 33.3227
273.992 79.3386 34.1562
312.5 70.0859 31.1815
285.718 70.8831 32.221
340.478 71.8247 31.5382
278.278 72.2634 33.8529
247.04 65.8759 29.9885
307.393 75.6054 34.6886
271.08 67.8891 31.1936
274.82 69.1596 32.1904
265.667 71.7221 32.994
277.528 73.7056 33.7098
278.767 74.4683 35.7033
291.936 67.1823 32.0895
259.057 73.891 35.4404
296.144 74.0356 36.367
367.051 82.4728 39.4052
269.511 72.2084 34.1264
283.115 72.2386 36.7338
347.218 75.7537 37.0319
260.497 65.8841 32.9227
279.849 70.8265 35.4457
255.042 69.9159 35.0921
297.567 73.109 36.513
276.461 76.8013 38.9853
251.985 73.0141 37.4457
255.911 71.5002 36.4483
264.585 70.6189 36.0786
245.962 66.5845 35.618
251.617 67.4658 36.0352
269.482 70.6308 36.6399
237.26 68.7953 37.2182
242.288 64.3831 34.0318
263.992 70.3905 37.494
281.388 66.9712 36.7768
225.566 73.08 39.5751
271.005 70.6712 38.4325
243.079 64.4079 35.684
241.793 67.1944 37.0319
225.822 67.3422 36.0543
263.842 75.1659 42.5167
237.782 68.5555 38.6634
218.323 70.1997 39.1622
241.262 71.4622 40.2654
251.487 69.0524 38.2627
234.351 71.6844 41.2114
238.899 69.2738 39.6979
250.543 71.3695 41.2812
245.63 72.6684 42.0345
208.699 69.5053 40.3573
252.268 75.133 43.1796
218.133 63.1356 37.7178
202.001 70.2641 41.015
227.488 65.4429 39.8437
195.178 67.0806 41.5972
258.865 76.669 45.5659
208.314 70.5688 43.3342
230.511 69.9898 41.787
220.241 66.6364 39.5468
215.064 71.1263 42.8786
232.485 64.7941 40.5848
215.964 68.7351 41.9515
214.593 70.8277 44.1287
217.161 74.0594 46.6804
229.177 69.3784 43.645
235.929 71.6775 46.2985
207.738 66.4665 42.666
210.775 65.4908 41.256
219.264 71.071 45.0545
187.855 64.3633 42.9316
204.187 72.3076 46.6204
213.602 63.4386 41.3871
183.404 79.8129 51.3498
200.512 66.4954 43.1384
209.117 67.1505 44.3819
193.124 67.9217 46.5031
207.615 64.0747 42.0232
190.809 70.8196 47.347
226.307 66.865 44.439
172.476 65.908 44.6273
173.454 63.3782 44.7827
189.629 67.809 45.349
186.379 69.5251 49.3436
201.022 74.3272 49.7038
178.275 70.2181 49.4137
173.732 70.2491 48.7839
164.316 67.3737 48.9364
161.664 66.1514 47.0648
170.758 72.9005 51.6547
179.709 68.6536 47.5464
199.695 69.0554 47.4456
192.063 67.9534 49.7657
187.432 67.2298 49.6368
165.405 64.48 46.7432
183.091 67.0198 47.5997
174.165 63.9814 49.1426
193.795 67.1085 47.2743
199.236 69.9826 53.3222
199.504 72.9143 52.7957
179.128 69.8605 51.4756
235.289 67.4319 50.4401
170.97 64.9292 48.052
177.755 67.6305 50.2655
179.558 68.9008 52.7141
181.004 67.1739 51.1896
177.249 73.3997 55.2347
183.588 58.8692 44.4925
158.324 63.7656 49.5707
185.141 62.1363 48.5067
160.115 71.3687 56.8471
199.686 68.6449 52.5399
149.808 67.5387 54.3455
182.631 66.6685 52.6817
169.846 66.7799 54.1506
145.614 66.7209 53.2279
178.762 65.814 51.4403
169.115 68.2754 53.851
171.353 71.1959 58.0222
130.885 63.5735 51.6445
156.893 66.4567 54.8005
171.475 74.4777 61.3581
175.396 66.381 55.3499
190.743 62.7057 52.377
167.255 62.3179 51.5083
142.109 67.7306 56.1571
147.311 63.3779 52.0995
144.958 65.73 57.6871
147.446 67.5673 57.552
144.584 66.5213 55.49
164.508 64.501 53.8879
176.304 65.8598 53.8544
153.479 65.8404 56.5376
142.14 63.9346 55.0549
149.508 68.0795 59.3524
177.741 70.5415 60.9031
149.678 61.6884 53.4186
138.871 63.7096 55.6427
146.206 71.014 60.732
124.019 60.8244 54.251
141.168 63.855 56.8446
153.439 63.7814 55.6996
125.434 62.2377 55.8604
134.558 58.1003 53.8894
138.798 62.4339 55.631
155.616 65.0348 58.3706
145.401 66.6214 60.2684
149.847 63.1608 57.7827
144.564 67.0875 62.5653
156.411 64.6823 60.0313
163.596 64.4639 58.8126
158.586 67.2425 62.3433
136.242 63.6243 58.5847
143.357 65.3041 59.5762
149.937 62.5724 59.4032
153.206 64.2795 60.5941
135.399 65.9525 62.3643
151.85 60.9712 58.2384
115.579 60.7877 57.2176
147.686 62.7603 59.663
161.087 59.1327 58.1508
126.845 61.4102 58.2583
126.634 66.5877 66.888
151.225 66.8162 62.937
156.737 64.1231 62.7509
158.14 62.8168 60.2415
116.493 64.112 62.9409
151.359 58.7239 58.4817
137.579 60.6648 61.9905
170.113 65.09 60.6118
142.501 68.0774 68.7584
135.656 63.4029 62.3144
159.112 66.5309 65.6697
144.33 61.1105 61.2834
146.191 62.0096 62.3745
144.095 63.582 62.5836
130.969 61.794 60.9226
134.939 59.5188 61.7929
130.261 67.1967 66.7962
127.54 58.5952 61.1002
158.471 61.7072 63.0481
133.09 64.3652 67.1933
161.95 62.369 65.0797
117.992 66.2554 72.2915
165.177 62.9296 62.599
144.49 66.4204 67.0306
155.876 67.1919 71.8815
116.696 61.272 65.1919
147.795 68.9428 73.5749
136.804 56.3158 59.0359
130.475 63.4212 67.162
149.312 62.0438 66.474
121.139 61.1916 66.1549
136.055 65.8609 68.2878
166.591 59.6134 65.2598
117.411 65.518 74.447
118.814 57.2167 65.3251
133.739 68.8458 77.707
118.852 62.6299 66.3513
125.121 62.2547 71.0465
125.414 66.2021 72.6611
148.519 63.3384 70.155
102.108 63.3162 72.7011
133.096 63.6074 68.4494
109.32 55.564 64.5199
139.079 67.4015 73.9774
131.047 69.455 76.8239
109.927 60.9364 70.5239
140.347 66.3063 74.583
107.859 63.3197 72.06
122.483 64.9988 73.8223
124.759 65.1642 76.2527
127.597 62.0172 69.8666
109.524 56.6573 66.2528
112.928 62.0967 72.4165
118.69 59.8114 69.4619
132.402 64.3167 75.4404
101.336 55.5357 66.1968
111.794 59.2755 69.6395
131.441 62.8971 75.2202
124.766 62.7614 71.946
108.338 62.6827 72.8942
107.609 62.1405 75.1417
130.197 64.8123 79.1194
118.245 58.8357 70.7498
112.817 63.3897 76.1369
102.229 58.9618 68.6925
108.34 56.0599 67.2594
112.518 57.8787 74.5368
119.802 56.2145 66.8487
121.077 63.4493 76.1715
120.117 59.8982 73.5435
116.44 61.8727 79.5451
125.058 60.9833 76.965
104.091 61.9318 78.8779
111.916 63.8477 78.5061
139.333 63.1578 76.5859
121.29 62.9188 78.219
101.828 66.5669 83.4584
119.312 64.3428 79.0404
105.911 62.9022 82.6884
125.417 61.1828 80.4534
100.895 56.1968 70.9197
97.2505 60.7 76.6066
95.1814 52.9167 69.2331
103.888 59.6575 74.0043
94.5636 58.6299 75.8351
102.402 59.7176 80.4297
102.567 64.4234 81.2591
100.164 59.9244 77.3402
111.56 61.523 80.3239
125.959 62.1717 83.6302
96.7311 60.3897 78.2674
94.8098 58.9137 81.9811
111.905 60.5774 80.0979
155.192 55.8996 75.1187
120.691 65.8176 85.5924
104.955 56.8863 76.972
92.9176 55.635 76.0678
72.0865 56.222 74.7349
106.341 61.7821 83.6489
76.218 58.0219 76.6551
97.0037 60.6875 81.9024
97.5341 59.7753 79.036
112.485 59.1057 80.8628
138.366 56.2301 80.3736
100.211 53.7908 72.1494
97.1394 55.7352 77.6689
143.941 56.4526 78.1095
118.695 61.3868 85.2375
110.862 63.5412 89.7498
86.2278 55.8928 80.0258
106.254 55.8727 76.4459
91.7522 57.4549 81.1684
110.032 61.9153 88.1468
102.073 58.469 84.23
89.8993 57.9581 81.8391
105.401 60.6145 83.3592
101.341 50.4239 76.8014
123.067 57.5376 83.1446
102 58.4833 82.2423
85.7047 54.9407 80.0275
106.254 58.4404 83.7444
109.964 56.9531 80.5816
97.6407 59.3032 83.5403
82.0026 57.3715 84.6938
97.2596 61.207 89.1988
80.7521 57.3494 82.2303
84.9087 53.6439 78.8986
86.7015 53.3591 80.6779
91.8821 55.571 83.6681
83.9802 58.7835 85.402
98.8896 55.6438 82.7068
92.114 51.8643 79.0128
87.8034 54.9356 82.8846
100.592 61.7094 89.2769
86.4604 60.0383 88.802
104.357 54.5024 86.4737
96.3912 60.3461 90.6945
101.695 56.6118 84.0385
112.042 57.0979 83.5047
89.765 56.2598 87.178
86.6803 55.6008 86.9738
96.0297 56.5368 83.4267
107.326 59.3671 90.3711
108.013 56.3729 89.1801
74.6996 56.4098 85.6346
79.4819 56.5438 85.8414
98.132 59.3425 92.8129
94.3986 56.8798 85.0157
87.1337 56.4201 84.366
83.2326 54.0313 86.6156
93.3874 54.5774 89.0162
96.6219 55.6482 85.3935
83.0876 54.9727 89.3111
97.2868 59.5554 93.4936
71.6391 55.8845 88.9161
92.4737 62.2497 98.261
87.8027 56.7348 92.8811
87.567 54.8725 86.6105
95.8825 52.5586 81.4098
91.4281 56.6835 91.5423
77.6089 58.0479 92.0194
89.6505 56.2983 88.8181
89.8295 58.0881 98.6521
83.2066 59.5005 94.396
87.6441 56.1101 88.2472
90.1435 51.5547 86.6661
86.822 52.5214 86.3495
96.4406 57.1237 93.3564
77.7221 51.6496 82.8241
101.02 56.2691 91.6488
111.994 54.0778 91.3194
94.647 55.5578 90.6532
78.5279 53.9254 91.0885
78.3083 51.5417 85.1227
72.2097 56.3721 95.2886
88.5495 58.6957 93.067
80.5664 58.2914 101.109
78.5024 52.6505 85.9233
92.3341 52.6676 89.823
85.0697 57.2813 98.0623
93.9042 56.55 96.0217
110.078 57.4485 94.3326
100.775 55.3478 93.7688
79.6824 55.1084 94.2592
91.9989 54.0484 92.8557
99.3225 55.822 98.5634
96.7815 55.2139 93.7916
92.9852 49.8715 85.0828
82.7741 53.3964 92.083
99.0088 56.2375 95.1731
87.5112 53.2324 95.6401
80.4761 59.9117 99.0705
73.8739 57.6132 100.294
81.0611 52.8352 97.2948
77.174 56.8104 98.3127
93.1964 55.5799 93.6368
76.4446 54.1858 92.701
86.1358 56.8348 100.268
79.5569 52.7976 93.8615
89.9484 59.0691 101.252
72.1415 57.0631 101.083
92.6622 54.1643 96.8495
74.9376 53.7489 94.1084
75.7999 51.8692 95.2753
85.2233 51.8826 92.4226
94.8805 51.4671 93.223
84.901 52.0152 89.5571
72.9563 51.5011 92.307
73.7858 51.9184 96.4072
78.1191 50.2776 93.66
90.0883 58.4771 103.915
85.9123 55.3864 105.297
76.1027 53.1494 91.5803
74.7023 56.4426 108.411
79.684 52.9046 100.718
69.3518 53.2168 99.4449
79.7065 50.3736 97.3361
96.4594 55.9643 98.7377
85.0027 54.7508 103.874
70.319 54.6649 98.2049
86.8659 53.0565 98.4174
75.9599 52.275 100.471
91.8166 52.8267 100.19
81.4036 55.0828 103.993
69.3571 51.7869 96.2772
67.4919 55.0359 104.44
77.5838 55.5549 106.514
66.0592 54.7263 103.37
89.2696 51.1343 98.0621
70.2407 55.304 104.406
71.2846 52.8153 102.115
71.9154 55.6547 104.316
83.9649 51.7531 96.4004
67.4747 55.2005 106.9
80.2377 54.1332 108.173
83.4529 55.9356 103.478
71.3057 48.3632 99.8608
61.9604 50.5963 96.1196
76.1352 51.5158 105.114
78.4443 54.5118 102.607
96.2605 51.9575 97.329
59.9174 50.2498 93.0584
66.5847 49.474 100.789
76.2064 54.5959 104.054
67.9086 47.0782 96.1872
73.3749 48.9382 103.076
70.5795 54.2964 103.12
68.6532 54.2688 108.878
66.7196 50.2474 96.0448
69.6318 52.9706 107.617
83.4803 52.9795 105.13
85.5969 51.0836 102.122
70.5201 50.8121 103.422
60.9614 52.83 101.489
56.1203 50.7831 97.3934
68.1889 50.1371 109.227
61.1716 55.178 112.389
56.9327 49.5372 98.3163
62.9901 47.2429 96.2847
65.4306 52.5632 109.721
62.6815 51.0604 102.293
58.1525 56.0803 109.533
62.1338 56.1032 115.365
78.0388 51.7152 107.267
67.6228 53.0235 106.815
59.8888 56.6003 111.559
53.9975 55.8905 118.966
61.0943 46.2354 97.3489
63.0542 55.8717 114.837
60.7018 52.6652 104.853
64.004 52.9332 107.911
58.8969 51.1259 108.434
67.3193 46.6354 98.1265
75.5732 52.5316 114.729
66.6941 56.6545 110.54
68.1884 49.2822 105.381
68.4883 52.1378 115.39
61.8825 49.1478 104.61
58.8096 53.3165 113.093
70.8607 50.4501 107.389
67.3742 51.4674 110.176
70.949 52.1163 110.759
83.7788 52.6526 112.325
59.4079 51.1052 110.787
61.4852 53.5187 112.531
67.4041 52.9988 112.925
85.7473 50.3788 107.782
70.0453 53.5736 113.674
58.2388 48.7031 104.861
59.2263 48.1743 108.717
68.9994 53.5239 116.518
64.8736 51.4998 109.752
72.6998 50.9062 112.629
67.1694 49.5717 110.101
60.4537 54.4196 115.391
67.7155 48.8083 105.85
53.9922 47.9758 107.982
74.7973 53.6141 115.301
66.9626 48.0649 106.859
65.3916 50.5366 110.372
63.9848 48.5187 109.78
63.1869 50.771 111.284
66.1992 43.9932 98.0209
73.1131 57.5335 124.597
62.3228 47.5427 105.364
68.1347 50.7444 110.633
69.833 49.8321 110.604
61.4884 45.8266 109.152
62.1493 52.9951 117.376
72.0556 47.3634 110.442
70.8654 52.4383 117.646
55.6582 50.6691 117.719
67.1615 54.0359 115.689
77.3298 49.0132 107.088
72.9464 45.7349 107.109
69.5454 47.9857 107.19
69.141 48.0494 122.096
57.2421 52.1976 114.031
72.4918 51.5447 119.761
74.0853 51.8731 112.126
63.2626 48.7916 114.18
52.3787 51.51 121.575
61.2007 50.0142 112.008
56.8228 50.4866 114.744
63.846 54.5394 121.533
67.9316 47.1521 110.745
52.578 47.9348 114.375
72.1105 46.7575 109.665
58.1261 48.7031 113.011
64.1507 49.2213 118.533
65.1874 47.3076 104.253
56.8933 47.9405 117.288
59.4356 49.7809 118.304
65.1253 52.2208 121.288
67.3834 54.2132 117.19
65.5171 52.2049 117.657
55.5787 49.5532 118.839
63.6566 49.6181 120.527
67.963 48.6277 119.791
69.2814 48.1384 111.035
60.8703 47.9269 115.259
68.0762 48.9274 122.265
67.4059 48.9241 117.557
74.8602 47.7708 110.004
70.549 44.7116 108.375
65.5177 52.3821 123.524
76.8528 52.9256 127.373
61.271 50.154 116.989
65.6641 49.2391 120.679
66.1446 52.0079 123.92
75.3659 48.415 115.071
58.8266 48.8519 116.705
72.0322 46.456 114.366
63.3549 46.2403 116.174
84.3953 48.1689 115.189
65.4095 49.0896 125.271
74.0633 48.6302 120.629
70.3124 51.0564 121.754
62.7554 42.7759 108.229
72.9353 49.6229 120.487
61.6543 48.647 122.39
76.3407 46.8494 113.906
50.3304 49.8805 129.294
81.3312 50.8761 121.106
62.8302 47.482 118.198
