# pn-170911/CsIIA-40-TWTF-1280-1959.psd
# Power spectrum* (dif=0,1,2) (really just |FT|^2)
# NOTE: only the first half! (symmetric)
# weeks: 1280-1959
# 5 clock-days, 3 excluded
# PSD: 1441
14125.4 0.625699 0.0415508
3.23379e+06 86.9963 0.023045
7.3052e+06 129.325 0.0294354
2.19707e+06 66.2906 0.0229339
723831 71.1432 0.022761
547954 33.8294 0.0234664
497782 47.2743 0.0183042
291323 36.0444 0.0284143
391319 62.5097 0.0221036
318232 66.0222 0.0593068
79032.7 44.5484 0.0366791
123996 36.1216 0.0561521
149720 85.1268 0.0801454
35846 24.7398 0.0575742
35811.3 24.1407 0.0418242
36566 19.0188 0.0339729
55111.3 35.8037 0.0463202
38016.2 31.1599 0.0954964
92397 86.4002 0.170522
26300.3 40.6538 0.113194
41172.7 40.7707 0.0956727
46158.8 40.0036 0.0770331
49293.9 40.2524 0.107378
23696 33.94 0.14966
25901.4 59.2492 0.19843
14466.7 30.3474 0.122211
33003.5 56.395 0.146047
17537.1 20.5912 0.0624298
9430.37 32.7367 0.131935
21413.4 68.9371 0.31067
15870.7 38.0411 0.185555
18517.8 73.6159 0.285203
28649.2 82.3111 0.385478
6975.62 32.9938 0.171663
6612.39 25.9276 0.131918
11718.7 20.9959 0.192675
12461.9 41.3764 0.266975
5935.71 12.1708 0.0889788
16621.9 66.4749 0.417784
12298.3 35.6077 0.295801
22109.1 113.427 0.963289
12334.5 53.3512 0.431803
12968.1 105.661 0.913973
11067 35.7156 0.428807
8665.37 31.3963 0.244909
7808.05 56.8376 0.48283
6034.13 29.2784 0.263801
12850 48.2202 0.535081
6627.42 30.2928 0.460896
3617.87 10.2367 0.145339
9822.28 59.5209 0.675655
2634.52 25.7911 0.318872
6532.14 25.6785 0.29314
5913.48 49.3429 0.641041
6866.44 44.6674 0.787649
6095.21 65.8094 0.832523
5551.49 50.4752 0.831068
4394.58 72.2292 1.12202
4723.06 41.1428 0.618502
4112.14 30.5259 0.478799
6307.7 76.9188 1.13321
1779.5 21.3081 0.380189
5228.17 67.7033 1.49022
2388.39 23.3111 0.506649
6549.59 100.143 2.19862
5411.14 65.0119 1.45446
5771.82 85.3048 1.71498
5548.98 38.9085 0.908729
1506.01 21.8717 0.575535
4808.17 47.3251 1.05284
5021.28 120.136 2.85097
1430.27 47.6955 1.25832
4872.49 82.3279 2.30823
1509.7 33.5335 0.852677
2600.83 66.4504 1.96336
7177.92 67.2143 1.67323
5122.67 89.0916 2.50843
2346.04 45.2162 1.32319
3526.56 43.0356 1.42475
2558.43 47.3785 1.55043
2277.07 31.5491 0.983538
2385.69 31.9209 0.899053
1972.07 27.5265 0.817334
5621.43 87.435 3.01737
1944.06 25.0185 0.902193
3064.6 100.037 3.57847
2542.69 51.0811 1.96362
2610.89 72.107 2.4933
2614.1 70.3529 2.33719
2286.12 79.2313 3.03128
1679.36 79.0023 3.0691
593.278 37.5861 1.51628
2019.96 36.853 1.46531
1618.26 71.742 3.21882
3393.87 84.463 3.37331
1509.57 31.2437 1.41527
3336.62 61.4652 2.73518
2527.79 44.8937 1.94008
1473.72 39.261 2.18518
1451.7 65.8121 2.68369
2538.62 71.8282 3.56116
1320.84 46.4412 2.59806
918.047 89.9043 4.2425
1736.85 54.5488 2.72891
1647.75 39.2199 2.3557
1327.75 41.9267 1.93964
1516.58 28.4604 1.61618
1392.19 53.8001 2.60641
1076.21 33.1979 1.79205
3283.74 110.798 5.92626
599.416 13.7762 0.830434
1519.48 41.9924 2.37908
2025.27 93.5953 5.99479
2043.27 66.7005 3.75603
1065.05 31.4166 1.76576
673.792 26.3296 1.68245
1109.58 38.058 2.37492
969.142 32.1342 1.99537
1154.89 69.2393 4.45418
635.153 23.3891 1.53178
1112.06 27.3774 1.92823
1623.66 45.7555 3.26757
823.582 47.9304 3.47067
1852.52 68.6276 4.91173
1265.44 20.7374 1.49342
816.221 22.255 2.0129
790.039 22.622 1.51717
711.51 26.7183 2.24753
1189.54 30.6384 2.37989
1128.36 35.559 3.02554
699.557 27.3836 1.94842
913.253 24.9775 2.26277
485.613 48.4991 3.70005
1072.73 62.2285 5.43536
399.162 32.6561 2.76878
1101.25 44.0694 4.26686
899.906 63.5138 5.50828
620.09 24.8796 2.68898
795.862 30.2588 2.74049
729.671 59.7663 5.38926
797.655 44.2967 3.62327
577.657 16.1841 1.55398
538.151 50.6795 5.0152
714.209 25.8269 2.3908
816.783 48.1131 4.53058
332.495 47.1153 5.26036
1437.93 41.0891 3.77392
1115.46 48.2169 4.87189
704.002 38.4773 4.02352
507.298 6.19545 0.71698
449.523 19.3334 2.02503
418.538 52.0011 5.66479
892.368 62.1467 6.83157
610.995 14.2699 1.51791
654.532 31.418 3.62007
922.755 67.1276 8.41837
678.913 60.7854 7.47179
903.483 36.6294 3.66119
507.731 19.2559 2.08339
1043.4 49.2746 6.15811
1026.21 60.2033 7.66471
369.491 22.374 2.53883
590.537 60.9671 8.54664
373.492 37.6906 4.56705
696.141 42.975 4.58006
1264.71 102.146 14.1895
946.414 50.2228 6.72344
230.198 6.83915 0.849696
384.101 59.9051 7.83664
659.815 52.5204 7.57811
646.959 83.4072 10.5101
728.96 64.3547 9.48083
345.663 11.2448 1.74412
788.925 65.8894 8.96032
565.903 46.5387 6.04129
1114.79 65.5938 8.57359
700.744 48.0937 6.94141
617.83 41.9619 6.14035
729.114 89.5452 13.4344
330.484 18.1619 2.1531
535.681 45.0569 7.47907
388.885 35.2649 5.0167
369.705 21.1896 3.48777
618.629 61.91 9.46941
673.033 57.6594 9.63442
312.602 39.3573 6.25329
482.722 36.0816 5.30186
458.707 63.0274 10.5569
367.585 22.3876 3.36333
521.988 38.4295 6.35663
981.438 99.7997 17.3283
893.909 86.5682 14.3748
1126.22 110.889 19.8372
668.629 81.9001 15.348
361.1 40.7279 6.48013
354.123 28.3369 5.39101
188.288 50.4976 9.09499
476 31.4697 5.63844
447.776 59.564 11.2749
572.641 33.9869 5.8781
286.085 22.4032 4.25598
337.349 81.0725 16.84
900.573 72.4945 12.6481
337.561 24.1362 5.56845
210.483 74.3095 13.5657
173.554 10.3387 2.16748
441.894 31.6916 6.34164
362.935 23.3347 4.6269
241.795 24.0382 4.91543
257.602 29.3665 7.27169
336.806 27.3324 5.26798
348.353 31.8929 6.215
453.393 61.0147 12.5811
314.643 18.308 5.11547
257.599 45.8487 9.80106
801.547 73.157 16.1574
398.04 53.4964 12.5197
294.123 40.2757 7.20959
607.063 74.0247 16.6174
255.141 45.1324 10.8019
189.136 18.347 4.57693
275.24 14.198 2.36428
296.888 43.4386 10.4561
164.281 38.7464 11.2526
374.334 47.0262 11.7465
289.504 16.1235 4.16312
430.334 52.9655 11.8339
233.031 25.1148 5.33852
277.906 25.7799 5.98255
153.596 51.9475 13.1003
265.291 48.1796 11.978
162.055 40.5987 9.13966
185.274 36.0821 10.3717
403.772 44.3805 9.67357
176.588 21.8439 5.52045
558.659 81.8243 18.9387
428.487 74.6623 18.7484
673.282 119.502 30.0032
312.329 49.1664 15.3985
158.433 8.64045 1.79087
176.068 42.3287 11.8002
239.439 34.9245 10.4238
322.18 18.9371 4.53521
241.811 65.9019 18.3477
238.775 36.8286 10.2734
306.969 62.5743 17.5123
342.446 46.0028 12.2187
303.715 37.1969 13.2557
363.781 50.5284 11.4701
299.842 58.9257 17.6151
414.685 40.4757 9.87262
378.034 52.5061 15.5572
134.056 25.0837 5.93623
516.707 70.2426 21.4879
156.935 36.8358 11.2351
316.423 81.7691 25.7247
390.781 57.1358 16.5419
284.233 53.6428 16.944
253.119 28.7228 7.55375
284.703 49.1349 15.9187
292.858 30.0587 9.19308
228.187 53.0467 17.1453
223.713 32.9252 10.1086
156.694 40.3846 12.2853
71.4458 32.0119 10.4884
133.583 31.9116 9.85926
157.692 7.32308 3.10088
196.543 22.6452 7.30477
76.0003 26.3301 8.95134
173.408 16.8603 5.20883
136.651 48.2381 18.6507
391.307 67.1811 19.4933
170.88 54.6653 17.5188
275.052 68.8089 26.5972
143.379 27.5229 8.55767
336.509 41.5683 13.5316
264.49 33.1752 12.4305
281.743 50.894 19.9655
48.3985 25.6317 10.4685
179.021 50.2237 18.9815
289.675 68.8408 21.2623
257.988 32.0332 13.0757
108.264 31.8494 11.138
226.96 66.6621 23.3002
190.933 33.9454 15.6535
89.2062 15.454 5.90252
179.489 32.5833 15.3436
178.569 43.1827 12.7467
221.912 55.3256 20.302
173.928 28.1896 12.6335
185.534 23.7011 11.8953
226.953 51.9411 16.9215
64.0536 14.3182 7.70779
197.113 34.0952 12.8982
152.625 30.2223 11.4897
70.0837 30.2434 14.0335
227.129 29.1451 9.90626
264.958 45.2064 17.3921
105.097 34.5454 17.2567
133.304 44.865 19.2691
168.83 14.119 4.41026
214.276 35.5027 15.799
88.3852 38.2696 14.681
189.107 38.4736 14.9649
237.334 34.5656 15.8143
135.971 31.8522 12.6957
141.855 21.4849 10.2469
107.678 38.2947 15.6811
175.289 19.3504 8.44146
262.501 66.3964 24.4755
152.312 35.5142 17.5852
229.792 50.9278 25.8444
138.045 33.7683 14.2499
166.962 37.3206 16.2295
231.514 37.0557 18.0299
192.192 45.0163 20.6392
91.9324 21.1364 8.2443
112.56 23.2344 13.6583
172.075 44.1536 17.5855
122.937 31.9317 15.6594
96.0925 32.8485 19.0669
136.519 31.4568 13.622
243.518 33.5782 17.2277
136.641 34.1772 14.532
192.274 26.6946 13.173
115.626 43.6919 18.9234
130.014 40.2082 18.9589
237.591 46.3611 22.7475
77.7069 20.8187 11.0833
289.325 60.0248 24.0938
148.672 48.9844 25.4047
113.737 25.8396 13.51
145.681 53.5709 27.8562
120.885 26.1163 13.4404
156.19 18.8232 9.28262
215.894 44.6051 20.8117
128.859 31.4043 17.3186
126.01 21.0485 13.1284
149.443 45.8744 25.4286
76.6948 29.1955 13.76
169.426 29.2879 15.8192
130.182 41.1398 25.4692
87.4438 22.5062 8.50345
175.499 45.4816 25.1647
131.524 24.0153 17.977
221.2 94.9186 44.1006
122.482 31.2618 16.3208
162.719 38.2384 20.4283
93.1876 25.6128 12.8198
48.3751 35.9789 24.3241
166.032 63.3755 35.2605
207.503 31.1495 15.6627
170.31 26.3909 12.5096
162.034 37.1692 25.2141
94.4975 50.6284 27.9434
128.947 46.6446 21.0974
63.6149 44.437 30.5073
152.254 35.0844 16.1892
168.737 54.8597 32.1547
101.085 12.6058 8.81931
111.149 15.852 5.84688
164.15 43.0172 22.8701
90.4665 28.6479 17.5008
172.16 64.8057 41.5994
109.388 43.496 26.7369
120.605 42.8781 29.6277
55.5344 24.161 17.1542
108.098 43.9972 27.2015
105.579 18.4963 6.13662
153.881 55.4308 31.6179
180.154 83.1672 56.4326
50.7845 26.4978 15.8623
209.103 64.8977 35.6911
59.2013 20.6225 12.5127
67.2694 21.0367 14.7188
54.6645 35.2749 20.6351
152.401 77.1334 51.5188
71.4258 42.25 20.1135
95.6658 60.5413 41.5593
112.362 40.3849 29.8245
76.2027 29.0415 21.3265
174.98 42.3951 26.4652
206.051 110.679 64.7943
99.8715 63.0386 44.7528
156.145 44.1393 35.9498
122.957 58.8415 40.4988
83.3247 15.4706 13.0821
69.2036 33.4082 24.5986
94.4339 45.7266 33.4128
60.3977 18.4325 16.768
131.778 48.098 33.8352
126.423 55.1571 40.1637
107.67 31.369 20.8245
148.899 32.1373 22.5493
126.881 50.6913 29.5923
81.2934 30.5637 25.5714
103.472 26.6817 14.9256
148.691 52.6264 29.6839
56.1926 11.4707 9.36771
40.1049 36.4406 29.3043
89.8717 17.4175 9.07947
117.085 38.1764 28.6176
119.704 63.261 49.9584
56.3893 37.5964 21.6039
56.3005 27.2126 33.3054
183.669 71.6098 40.3401
72.1404 63.0257 40.8554
74.4116 28.6825 24.3131
60.749 14.5421 14.1565
54.8631 43.6656 37.2049
126.623 25.0239 16.289
134.43 43.9148 29.8092
142.856 41.2006 24.3866
148.279 32.3635 21.4085
118.844 50.5219 45.4269
94.8716 95.1205 79.6054
140.595 44.4592 27.605
46.2554 11.5317 8.95374
79.9895 44.9448 31.3988
97.3321 42.87 34.3752
73.0392 20.349 14.784
55.7971 55.368 51.8388
97.9306 9.98019 5.31111
74.4385 19.7692 19.3503
82.5392 30.2157 19.2133
102.493 57.2792 58.7661
190.596 92.6288 63.5169
57.9358 28.4906 23.2249
56.5025 19.8304 21.5154
86.0979 20.1375 17.9592
174.091 45.0591 28.3119
166.909 71.5033 49.3326
104.233 29.8709 24.7954
104.545 22.5538 19.7515
37.567 25.0881 24.4647
125.876 81.3788 62.3151
75.894 12.888 14.85
99.6114 66.3007 54.5774
46.4933 34.0116 24.2397
44.748 26.058 26.3386
106.325 36.7993 32.0651
66.0774 25.8117 29.0491
132.087 30.6872 17.7778
116.116 20.4514 13.6263
108.28 46.8688 42.6228
51.7007 8.26511 7.16645
42.2327 25.0718 28.2383
77.4214 26.5117 26.2329
171.817 54.7091 37.2749
60.406 31.2378 23.1656
79.8448 38.9331 35.4523
68.8595 27.3732 24.7582
134.141 74.3573 61.5123
55.6955 35.5317 44.5998
106.001 41.6649 47.9019
66.5625 22.302 26.067
106.062 36.8263 29.4996
75.2793 13.7763 18.316
110.25 47.3995 42.1928
69.5521 44.3135 30.021
51.4385 20.3554 24.3509
52.1359 30.9398 25.9167
59.8771 15.2911 11.6242
86.929 22.9589 25.8736
30.1 20.638 27.4962
102.346 43.01 30.7006
34.1162 36.6902 27.7294
58.3099 27.8924 25.5654
50.4866 21.8102 27.2883
33.3625 14.8956 10.5759
84.4794 41.5424 43.5962
72.1341 34.1985 27.2472
27.5537 21.4276 19.2714
42.6176 11.028 11.2683
53.2238 9.74691 11.5827
41.8352 22.4204 19.5379
92.2308 51.7145 49.3889
67.6365 22.4268 25.8754
41.9258 11.6978 8.01137
25.9634 18.3829 16.9991
39.7777 18.238 23.5114
82.6936 47.028 42.4818
48.2161 20.1504 28.9168
57.4073 26.8396 22.2441
53.644 33.7053 47.0497
86.2402 58.3349 51.9423
111.384 63.3986 64.0747
39.722 52.0573 54.805
87.4357 33.2761 33.4867
33.8021 25.0422 17.4073
43.1716 33.689 32.8372
52.7109 21.4469 21.3776
32.9037 6.0827 11.1086
71.1882 22.9219 16.6354
33.9641 40.0764 44.8968
60.1574 17.2909 26.9597
58.8131 28.5645 30.1505
43.2094 20.4472 25.3356
91.3911 34.766 35.3415
46.7212 49.8751 45.0883
55.8179 42.8202 46.7983
41.0736 34.8992 53.9326
115.305 20.6713 11.4001
49.8546 21.2626 27.4487
74.7048 42.7861 63.9359
194.929 117.504 100.875
56.5506 26.7613 42.1969
29.3316 17.8599 11.6079
6.56717 18.8854 17.1578
46.3506 32.459 37.6305
46.6435 15.288 13.5292
35.9524 28.0758 34.8856
27.3001 18.2257 24.4351
54.2912 12.9687 16.4937
41.7943 3.45128 4.98367
66.0366 35.2605 38.7034
41.9434 36.2795 37.5948
70.6839 25.1754 39.3286
68.4436 47.9494 44.0869
43.6399 32.9046 60.5581
93.3532 50.0573 36.055
42.1348 25.2257 30.1561
29.2483 13.8288 23.3849
57.2079 17.8321 14.0036
57.0415 16.143 19.2665
50.1665 12.8611 24.376
60.3002 33.1455 35.2613
59.4967 36.9176 36.2283
110.863 55.6041 63.6901
26.6111 11.8063 29.2004
61.9653 47.1824 43.5821
33.6639 46.8208 55.8929
35.4022 47.9128 56.839
43.8749 20.1381 25.5527
59.8623 34.3393 48.0653
66.4966 25.6239 28.244
42.3792 16.8502 20.4962
77.8036 19.3989 24.4878
83.5812 46.2066 50.476
30.3083 27.1255 46.3192
60.8108 21.2733 17.152
37.9114 14.7141 34.1368
104.863 84.4686 87.0902
60.72 51.7959 58.9293
32.4853 18.8771 21.1075
55.9606 21.5087 25.0616
69.0438 32.624 50.6966
24.3271 16.4368 18.0006
60.7251 19.7036 20.2308
28.5824 21.1095 20.1674
25.2859 22.3375 37.0435
73.4334 23.6184 32.2074
55.1498 29.1127 26.7826
57.4527 42.0648 62.8079
34.2094 20.2228 27.8047
58.2846 23.5354 19.395
35.5359 31.4478 67.0529
137.5 94.2719 88.7753
33.8347 23.4292 32.5057
51.5112 19.2633 29.6388
33.1906 21.1723 32.6782
47.5857 26.9172 53.4182
47.4283 75.2009 81.6066
57.6606 61.1628 97.3499
68.5697 31.1854 46.8612
41.5729 29.709 32.1171
36.6483 19.0121 43.0837
48.0288 36.917 40.0364
61.4883 35.2471 41.5637
54.0738 28.2267 34.4203
23.0925 15.4556 20.7645
42.6776 14.1289 16.6038
24.5884 31.2754 52.3258
60.6953 35.1342 57.8943
88.4659 90.7877 113.928
59.5239 18.55 27.8314
73.7422 37.9938 58.1289
57.0649 33.3912 29.7905
32.8572 27.4436 45.7994
77.0644 51.8719 72.6784
43.0946 19.2153 21.1558
47.9218 32.9483 45.4493
51.7581 16.6109 28.6879
54.6244 47.8776 56.7949
62.9673 29.2565 55.0716
28.3546 35.6257 43.8399
65.0753 30.5652 47.5746
42.5571 30.7993 30.7687
39.3253 28.1331 48.5592
25.9237 20.7341 20.0254
29.6574 20.121 37.1934
69.9525 48.9725 59.6659
66.5888 36.8979 65.2442
38.4211 26.1567 40.6406
73.0356 63.3104 103.096
40.8941 35.4794 42.995
34.0344 29.7261 38.1692
44.2701 13.2155 34.7681
49.7315 51.7113 59.0107
15.1821 15.3514 39.0431
68.5732 31.2199 36.1047
29.7128 31.0623 52.103
75.885 35.1331 52.4564
29.0336 26.9489 23.3179
44.016 19.012 32.322
45.2581 19.2159 20.3997
63.2339 55.7116 76.544
48.7053 43.4096 67.5932
35.9342 18.8494 26.8692
67.6368 43.5295 68.5779
32.4851 9.6539 19.1729
45.0778 26.0144 51.9555
48.0698 49.4286 66.8882
52.0218 25.2927 37.6542
42.0416 21.6286 40.7819
29.7034 22.029 25.5947
30.4343 47.2002 69.7079
27.4866 22.7749 32.5662
44.7655 23.4373 40.4465
43.9524 57.9156 84.2825
18.2744 14.5624 39.2015
69.6542 42.2632 74.4947
30.0772 27.4879 55.5178
45.6631 24.7583 29.0021
33.0249 31.192 31.9579
33.715 22.5711 40.9147
10.8604 40.324 69.9894
46.5506 17.7201 54.543
34.8793 24.3209 46.0491
35.3819 41.6425 31.0113
29.8665 22.8229 23.3918
35.1332 9.96444 11.7341
37.5666 64.5307 104.638
28.8858 17.0087 36.6049
49.4086 18.5411 33.6259
65.5629 34.0326 48.2008
35.604 29.9118 64.9655
33.3963 27.5321 33.6427
19.7646 28.1955 41.2657
19.2906 11.432 20.5953
29.0994 28.0566 38.8118
19.4635 28.0703 52.2737
41.6895 9.09703 8.64623
29.0133 16.6443 24.6584
23.0277 7.47726 12.7051
27.834 40.9535 94.2703
36.1924 16.3957 26.7205
40.6023 31.231 44.9612
18.5596 26.6759 61.9412
41.7419 32.5361 48.8961
21.0624 30.3466 59.0572
60.6317 19.5609 27.5421
53.5052 20.2032 19.9237
47.1522 39.3244 66.7394
20.5552 24.2282 49.6766
14.6953 13.1975 17.8268
24.1058 21.3794 25.741
25.3148 15.4832 31.0218
42.4074 46.3922 95.3697
18.4936 29.0729 49.1191
27.8087 14.4098 19.8243
8.89537 12.0859 15.5517
21.3974 33.3598 63.6405
48.8496 19.1959 29.9033
27.6893 24.1411 44.7939
56.6038 28.9252 35.7048
21.065 15.0653 33.8472
22.9274 29.9774 53.1446
31.86 17.6689 40.7585
24.7062 3.85455 15.6553
22.6685 24.3875 31.9071
32.513 45.0463 79.7365
45.2051 56.1806 72.3191
21.6998 34.2903 74.6329
46.768 35.2113 49.3993
18.7389 7.14087 20.556
26.1433 18.2448 42.3273
23.7948 12.4868 34.3836
29.5841 6.98585 22.4414
29.3978 30.226 30.8674
22.3708 12.4813 45.0832
51.7094 51.3532 64.3654
23.5202 18.968 38.1661
19.3848 18.9605 29.8791
25.1904 17.0381 37.8956
24.1909 37.4186 58.1251
35.487 13.776 41.1173
36.7858 32.2195 68.7322
18.4308 13.2542 31.7045
28.7704 40.9483 53.5509
20.8651 10.7892 19.8317
30.8817 20.1291 52.3677
30.9364 19.7123 29.8718
18.0664 7.66946 21.1215
19.4534 10.177 17.351
23.2219 13.7774 20.2365
11.8722 12.1544 32.2213
36.5695 24.6932 36.829
30.4911 37.4747 84.1031
29.9054 7.12117 28.8023
30.9877 45.86 53.7064
10.1936 35.9238 98.6545
39.4597 11.9366 24.0338
39.9362 14.3857 35.5548
16.2451 19.0752 32.4387
33.3176 35.7432 98.416
71.7484 34.7795 52.2131
35.1882 43.2679 68.9641
38.205 20.7226 33.617
18.0638 17.2808 49.8811
40.1597 35.063 59.7618
35.3159 30.3547 68.7619
35.8577 40.6464 74.8129
17.3642 6.82372 35.4685
28.9368 39.307 55.0586
45.8658 23.4221 39.7744
22.6262 19.458 54.4111
40.625 42.0384 68.5963
12.7 61.1451 124.436
36.7882 19.7059 47.2835
31.2484 14.66 39.7151
35.0268 29.6533 46.3763
34.6005 17.0594 34.0817
26.873 19.1662 28.06
29.0649 11.7738 23.69
22.4794 26.4108 61.593
17.4797 22.3697 32.8612
9.86043 36.1221 101.095
49.6337 37.2862 121.386
51.3187 38.9994 40.3761
28.1773 30.4481 68.9466
56.7404 49.8037 69.7407
25.6943 8.16633 19.6422
21.0586 26.4594 41.5557
32.0955 55.7399 170.327
56.8913 40.2476 79.3917
57.9615 35.178 60.2914
46.8339 28.6655 34.3146
24.4202 10.075 12.3838
22.7593 8.09627 34.7724
54.9943 43.2016 52.6926
15.1359 14.1185 46.4808
39.8988 37.6233 101.809
34.9323 36.678 89.4243
29.0697 30.4605 28.4831
44.9795 42.5507 92.017
7.89604 4.1677 10.3048
29.4688 30.6104 67.0655
18.4381 10.3562 28.5684
26.9033 7.60427 10.7181
33.0356 31.35 65.7289
17.0081 17.8287 58.7501
17.6008 25.3108 65.6072
29.6547 67.524 103.442
21.5462 28.3309 59.14
26.19 21.8443 33.8395
35.658 74.9443 193.595
55.3069 35.9037 65.6425
23.11 29.7395 58.0041
19.5067 16.245 56.4116
17.5961 18.7141 22.081
16.3077 14.8355 64.6127
37.6535 22.2989 29.3408
25.2614 15.3127 12.6503
20.4332 24.435 42.1701
32.5407 31.5133 70.3682
25.6886 9.40319 26.9239
21.5463 29.8736 60.362
21.5833 33.1689 71.7027
31.2103 20.4192 48.4618
24.7976 10.8831 9.47822
21.874 45.8809 119.643
26.2332 17.69 34.4627
34.2932 49.2766 76.5098
22.8764 17.2365 63.426
19.79 12.658 24.1752
20.5011 20.4315 57.7423
16.0294 9.00056 19.9212
17.9584 35.3647 78.126
21.3293 20.2366 55.7994
36.0597 31.4968 68.0308
22.0843 14.267 30.5201
19.3241 9.90839 55.965
37.5007 25.3452 33.1931
24.8823 8.61645 21.8901
29.1739 14.8682 27.1988
19.123 17.9635 53.3244
19.3616 14.537 23.692
22.8712 32.6508 80.2203
30.4566 12.4483 48.4736
20.5463 19.5024 23.871
13.4597 25.441 80.6437
31.9264 22.9581 51.2826
27.1623 24.9743 49.5527
27.6006 18.4501 61.8983
31.0144 42.9882 64.5945
26.5691 20.2855 72.8137
25.3881 9.11318 14.852
27.6709 14.1197 35.5953
24.2293 19.0172 39.2308
23.058 24.4049 77.5704
37.9554 25.6543 27.8757
21.5726 16.0419 52.4152
18.931 14.0582 47.1
18.6006 26.6461 53.0787
31.2032 25.0679 44.7066
12.4943 13.0987 42.9325
7.59099 18.4658 48.2297
21.5671 22.9831 100.421
46.266 40.0693 55.8345
13.0838 27.1116 72.3227
13.3167 16.8905 38.8703
22.2748 20.744 45.3652
26.0578 30.3783 69.3968
34.5955 16.8324 51.4741
35.106 24.4541 25.6993
17.9899 22.3639 52.8721
13.892 2.97273 17.5998
23.3693 22.3699 48.8622
29.6067 27.3973 58.6729
7.75328 14.9647 53.5058
30.8991 62.3526 131.748
13.2704 15.7792 62.017
26.9785 24.7759 45.2452
16.5447 10.2899 51.4332
30.4179 12.7012 31.5556
33.2723 19.7314 41.6358
25.0399 24.4887 60.2391
16.3412 25.1015 65.2262
18.7613 26.6383 67.5505
30.7876 52.5299 118.724
33.68 7.6721 22.9648
19.9871 11.4948 41.1489
