# pn-170911/CsIIA-24-USNO-1280-1959.psd
# Power spectrum* (dif=0,1,2) (really just |FT|^2)
# NOTE: only the first half! (symmetric)
# weeks: 1280-1959
# 6 clock-days, 5 excluded
# PSD: 1441
151278 3.00719 0.0263181
1.83673e+06 13.5466 0.0218777
1.77539e+07 396.488 0.0298551
2.61863e+06 117.097 0.0404201
1.00633e+06 62.9428 0.0498227
631314 54.2175 0.0283301
437924 71.0015 0.0160461
273117 44.0415 0.0253401
194744 55.396 0.0358315
90515.1 43.1992 0.0486185
195337 63.9371 0.0955041
126666 54.4321 0.0206638
68557.5 70.8324 0.0555072
125797 72.9803 0.0956061
37058.3 20.5932 0.0406354
123492 91.2468 0.0884731
41511.5 50.6031 0.101951
32840.9 23.1918 0.0545565
18324.5 26.1902 0.0749396
36328.5 67.1192 0.15989
44225.4 73.2047 0.185286
54044.1 77.049 0.221743
29685.6 51.1418 0.0868643
24921.1 57.679 0.133049
32936.1 71.0892 0.198975
11143.2 36.6773 0.133515
12867.9 53.7262 0.242119
27474 73.802 0.402577
27289.8 77.1341 0.364778
13184.9 34.4203 0.222432
13591 42.4204 0.142362
19509.6 75.2689 0.374546
7794.74 26.8057 0.159327
10267.1 52.2339 0.304605
7843.16 30.0438 0.154469
11861.5 75.7186 0.427694
7213.14 28.4947 0.136515
9070.51 51.1853 0.358739
7022.74 24.7012 0.223588
14446.9 78.6316 0.741762
7371.24 49.7777 0.430125
11399.4 60.4281 0.482768
5309.08 35.1944 0.3333
5079.24 60.8425 0.596745
7050.88 45.2225 0.452306
4907.72 50.9098 0.463015
7739.83 49.765 0.561842
5546.99 57.8832 0.674826
8614.57 61.4864 0.821822
2135.92 19.1914 0.197137
4236.46 42.747 0.501167
7206.17 89.7535 1.06501
4404.88 41.7883 0.490925
8786.48 76.7273 1.08505
4571.26 50.3694 0.703882
3520.14 44.2761 0.606431
7639.99 76.544 1.10326
3191.88 33.5338 0.46425
4043.44 56.7806 1.00576
2147.52 36.8312 0.658595
4150.99 62.4812 1.33206
2850.36 40.6234 0.624079
4219.02 67.45 1.37566
962.455 21.1189 0.403675
4922.44 68.2338 1.47537
4582.34 108.743 2.44819
2518.16 45.3571 0.999449
2717.11 38.5874 0.737257
4286.99 81.8247 1.74756
2908.13 30.6925 0.687367
3209.85 49.2756 1.33922
2867.68 61.2898 1.38007
1787.89 30.9604 0.831103
3428.11 76.8549 2.12528
3244.99 90.5255 2.28657
3084.77 65.794 1.93523
3501.65 60.8812 1.58941
1613.47 29.2049 1.14158
2899.51 56.8423 1.50796
2686.44 71.2867 2.07146
3620.18 100.53 2.94331
1931.45 34.8813 1.09096
1408.1 32.6133 1.25761
1228.43 36.3256 1.2107
1165.38 29.514 0.932498
2736.35 93.5902 3.16174
1025.62 21.6119 0.795449
1773.13 53.0061 1.6856
1180.59 49.2891 1.85711
1965.1 53.66 2.03055
1783.19 64.0265 2.84356
1365.84 57.972 2.12135
2557.9 89.8059 3.75014
994.818 50.1918 2.08869
4174.15 106.466 4.42126
1535.28 42.3572 2.01363
1239.43 35.3374 1.89974
1876.31 58.9923 2.5689
1480.5 38.6526 1.66183
853.215 34.509 1.66118
3008.64 89.7025 3.86285
1041.29 53.4517 2.46096
2158.35 73.3618 3.64464
1107 59.7783 2.79057
1579.51 51.8076 2.72594
1677.57 67.9093 3.63351
629.615 12.4642 0.74957
1476.38 82.4414 4.20175
1042.34 51.3874 2.56637
1211.36 50.5016 2.61383
390.176 24.1928 1.44998
994.425 23.596 1.5339
1705.6 60.7654 3.56975
996.153 55.2711 3.35159
1350.03 71.5003 4.2167
1032.88 54.3894 3.25627
1286.06 43.537 2.56545
580.485 29.1029 2.19258
1739.17 76.8157 4.81979
376.484 13.9345 0.914797
1025.21 35.2792 2.53525
1098.29 62.5359 4.27188
1256.02 73.1067 5.11986
937.28 71.9265 5.22562
1115.04 52.5223 3.89028
1014.37 43.0491 3.27472
658.954 30.7178 2.29878
471.957 13.8464 0.966516
642.965 56.1613 4.51268
409.246 32.6525 2.68525
1245.94 64.9353 5.19708
1643.87 107.562 8.26534
265.797 15.561 1.27217
627.308 28.6869 2.36067
734.49 51.1975 4.83383
728.609 58.5472 5.49119
721.3 72.3899 6.41439
557.042 14.5478 1.311
920.723 44.0906 4.09095
437.732 37.3935 3.46276
417.252 15.6883 1.58001
519.306 39.7378 3.27643
1056.93 51.5297 5.02088
809.397 68.8733 7.22616
983.155 84.4803 8.0106
729.526 67.1714 7.00669
90.2066 30.0647 2.81385
339.925 66.1792 6.80633
514.158 33.8334 3.60533
924.489 56.8122 6.19152
416.946 27.7463 3.43924
265.463 23.5864 2.16547
271.036 30.2821 3.22633
489.198 59.2898 6.9966
413.319 35.9853 4.16856
502.769 46.6611 4.98675
649.666 67.3679 7.72737
757.134 64.5493 6.67209
604.647 40.383 4.95878
317.707 33.2041 4.35485
316.766 34.1565 4.19284
468.124 22.6948 2.88314
422.899 59.7886 7.27769
462.446 33.7531 4.68642
537.247 68.7841 9.5487
585.226 72.6774 8.60244
719.91 56.9416 6.77313
366.103 37.7689 4.58397
796.288 93.823 13.7545
553.105 50.7439 6.00629
404.702 34.3175 4.45838
413.661 44.506 6.83978
300.732 19.7604 2.23932
473.799 23.739 3.14676
130.587 20.1224 3.2303
515.91 79.761 11.4176
139.618 40.39 5.80895
451.871 48.2207 7.82023
438.752 32.1243 4.65339
387.703 39.331 6.86262
525.83 68.8404 9.52451
800.584 74.118 11.1813
761.526 64.872 9.79059
555.882 59.003 9.11273
329.455 29.1371 5.02791
236.106 27.9756 4.22675
323.244 22.5992 3.19049
458.018 49.2761 8.89975
556.386 52.4154 8.05541
265.01 51.5118 10.0541
740.226 83.5091 13.2817
272.51 19.1863 3.48893
449.14 53.4615 8.63415
377.622 51.7962 10.4143
438.527 76.322 13.1343
268.815 32.8322 4.70798
528.183 71.9432 13.0432
487.638 54.398 9.0377
345.523 65.6889 12.8974
346.55 19.4794 3.41527
124.904 21.6119 3.59211
414.32 48.8339 9.58546
278.221 29.7244 6.06132
225.267 15.0343 3.15811
237.877 28.2873 5.55549
308.69 36.0445 6.86403
228.958 12.2428 2.03864
443.743 47.5583 9.3198
403.416 44.499 8.92622
186.752 53.1667 11.4125
344.858 70.9041 13.6195
209.605 36.9543 8.58328
368.213 38.6261 7.58382
311.889 35.2838 7.74012
308.19 34.03 7.69641
321.06 33.3643 6.73352
124.317 21.7409 5.35242
405.514 47.9769 10.4201
247.592 37.0643 8.98425
219.411 34.7637 7.69608
142.045 32.5992 6.8812
249.134 36.2056 7.67208
198.437 40.726 8.63633
96.5664 34.5325 8.10211
167.842 35.1491 7.86269
150.057 37.943 9.52335
123.733 27.5298 7.62323
299.446 40.7608 9.99482
148.365 44.6735 9.77997
317.53 42.693 10.8108
146.464 27.1831 5.48424
262.182 60.1353 15.3863
160.839 38.996 11.776
300.959 35.0571 7.99491
189.605 48.1889 11.7805
67.1677 14.1299 5.29883
192.263 46.5702 10.2723
278.923 42.707 10.5886
149.002 20.5903 6.23705
130.594 11.4048 3.14597
301.321 54.1815 15.9265
185.699 27.5375 7.10235
195.923 29.2036 7.88945
267.406 27.6586 7.3395
183.34 23.559 7.0117
195.767 27.6301 7.6395
165.535 30.6294 8.10192
246.131 56.8826 16.9773
168.317 51.0345 14.297
121.335 13.5531 4.03161
145.767 14.4192 3.92464
131.084 20.6242 5.45111
111.065 34.3344 11.2517
351.275 56.3417 16.1999
190.971 42.035 13.6701
249.027 51.1241 15.4603
179.264 32.3713 10.8385
243.97 37.3246 11.6021
132.796 39.1481 12.7667
227.403 59.1191 18.5231
187.604 31.0525 11.3477
161.196 30.2308 9.70221
84.4536 12.4585 3.34227
172.921 29.2948 8.37055
99.668 15.0077 5.32146
222.322 77.3008 24.502
345.098 68.8519 21.1922
184.72 50.9239 15.3217
87.6189 27.7197 9.14314
214.529 61.35 19.3977
112.198 27.0619 10.2527
81.528 26.6012 8.15107
69.9487 26.8153 9.78646
55.9096 17.0588 5.39938
142.975 20.7423 6.94734
70.0362 20.156 9.44503
129.854 51.8162 15.9929
35.2717 16.1631 5.95557
154.975 39.3573 14.008
130.63 32.8432 12.658
166.225 38.0454 12.8283
153.219 33.748 14.2983
105.536 32.8737 12.7897
217.738 39.3776 15.0735
57.7489 29.156 10.2874
105.509 14.5975 5.28387
180.083 47.0086 18.0843
115.419 24.4303 8.17134
170.581 58.3208 24.3903
103.864 32.3027 11.3643
150.274 27.1145 12.2076
90.9296 26.1061 8.80339
90.3089 27.4701 11.9086
217.783 44.548 16.0919
70.5935 10.9807 4.45701
82.7901 22.2482 7.61655
96.441 47.6553 21.7653
70.5536 24.062 8.6302
74.0349 30.0316 10.9628
157.481 32.6223 14.1082
89.2907 23.0619 10.487
68.3156 24.1202 9.70681
108.805 39.0426 15.6519
56.1355 17.2231 7.45944
48.5674 19.6256 7.11472
85.9405 38.7388 18.3263
83.7814 28.7115 12.234
146.777 36.4476 15.8189
79.1967 25.7396 13.2157
107.668 33.0657 13.0025
103.639 42.8114 22.883
207.287 46.8465 19.4395
122.353 15.3416 5.69756
76.065 12.9709 4.41476
86.3566 38.9276 16.1113
70.7925 29.6403 15.8441
164.531 22.4787 8.16948
115.556 31.6265 14.3489
133.824 30.8939 12.6467
60.3635 39.895 18.1241
102.764 20.6983 10.8245
101.677 37.8667 16.4587
26.0786 28.2512 15.7585
142.091 19.7043 7.9919
96.2365 19.8201 9.17412
142.66 46.9465 24.8834
49.7367 38.7542 16.035
114.567 39.9694 16.4672
51.2825 17.7701 9.45242
34.3921 13.5343 7.90836
197 44.47 24.1404
40.9144 20.7777 9.0031
66.6683 40.3205 18.691
86.9704 34.8024 21.0721
145.518 60.132 30.266
69.654 49.9428 25.9301
122.197 25.348 13.4625
120.743 77.0198 37.3488
92.3392 24.683 13.6149
50.8665 9.59014 7.16376
143.804 47.8825 22.8247
50.2992 23.6854 13.6673
126.466 42.9231 21.2531
33.5583 31.1851 20.3181
97.4818 22.5075 9.51651
78.1793 26.724 14.5622
61.5702 11.2093 7.77748
93.1367 49.1815 23.0427
41.4723 19.7839 12.9267
147.422 32.4747 13.7865
38.0371 23.2764 11.8195
28.818 18.0504 10.7215
73.2788 33.6288 19.7272
56.6708 19.0405 11.4644
100.343 37.1482 21.6551
68.9876 25.3837 18.8473
102.245 29.9518 12.4785
79.8012 51.5717 27.3279
96.8013 42.73 24.3049
71.5761 34.5396 24.5875
149.968 54.8921 29.9898
67.6266 26.8108 13.0369
42.8684 17.2028 10.2889
64.0566 17.1427 10.6742
58.2593 17.7383 12.2372
93.9646 34.4499 18.5212
58.5314 25.6536 16.9123
31.2479 16.8914 9.35102
43.0561 10.4307 7.5281
21.7414 10.3783 4.76956
37.4601 27.9929 18.0802
49.0413 13.0187 8.00867
102.842 35.0434 21.7466
62.0639 14.0468 10.1147
50.5019 10.1387 5.83811
76.7143 33.9505 25.229
85.2399 28.6856 13.0461
65.647 30.6516 20.325
77.726 31.3982 18.6472
53.3297 18.6767 12.9238
77.798 24.6298 17.2789
106.256 34.6733 27.2433
44.5289 13.242 6.52615
56.1354 25.9776 16.9912
78.9433 33.3727 23.0329
91.6375 39.732 24.7456
48.9394 11.8545 8.45142
63.5356 30.0312 18.5135
71.3137 23.7377 14.9935
43.9294 24.6066 16.1229
43.2545 19.6763 13.5707
70.3232 29.7138 20.2233
43.5901 10.2692 10.0687
102.272 45.1515 27.8357
53.7344 32.5112 19.223
39.6947 24.7237 19.1734
31.6575 5.50523 4.99329
23.3945 6.57974 5.82954
34.6731 17.031 14.4329
78.4506 24.718 15.5214
103.155 35.6786 29.1373
83.1347 34.6169 20.1788
51.8058 25.4454 20.0873
58.4209 29.701 23.5526
45.3705 25.9022 19.2085
70.8026 21.708 14.8427
19.7485 15.7298 8.71899
29.7397 16.3005 13.1664
30.0035 25.4459 19.0717
40.6633 19.3807 12.0179
58.2225 25.9238 19.3066
20.8421 14.1821 12.0777
98.2986 29.3245 22.9441
55.3047 27.6246 19.5822
33.4623 30.8511 25.9031
56.1115 30.0497 21.6983
51.0853 19.3001 17.8103
41.8664 22.1016 15.3769
47.9544 18.1425 18.3688
50.329 21.3324 15.2475
43.9665 17.7039 17.3354
44.6513 20.9673 14.6178
60.9087 44.2038 37.0482
46.8669 20.48 11.9147
38.7938 30.3828 31.2361
38.7685 18.6765 15.0631
72.5779 37.0818 34.7341
45.6253 20.8773 11.7623
56.1225 15.6361 12.1803
35.2967 18.5327 15.2661
61.104 17.3121 12.5043
74.1842 30.0487 28.04
44.3307 19.0432 15.5876
71.8568 35.39 21.0832
28.4479 24.8334 24.4211
30.3132 29.5804 19.3483
31.0064 25.5938 28.7617
47.5406 14.9436 12.0061
27.206 18.4598 20.2236
38.3978 16.3518 10.3407
57.5026 29.0649 20.9521
67.3694 23.5933 20.3257
51.3204 24.468 20.4105
73.8293 26.8473 21.0732
38.8518 20.1607 17.5249
14.3156 7.40913 11.9221
34.6251 39.4848 32.8988
36.9252 14.6834 11.763
49.9908 25.3307 24.7137
46.1095 13.2984 9.88161
77.1178 38.6184 29.7896
31.0535 30.352 31.5878
58.6727 51.8267 41.5153
23.7766 6.40165 9.96913
73.6986 30.6463 22.7338
54.7821 35.1273 31.4431
36.134 20.6705 14.1427
8.84077 17.1721 21.2021
33.3255 13.9145 10.9627
21.6307 11.2163 8.7823
17.9997 25.2984 23.943
38.3612 6.5934 6.39823
47.6981 28.2415 32.5656
59.7472 27.0656 19.4484
19.273 8.97018 8.3724
35.678 30.9499 26.4486
41.7484 16.1289 18.8803
43.0823 11.9367 9.12281
33.9309 8.01198 9.8417
30.3771 14.5772 14.131
21.7003 20.4271 20.508
32.2533 15.5657 13.8477
55.4558 21.469 20.9308
32.1183 22.7386 24.9211
56.3222 32.752 27.1111
35.3554 17.1083 13.2486
26.2222 23.7446 24.137
20.2616 21.4956 20.9209
30.7454 16.3505 15.3038
36.7973 10.7069 11.2585
36.5023 26.209 24.8409
43.3729 41.1988 45.1333
36.5707 28.341 31.0349
16.775 8.43641 8.19485
31.3091 22.9076 21.3132
36.8828 10.7992 12.8987
56.4684 19.7942 17.8977
42.2966 21.6983 30.529
47.0371 23.3053 23.5407
37.0467 24.1991 21.8941
34.6185 35.3421 38.5241
21.4563 9.01103 15.751
44.1022 16.9897 11.6002
52.1581 18.2417 17.3834
43.8801 14.8969 15.6468
22.4259 12.0814 14.1118
39.3367 29.637 33.529
45.0396 19.8572 30.48
76.8046 33.6027 23.3063
36.7157 26.145 25.3766
33.8612 13.4546 13.5429
27.6902 15.7496 20.2965
32.4576 15.8522 15.4151
35.1528 11.2522 15.4075
32.1007 24.0691 21.0207
22.1878 16.1618 22.1064
34.1918 19.3924 25.9869
48.8081 38.6346 46.4614
70.9124 42.065 39.8441
23.8331 18.6318 22.6615
30.971 20.7463 22.2104
54.7929 23.3658 22.3044
54.5933 25.7844 30.1376
14.2227 5.5707 4.49279
9.67769 13.774 13.3479
30.593 21.4088 23.2559
33.289 16.8566 19.1098
42.6891 19.8351 24.1387
30.7402 21.557 28.23
34.2945 14.2797 10.773
16.0282 30.4684 34.4555
33.0673 12.623 16.4716
51.0966 29.5367 34.6429
45.9133 16.6168 19.4637
63.6982 23.0342 25.4127
15.2477 9.2406 12.9812
19.0906 12.6079 24.8982
23.9478 24.7351 24.8845
23.8898 15.9148 20.1464
50.9536 12.9119 16.5012
33.2624 8.52358 11.4297
40.2139 12.1685 13.4601
43.4247 21.565 19.867
33.5689 17.6456 25.4694
35.8064 17.0002 21.5855
32.8977 21.8922 26.3701
68.7973 22.023 21.0075
17.9301 13.9107 15.978
24.281 14.7608 24.3407
41.3594 17.6825 21.6154
38.4733 18.6466 22.5117
35.6105 13.1998 23.7018
62.799 27.5285 26.8208
37.1945 11.7124 12.9299
10.0441 14.5623 23.0409
46.6027 23 30.1454
22.2866 17.5452 18.7699
29.2824 20.2312 26.2014
43.2469 8.11541 6.8267
10.3967 13.5393 21.2991
55.129 42.2637 56.4138
40.941 17.8822 17.3696
19.1632 10.6879 12.597
32.5518 9.97563 10.2427
34.8508 12.1773 17.3583
50.5296 22.3188 23.6535
25.6971 14.4124 22.1579
15.3656 12.0762 17.5032
26.0659 10.4396 11.3759
13.9362 8.59165 15.8825
26.6246 19.3125 25.828
42.9005 20.7513 24.2877
26.3564 17.978 30.9225
17.2275 15.1809 15.5456
26.7084 13.7713 14.9493
21.7683 12.4706 21.7398
63.4304 23.2838 29.1027
11.9294 17.631 20.347
24.759 13.7168 18.5127
21.2347 15.1957 16.0727
10.5447 15.4742 19.7952
24.3069 10.4334 20.7608
25.2209 16.5409 26.4397
32.5662 23.2037 28.181
23.6005 7.5783 19.437
21.5629 12.1319 18.6779
17.2735 12.8238 10.1322
19.9746 5.03304 9.47722
43.4269 22.6749 23.6481
39.702 30.7501 34.8531
36.4033 19.0079 29.7079
23.8259 16.5233 26.337
13.6647 9.85966 21.6686
23.1051 6.28186 9.06437
31.1002 9.57503 9.86624
22.5082 13.8765 16.8716
21.4938 5.96616 18.5351
18.0663 12.901 14.0735
22.8081 10.3839 24.8769
23.7437 25.5152 35.6954
52.0303 18.6876 21.5936
25.4363 9.10926 12.858
30.0133 11.8579 14.6674
36.987 19.7657 29.7303
15.9732 13.7959 15.0938
14.907 9.51115 13.6487
10.816 10.7758 20.7823
29.9589 18.8464 32.6161
48.0817 16.6484 21.9056
14.4548 12.0389 20.0331
31.0064 20.0123 32.3404
26.395 13.3131 9.98918
31.708 7.01628 9.02127
19.862 8.64553 15.2029
43.1622 9.91434 12.2232
25.6688 12.4453 17.1356
21.4568 15.5565 24.9882
30.1273 12.6716 17.7301
16.995 5.64467 12.9239
36.1846 13.7444 13.2892
31.7459 9.02082 16.2298
37.9072 18.402 34.3361
24.1152 13.0021 13.4036
25.5934 21.4174 36.5748
39.3414 20.246 27.9387
14.0408 7.51668 12.033
32.3505 10.644 17.3637
28.8596 15.3544 20.3915
12.0557 7.98595 15.3464
19.0425 13.2807 21.3028
18.8266 7.61482 12.0497
24.1888 7.59013 12.593
20.3191 10.7536 17.1391
22.0452 10.651 14.6036
17.5378 10.5327 20.8901
10.5751 7.82992 10.229
29.1758 10.822 19.9943
16.0176 15.251 20.5557
25.5862 11.8959 18.9236
28.353 15.6783 21.5778
21.0324 8.29394 12.1664
15.8188 11.2632 20.1536
21.4779 10.6204 19.4268
22.6423 4.18844 8.2498
13.1934 6.37289 7.67575
46.1819 13.0542 20.9053
26.6538 11.4138 17.6933
27.537 22.3523 31.8895
12.6642 17.6657 27.1646
6.89877 14.9538 38.692
54.7816 19.8781 25.6295
18.9366 13.1702 23.7026
18.9517 8.85401 14.6807
15.981 17.9432 25.9896
16.6807 10.8471 20.6931
11.432 3.09106 7.58916
15.8743 9.55477 20.2498
40.5148 9.74605 10.8157
18.9027 13.6462 22.4541
28.9691 20.0903 32.1804
12.0884 10.2628 17.1491
14.2307 12.5693 24.688
20.6556 7.41964 16.3453
16.3086 18.7168 20.9331
36.9735 6.37918 9.02458
21.3153 15.472 30.0207
17.7618 14.2397 34.6833
13.6888 18.9863 32.4851
26.5396 4.80322 6.6263
27.6107 13.2332 19.081
19.0946 12.5224 20.9969
24.1747 10.7559 18.9233
14.9189 6.60324 9.14956
10.39 4.48234 8.52916
15.256 7.91034 23.6777
22.4428 6.12855 3.42752
25.1235 14.9648 29.672
20.0476 13.802 20.7385
7.93038 10.2443 19.9727
29.7309 24.375 33.012
23.6973 10.8719 20.0232
10.9368 4.1672 6.68159
16.5548 9.21142 23.0404
20.0472 11.9207 17.0916
13.3132 17.3503 32.7805
19.5443 9.3536 22.0857
26.9841 14.9177 23.5488
32.5038 17.7448 30.8391
24.8477 9.52157 15.5767
20.4673 13.7669 20.6856
21.7124 18.3503 39.6156
16.4436 14.3174 25.5895
15.5676 7.90362 8.1061
10.8684 9.26461 16.7978
30.4406 9.76231 22.65
33.8883 9.76275 21.5869
12.974 5.98555 9.11355
15.7052 12.8539 26.293
11.7814 8.38877 19.2719
27.1789 9.87465 12.5296
20.5444 4.77182 8.79335
19.0774 5.55664 10.8781
15.7993 2.77595 7.17272
14.7744 19.6098 33.4861
22.3531 10.8708 14.2757
8.20183 8.85751 16.0178
19.2441 10.6967 32.1488
17.9303 15.0564 28.7819
21.4575 11.1746 20.9306
17.7018 6.99853 10.5561
11.3702 10.7121 31.3554
19.6488 11.7015 20.8976
16.7127 8.35943 16.9892
20.5048 12.1756 21.2626
24.6772 19.3632 32.1762
9.84013 5.21266 9.28308
16.8867 14.702 31.8418
17.3602 10.6207 24.0631
28.1963 15.5179 22.387
18.1004 14.2473 25.3452
11.59 5.36602 16.5662
14.8189 7.36495 23.5878
23.7677 20.6195 34.5106
13.5634 15.6026 22.4552
7.85892 5.31833 12.127
17.2659 9.48898 21.3534
10.1292 13.5998 28.8173
17.9262 13.8316 25.6082
19.5278 10.0183 19.9552
21.8774 25.7564 40.7987
14.2169 3.42708 13.3
13.7221 15.9872 28.7515
15.2831 6.75126 20.7406
18.5399 11.1581 28.5273
11.6759 11.2094 20.1928
12.0706 6.93569 15.4912
19.2237 9.61631 14.1319
16.551 14.0245 21.9074
13.3594 10.1384 23.6571
17.9059 7.43385 16.4125
13.7949 6.56954 17.3625
20.4412 9.69021 11.753
18.7135 11.6917 19.5594
8.48663 10.1602 23.6775
22.3132 13.9813 26.5325
18.5236 6.61025 20.9386
19.1663 5.20871 12.0554
10.6095 8.80713 13.294
7.82833 5.7556 12.1549
15.6343 3.93139 12.0536
13.6801 4.42011 6.43665
22.1018 14.3571 24.0312
7.06322 5.44419 11.3562
7.36494 5.68386 16.535
14.9037 12.0196 25.8281
18.2379 7.0557 21.0338
8.93154 14.5323 20.8075
18.8217 8.24971 21.3703
20.0559 10.8483 22.7688
11.2518 7.88021 12.9451
9.05534 3.68342 10.9876
15.3414 6.10635 11.8579
16.6872 6.80935 16.254
24.6163 13.7867 25.5886
11.7807 12.3798 29.8456
8.57833 11.6311 24.9875
7.84125 6.34763 14.8538
16.6272 7.75931 17.14
19.3262 5.10398 16.4021
15.9884 13.6724 33.6396
26.9566 8.24983 11.6969
9.73991 4.77552 7.86222
10.388 3.61747 14.5303
10.7049 8.2109 13.1432
11.8278 13.6002 28.5057
16.3 7.14381 24.8358
22.1797 10.5859 14.2536
12.9626 8.84199 15.9332
8.93803 7.03142 9.42186
9.24634 12.0825 37.6769
23.2479 7.9052 18.7429
30.1829 11.4887 18.7381
13.6584 8.30601 21.6552
14.6084 7.51215 16.9299
7.10624 6.19561 11.7986
8.44587 8.22967 17.9632
14.5634 3.32733 6.95595
17.6586 6.71842 15.6936
9.89296 5.23572 15.1369
8.43526 6.44247 14.7168
12.2669 5.61594 10.6303
4.20864 16.2443 45.1853
16.8484 8.86926 9.81818
16.6323 9.4601 26.3729
21.77 13.9518 28.0702
10.8775 7.41484 14.4462
9.00278 4.44709 10.0144
7.69124 4.25717 8.12506
11.2073 2.92266 5.21987
8.44251 1.13083 7.36215
16.4694 6.73807 17.5904
13.4175 17.3538 24.9366
9.33455 11.1456 32.8801
6.49987 5.92979 12.6471
11.7186 9.48825 22.6202
12.1533 7.21177 20.4024
26.5506 11.3677 24.4035
15.9482 7.21914 14.9216
5.93502 5.89077 17.8358
7.49634 5.36568 8.53455
9.96103 5.00879 16.7618
16.0782 15.64 26.3335
15.6916 7.05916 24.0605
7.90275 9.53174 23.0086
7.18867 8.26449 15.6306
5.70019 2.73956 9.28478
9.22135 5.72406 17.1158
12.4883 7.15302 13.1027
12.6882 6.69663 9.17398
12.7127 14.2327 37.1703
9.15417 5.20152 15.9193
4.09702 8.98452 29.1177
8.84356 8.78479 10.9656
5.03958 10.3074 27.3554
13.1645 5.96551 16.0948
16.7695 6.86669 20.9244
17.9816 12.5731 23.686
8.69892 5.84669 8.07738
7.91798 9.49457 33.981
6.77299 14.5501 23.2504
10.6295 5.86139 19.0977
19.9982 9.55914 23.3646
14.0301 8.19541 21.0985
12.5985 3.92701 13.4737
9.59326 6.80956 10.7824
4.57481 8.17469 22.7147
9.15536 7.54036 22.4522
12.888 10.9865 18.9663
8.81894 4.89913 12.7993
6.62106 7.13898 15.637
9.59888 14.7734 36.7357
6.77036 6.84768 18.1172
10.2265 6.4119 15.4869
