# pn-170911/CsIIA-38-USN3-1280-1959.psd
# Power spectrum* (dif=0,1,2) (really just |FT|^2)
# NOTE: only the first half! (symmetric)
# weeks: 1280-1959
# 2500 clock-days, 1058 excluded
# PSD: 1441
66107 2.02997 0.0390761
1.84387e+06 31.6103 0.0444797
1.04472e+07 211.32 0.0503586
1.64063e+06 61.4957 0.044986
1.54982e+06 107.957 0.0521836
586277 57.7461 0.0514038
405875 59.3313 0.0541051
300575 58.6482 0.0589921
243123 60.7524 0.0630335
192918 60.1976 0.0631484
152752 57.8235 0.0701698
129341 60.882 0.0798607
105012 58.5996 0.0844705
90537.6 59.3214 0.0929326
79506.2 61.4896 0.102049
68269.2 60.6162 0.107851
59877.5 59.9902 0.114
50849.1 57.0854 0.122223
49586.3 61.8915 0.140855
42278.7 59.083 0.141893
38244.8 58.6623 0.153603
34691.5 58.1778 0.162259
31055.7 58.6848 0.174067
27775.1 57.8808 0.190695
26288.7 58.8396 0.204812
24210.8 58.7897 0.219555
22996.1 59.8189 0.238611
21575.5 60.0654 0.250326
19660.1 60.753 0.267139
17887.8 58.0842 0.276015
16913.1 59.2729 0.296409
15588.7 59.0071 0.320304
15067.8 59.7473 0.337381
14203 59.9357 0.351558
12812.4 58.8413 0.364835
12363.3 58.4273 0.380932
11854 59.3088 0.4077
11099.3 59.2328 0.430459
10646 59.9663 0.455399
10190.3 59.1247 0.473987
9658.05 59.3671 0.503622
9196.32 59.7037 0.528374
8691.74 58.8722 0.538855
7999.31 57.9181 0.554459
7809.47 59.6624 0.595298
7317.45 56.8777 0.586026
7178.14 58.6402 0.641736
6977.06 59.9631 0.67428
6791.22 59.8165 0.703269
6538.27 59.0327 0.719015
5956.55 58.0738 0.730012
5943.85 59.5534 0.778827
5685.06 59.4223 0.812058
5398.76 59.5918 0.838155
5177.8 59.8275 0.877334
5196.78 61.6504 0.933703
4834.22 59.148 0.924429
4549.7 57.7533 0.934071
4559.91 59.2211 0.982044
4489.15 59.9793 1.03135
4270.96 59.4519 1.05289
4079.36 58.5954 1.06543
3935.36 58.3058 1.10524
3852.33 59.7015 1.16444
3901 61.5359 1.24779
3570.65 58.4345 1.21759
3415.21 57.5943 1.22666
3301.71 57.5796 1.28327
3304.45 59.3163 1.34479
3168.41 57.8613 1.34074
3067.03 57.3248 1.36936
3090.68 59.2511 1.46161
2990.26 58.7612 1.4924
2867 57.993 1.49586
2664.95 55.7642 1.49355
2707.81 58.6946 1.60453
2671.22 58.003 1.6247
2542.68 57.4775 1.66775
2463.91 57.9759 1.70074
2383.97 57.571 1.74876
2326.81 57.0804 1.77771
2318.87 57.8116 1.83316
2262.14 59.3035 1.9402
2160.37 56.915 1.90149
2147.19 58.2477 1.99329
2048.2 57.6054 2.01452
2045.04 57.8822 2.0528
1999.16 57.8514 2.11863
1958.43 58.0569 2.16261
1912.42 59.3014 2.26776
1900.53 59.6281 2.31331
1823.24 57.7297 2.31381
1726.36 57.9304 2.36992
1722.47 57.8396 2.42076
1681.91 57.0307 2.42941
1709.66 59.2708 2.57607
1586.3 56.6031 2.50593
1591.5 56.7652 2.57403
1569.12 57.3054 2.66653
1537.15 58.6167 2.77889
1461.23 56.3581 2.72203
1450.89 55.9434 2.73149
1427.18 55.6804 2.79252
1407 58.3667 2.9549
1423.52 58.8074 3.02851
1365.6 57.7949 3.08158
1297.21 55.92 3.01394
1287.29 57.318 3.12591
1278.39 56.0099 3.13081
1218.37 55.9482 3.1938
1281.91 59.1379 3.43104
1176.71 56.2379 3.3075
1179.63 55.2589 3.31558
1154.2 57.94 3.53687
1146.55 56.0509 3.48606
1138.55 58.2409 3.66731
1095.44 57.5506 3.69178
1093.98 57.5063 3.75811
1043.72 57.3019 3.8262
1044.6 55.6408 3.74174
1055.37 58.0671 4.00916
1047.32 59.7899 4.17328
1016.21 57.9814 4.13779
984.959 57.2862 4.10667
945.819 55.5128 4.06243
911.904 54.8366 4.08905
935.212 57.8371 4.35649
885.381 53.3923 4.09858
934.344 58.5119 4.56809
887.449 56.731 4.50661
878.235 57.0192 4.58938
854.178 56.051 4.56697
862.431 56.2255 4.66583
842.047 57.1048 4.81541
811.316 55.6193 4.7489
809.799 56.0175 4.83901
781.037 54.5496 4.77718
794.485 56.7514 5.06684
750.98 54.0666 4.89659
764.568 57.0947 5.25451
766.229 57.0268 5.31467
712.245 53.5317 5.02536
732.894 55.958 5.34796
704.857 54.8321 5.34306
714.767 55.9398 5.47502
725.569 57.1888 5.72086
698.828 55.4506 5.57673
690.869 55.7016 5.69755
691.564 56.0227 5.79454
652.636 54.4513 5.71841
639.474 54.6092 5.83983
639.075 54.503 5.88189
628.867 53.8175 5.93502
607.302 53.6275 5.92887
614.467 55.4661 6.22584
591.343 54.2324 6.14748
626.309 56.5986 6.52763
580.638 53.9426 6.25703
564.848 53.9485 6.32278
573.869 52.722 6.27635
551.527 53.6083 6.48368
562.265 54.2372 6.6548
565.369 55.768 6.88911
541.041 53.9407 6.76091
517.046 53.1094 6.80069
542.622 55.5868 7.15368
517.503 53.3165 6.93887
515.267 54.1755 7.15129
516.376 55.3794 7.34599
511.638 54.6504 7.32343
496.099 53.9285 7.39755
487.447 53.3335 7.40459
470.829 51.9763 7.26539
476.805 53.2227 7.48132
460.899 52.2091 7.45485
470.432 53.6392 7.71604
464.918 54.0293 7.9241
468.301 54.8653 8.15048
457.189 54.0046 8.06757
438.286 52.9731 7.93435
436.335 52.8256 8.06451
442.971 53.809 8.35567
428.349 52.7071 8.20129
415.22 52.1658 8.20511
407.482 52.3016 8.35213
409.81 52.9345 8.50645
410.096 52.0389 8.48693
417.623 53.694 8.76391
405.131 52.671 8.76883
385.686 51.6892 8.67273
384.578 52.8925 8.97742
374.127 50.5934 8.69709
383.262 53.1895 9.23478
387.807 53.2826 9.27673
373.05 52.8459 9.37503
365.962 51.864 9.22523
368.341 53.492 9.61974
363.512 52.6212 9.56663
356.932 52.1154 9.59787
352.234 51.9653 9.6813
344.431 52.4048 9.87502
339.924 51.0099 9.62978
332.372 51.1337 9.80235
335.438 51.4735 9.95691
328.478 50.4121 9.79225
324.12 50.4737 9.91087
331.578 52.6515 10.427
316.896 50.3146 10.1106
317.151 49.9778 10.1336
306.696 50.4382 10.3579
308.928 51.6249 10.6387
308.17 50.8534 10.6071
303.246 49.0899 10.3208
303.828 49.5837 10.4746
303.364 51.1841 11.0404
300.391 50.1093 10.8282
294.833 50.4464 10.9657
290.357 50.6488 11.0854
289.866 50.2967 11.1976
280.946 49.4352 11.1091
275.051 49.8289 11.3182
286.716 51.8231 11.7081
277.084 49.9721 11.5185
277.302 51.3401 11.9147
267.556 49.4068 11.5666
274.488 50.7896 11.967
262.59 49.5386 11.8019
258.184 49.3074 11.8351
265.144 50.5526 12.2677
263.208 50.5824 12.4318
255.264 47.8578 11.8087
248.348 49.7255 12.3941
249.276 49.0271 12.3057
247.705 49.2474 12.4546
243.366 49.2739 12.6309
249.106 49.8027 12.8342
245.541 49.3759 12.7826
246.567 50.5713 13.2573
239.623 49.3804 13.0959
238.103 49.2504 13.1489
231.94 48.1218 12.8381
238.479 51.4489 13.9007
223.823 48.5115 13.1478
220.806 47.9482 13.2486
227.579 49.0677 13.5696
223.271 48.4339 13.4781
226.732 49.1678 13.7888
208.394 46.9189 13.2925
216.983 48.6067 13.8195
212.253 48.2925 13.9983
214.508 49.1966 14.2794
207.053 48.1036 13.9745
206.366 48.518 14.4432
208.893 48.1482 14.2553
196.092 45.316 13.6085
205.761 48.3808 14.6316
200.842 47.6696 14.4417
200.192 47.951 14.8069
202.051 47.8101 14.7237
204.395 51.0359 15.9015
197.37 47.8892 15.1082
197.052 47.6022 14.9531
187.318 45.1449 14.3503
195.602 48.0788 15.2663
190.63 47.4539 15.3067
188.771 47.2041 15.2954
190.032 48.5722 15.9156
187.581 47.703 15.7063
182.531 47.547 15.8211
187.928 47.7729 15.8876
179.294 46.4819 15.7632
175.511 46.5541 15.6949
173.038 45.0132 15.4862
173.515 47.6257 16.5126
174.318 46.8848 16.2314
173.647 46.9259 16.2561
165.78 45.7194 16.1736
168.105 46.5873 16.5853
165.434 44.3708 15.8791
161.159 44.9202 15.9867
163.847 45.8005 16.7901
168.964 45.6459 16.5824
157.449 44.4507 16.1501
161.913 45.7135 16.8705
158.996 45.8392 17.1183
164.31 47.3228 17.6856
153.917 45.8678 17.2458
155.429 45.4441 17.3634
152.958 43.5851 16.4908
153.279 45.2659 17.4325
154.51 45.8225 17.9583
154.022 45.2763 17.6684
149.187 45.2659 17.7334
152.357 45.9816 18.1021
147.523 44.7284 17.7593
146.674 45.2923 18.2153
155.663 47.3658 19.0997
145.886 44.3778 18.0468
145.618 44.9572 18.2598
140.784 44.5379 18.4194
142.176 45.3943 18.6914
139.676 45.5237 18.9884
143.603 45.0571 18.7399
135.245 43.1484 18.1441
131.313 42.5656 18.0961
132.372 42.6332 18.2488
136.733 44.8157 19.3195
132.357 43.5604 18.947
134.276 45.0681 19.5033
133.699 43.1615 18.9015
132.044 44.1962 19.2772
130.548 43.2035 19.2315
129.537 44.5083 19.6918
126.042 42.861 19.1781
129.772 44.0969 19.9315
125.361 42.5931 19.3062
124.86 43.3586 19.7746
126.937 43.648 20.0399
124.363 43.9455 20.0104
126.59 44.4218 20.6497
124.143 43.9969 20.5973
116.492 41.4563 19.6151
120.345 43.0236 20.4478
114.575 40.755 19.5654
118.481 42.366 20.2595
113.99 41.3931 19.8325
114.153 41.8104 20.4694
115.813 42.8387 21.0265
118.311 44.0702 21.3766
111.562 41.4693 20.647
114.543 41.762 20.5577
111.759 42.7316 21.2539
111.973 42.1792 21.2248
108.955 41.9876 21.1808
113.557 43.2944 22.1041
107.495 41.3602 21.0607
108.804 42.2406 21.6336
104.874 41.167 21.4773
108.773 43.7281 22.5588
104.805 41.5113 21.7052
106.441 42.2435 22.0748
103.659 40.0711 21.3668
106.168 42.6455 22.5603
104.043 41.5486 22.1712
101.791 42.0074 22.7502
100.198 40.908 22.0105
98.4659 40.4613 22.1038
103.181 41.965 22.9845
102.414 41.478 22.6719
98.4304 41.919 22.9647
96.9554 40.6806 22.6641
98.1546 40.1826 22.3898
98.1185 41.3091 23.3729
98.4321 41.1803 23.1393
97.2667 41.5542 23.4453
93.3845 38.6807 21.9475
98.4441 42.6869 24.3986
96.1711 40.722 23.4751
90.1376 40.0443 23.4238
93.8027 40.2893 23.4439
91.618 40.9982 24.1707
92.3483 40.3236 23.7114
90.9854 39.1729 23.15
91.1398 40.703 24.3519
93.5103 41.0285 24.2681
86.155 38.4631 23.2838
89.6815 39.6851 23.8074
87.3925 40.4133 24.9271
89.8081 40.7487 24.8171
89.1258 40.6886 24.9572
83.9749 37.6753 23.2744
85.0277 37.7005 23.3537
87.6432 39.8651 24.7645
85.4795 38.8614 24.2295
81.4313 38.4974 24.2075
84.1691 39.809 25.343
81.318 37.7519 23.8951
83.6973 39.5921 25.3109
82.4206 39.4304 25.3024
81.4984 37.8198 24.5683
81.1397 37.9922 25.0586
80.5738 38.8159 24.9803
82.8807 39.8275 26.1299
80.8323 39.1833 25.8548
78.3886 38.4338 25.401
76.7874 38.4318 25.7685
80.057 39.0679 25.754
79.3367 38.6345 26.354
76.0257 38.039 25.614
75.9069 37.7718 25.8888
76.9156 39.2618 26.3405
75.7599 38.2068 26.4162
76.2421 37.9257 25.9299
75.6482 38.3211 26.378
74.5246 38.2867 26.4702
74.0807 39.0551 27.2773
75.4697 38.4543 27.0694
74.484 37.8656 26.7068
73.4604 37.738 26.6782
72.5117 37.0226 26.161
71.5781 36.5792 26.0917
72.0541 37.3049 26.6497
70.5602 37.2929 26.9867
69.3111 36.4576 26.4168
70.1281 37.2664 27.1585
71.4592 37.864 27.6646
67.8732 37.181 27.5549
69.5862 37.4265 27.5798
66.0972 35.8245 26.8971
69.4461 37.1069 27.4569
67.8709 36.5307 27.2922
65.8211 35.9504 26.8034
65.7011 35.4337 26.6541
68.1299 36.3951 27.1977
66.0057 37.16 28.5313
68.0204 37.3933 28.8016
67.1505 37.6189 28.7651
67.2135 37.4103 29.2285
65.8154 37.2476 28.6955
62.2359 34.9223 27.3847
64.3769 36.3693 28.5415
65.4718 36.2023 28.2334
65.37 37.4968 29.5229
63.1255 36.276 28.6941
61.7518 35.5122 28.2182
60.921 35.2187 27.9356
61.123 35.334 28.6048
60.0066 34.5013 28.0154
59.8083 35.4168 29.0384
62.0472 35.4256 28.5285
58.6367 34.542 28.3424
59.4748 35.3144 29.109
60.0817 35.6508 29.1053
61.2118 36.55 30.3596
59.5899 35.5938 29.6211
59.9127 35.6165 29.9227
59.4997 35.5866 29.9487
58.2861 35.5082 29.8615
57.8426 35.2059 29.2219
56.037 34.1111 29.1148
58.0915 35.0213 29.8292
55.5612 34.5379 29.9299
59.2587 36.6388 30.9751
55.459 33.7907 29.4807
56.0457 35.4037 30.5853
55.898 33.9753 29.4448
55.3942 34.4697 30.0084
54.0856 34.6202 30.4402
54.3922 35.7565 31.6324
57.6326 35.3531 31.1491
54.7892 34.7882 30.8969
54.7083 34.9618 31.3943
57.4898 35.379 31.7206
55.1191 35.4734 31.9418
52.4651 34.1787 30.5765
52.5607 33.649 30.9529
55.2843 34.5047 31.0064
52.3259 34.3428 31.6532
53.3613 33.6161 30.8326
52.3853 34.0877 31.4961
51.9798 34.4559 32.0118
52.594 33.8953 30.9783
51.0985 33.0066 30.8868
48.7696 32.4053 30.4401
50.7628 34.0335 32.227
51.0322 33.2142 31.256
49.4305 32.8517 30.8364
49.1564 33.0277 31.4068
49.3023 32.0551 30.5573
48.1433 32.8402 31.5654
49.2154 33.3716 32.1062
48.9628 33.4637 32.3646
49.0613 33.0588 31.9655
47.4851 32.3601 31.6947
47.0406 32.2211 31.9245
47.1326 31.996 31.6802
47.7165 34.2443 33.5614
48.393 32.5758 31.7872
46.921 32.748 32.416
47.1146 32.4132 32.1807
47.1661 32.855 33.0062
46.2772 32.551 33.0868
46.0784 33.0399 32.5841
44.2651 31.4968 31.9654
44.3888 31.6725 32.8785
45.5411 31.613 31.7368
45.2591 32.8331 33.6653
43.8578 31.6792 32.5869
43.7968 31.4543 32.5308
46.9508 33.3681 34.0025
44.5356 30.9767 32.3945
43.6312 32.0381 33.4233
43.3175 31.36 32.6811
44.0353 32.2476 34.0433
43.2976 30.9479 32.3735
42.3038 30.3918 32.219
42.4691 31.522 33.3882
42.1569 30.357 32.1558
40.9585 30.748 33.1428
42.4092 30.082 32.2129
42.682 31.6343 33.9871
41.2576 31.2508 33.6754
42.1868 30.7723 33.7557
42.8365 31.4559 34.2544
42.8157 31.9672 34.1704
42.2445 32.1367 35.0347
40.8239 30.7922 33.9478
40.0033 30.468 33.738
41.8382 31.1404 34.2796
41.6354 31.8595 35.251
41.2923 31.6839 35.2724
39.1008 30.7879 34.557
40.4385 30.9779 35.1962
40.6391 31.5623 35.158
39.1681 31.0189 35.6219
39.5836 30.9625 34.6548
37.9251 29.7989 34.0459
38.7829 29.0115 33.3099
38.4684 30.4063 34.7838
40.2873 30.5377 34.2907
36.9978 30.073 35.1726
38.8136 29.4544 34.3465
38.3392 30.5921 34.8639
37.1654 29.9744 35.0364
36.3872 28.5202 33.7135
38.7321 30.6103 35.5285
37.5904 29.7374 35.4581
37.1109 29.8011 35.4023
37.1605 30.4366 36.2666
37.0057 30.0611 34.9157
35.4178 29.0571 35.9908
38.0571 30.3881 36.0844
36.9183 29.5564 35.4657
36.96 30.5455 36.6307
34.7751 29.0612 35.5294
35.483 29.3903 36.2708
36.0587 29.7389 36.2132
35.056 29.2381 35.406
35.5442 28.5385 34.698
34.2015 28.3894 35.3432
34.9823 28.653 35.2735
34.6805 28.7528 35.6268
34.6404 28.1122 35.0583
34.305 28.8467 35.4829
34.3181 28.5974 36.1946
33.4907 29.1624 36.4879
34.5684 28.7729 36.1316
32.9925 27.5218 35.3054
34.2732 27.7351 34.9362
34.3189 29.044 36.4849
33.2829 28.6751 36.4283
33.4191 28.7951 37.101
31.9619 27.9904 36.2029
33.0944 28.1455 35.8677
32.1454 27.7559 35.7137
33.4652 28.2933 36.8681
31.5168 28.0728 36.8025
32.5306 28.1371 36.5259
32.4211 27.6456 36.1552
32.0301 27.5118 35.8414
31.92 28.1476 37.1042
31.8112 27.2891 36.4795
31.7767 27.9211 37.0243
32.175 27.2894 36.7273
31.8433 27.2987 36.0766
32.56 28.7764 38.1876
32.4443 28.2241 37.9442
31.7188 27.5409 37.147
31.7498 28.8081 37.9739
31.2427 27.7427 37.5253
30.1694 26.8346 36.355
30.002 26.686 36.6888
30.5427 26.8964 36.0273
30.6948 27.8164 37.7133
28.801 26.6277 37.4696
31.0323 28.3647 39.0711
29.8023 27.3512 37.4298
30.283 27.5888 38.624
30.2287 27.0025 36.6145
28.9943 27.0051 38.2125
30.5526 27.2094 37.979
28.5744 26.5654 37.424
30.3347 26.5394 37.4118
29.4683 27.4942 39.0005
29.8641 27.104 38.5407
29.219 27.1112 38.5185
27.8337 26.156 36.8817
28.5761 25.9761 36.5752
28.8385 27.1094 38.5805
28.634 27.0488 38.6229
28.4767 27.1934 39.0735
27.5304 25.6349 37.444
27.6548 26.1786 38.1639
28.0019 26.8272 39.4273
28.0787 26.0203 37.4686
28.1497 26.5013 38.2709
27.6321 26.14 38.6715
27.254 26.4672 39.1294
27.6808 26.5929 39.1652
28.2992 26.5805 39.1904
26.8263 25.0223 37.3847
26.8089 25.3094 37.2352
26.9761 25.2509 37.2787
26.7035 25.3391 38.5355
26.9544 25.7134 38.3491
26.3875 24.9925 36.8441
26.1069 26.2288 39.1325
25.944 24.7404 37.2581
26.2031 25.6662 38.6771
25.3925 25.1308 38.9069
26.4666 25.6925 38.3759
25.1728 25.1589 38.7338
25.0662 24.8709 38.1557
26.7939 25.9296 40.0509
25.4889 25.203 38.3705
26.219 26.4809 40.6893
25.3257 24.5604 37.5063
24.3318 24.6303 39.0425
25.5737 25.358 40.0853
25.6779 25.93 39.6595
24.3812 24.4741 38.5772
25.028 25.1824 39.2893
24.9388 25.4117 39.7989
24.4261 24.9421 40.2417
24.6279 24.5884 38.7345
24.0326 24.3797 39.0632
24.2868 24.5404 38.8193
24.9341 24.643 39.3349
24.0638 24.4441 39.8938
23.9254 24.486 39.6105
25.2288 25.6098 40.5846
24.2767 24.315 39.5818
24.6277 24.3457 39.8922
24.5169 24.4369 39.2052
23.5754 24.351 39.8789
24.1362 24.415 40.2653
24.8861 24.8403 39.1651
23.3013 23.3975 39.1098
23.7447 24.5368 40.193
23.3055 23.6904 39.1195
22.3715 24.6203 40.9063
23.5299 24.1961 40.1466
23.0255 24.2189 40.0037
22.7681 23.7891 39.311
22.261 23.1593 38.5066
22.9362 24.0659 40.365
22.4354 23.6531 39.9961
22.7229 24.3491 40.3914
22.6605 23.9128 40.0784
22.5924 23.8284 40.8878
22.7409 22.7847 38.349
22.5325 23.7404 40.3368
22.2499 23.7503 40.497
22.0883 23.7228 40.3582
22.1018 24.1543 41.592
21.7221 23.0765 40.0744
22.2013 24.0892 41.271
21.6419 22.6638 39.4688
21.6833 23.2557 40.3448
21.7267 23.8851 40.2003
21.6409 23.0916 39.9363
20.9087 22.5326 39.3955
20.5616 22.5837 40.1788
21.6706 23.1171 39.5775
21.5775 23.6782 41.3163
21.4032 22.6201 39.5306
20.6892 22.6528 40.3139
21.1982 23.1739 40.2158
20.4694 22.1697 39.8619
20.9845 23.1595 41.4197
21.3317 22.842 40.0282
21.1612 23.0654 41.4333
20.6478 22.5486 39.8888
20.6371 22.4214 40.573
20.5836 23.1828 41.4795
20.6153 22.8648 40.7583
19.5472 21.862 40.0861
20.0519 21.7232 39.78
20.0902 22.8755 40.9025
20.1922 22.3279 41.4697
20.6994 22.2381 40.1001
20.8119 22.6247 40.8332
19.9067 22.7328 42.1965
20.2517 22.1996 40.8362
19.6321 21.1331 38.9261
19.741 21.8903 40.6329
19.7581 22.3724 40.7095
19.0454 21.3968 39.9401
19.4022 22.7779 42.7431
19.4735 21.555 40.0335
19.5172 21.4602 40.6266
19.2901 21.7952 40.1698
18.9839 21.3342 40.2041
19.0213 21.7172 41.1684
18.9201 21.7886 40.7693
18.9123 21.2629 40.4123
18.5894 21.9149 41.6984
18.7792 20.8677 39.9562
18.9389 21.8701 41.2604
19.2374 22.3138 42.5739
18.9014 22.2017 42.5572
19.1084 21.6116 41.3475
18.8241 22.5633 43.3082
18.6852 20.4817 39.184
18.3994 21.8694 42.1466
18.085 21.7031 41.8237
18.3283 21.2653 40.7556
18.5431 21.3596 42.281
17.9323 21.0695 41.8965
17.9252 20.7289 40.2591
18.3683 21.6267 42.0566
18.2685 21.3306 41.5215
17.566 20.552 40.3806
18.6081 21.7945 43.3887
18.1736 20.872 40.2107
17.6809 20.33 40.6992
17.9593 20.8794 41.0413
17.3584 20.2839 40.457
17.311 20.4785 40.7984
18.0849 20.8768 41.1971
17.9528 21.5 42.5866
17.392 20.5653 41.7621
17.1587 19.8949 40.0462
17.349 20.921 42.361
17.0516 20.6124 41.2863
17.1218 20.4538 41.7284
17.0625 20.7962 42.7352
17.2817 20.3996 41.401
17.0397 20.4368 40.9841
16.8787 20.3907 41.7516
17.2755 21.0846 42.2778
16.5201 19.8463 40.714
17.317 19.9592 40.2065
16.566 19.8842 41.3787
17.0392 20.5481 41.1393
16.1974 20.235 41.9587
16.1742 19.6873 41.0932
16.1428 19.6039 40.7922
16.6209 20.194 41.3836
16.7171 21.1667 45.2798
16.6064 20.3045 41.8501
16.4226 20.1451 42.1134
16.3825 19.8766 40.1617
15.8346 19.9965 42.2023
15.9292 19.9074 43.0999
16.7535 19.8561 41.4356
16.4344 20.3874 42.6018
16.3671 19.3385 41.5318
16.3369 19.733 41.8215
16.3223 20.546 42.7862
15.3344 18.9473 40.3207
15.6693 19.2543 40.9661
15.3528 19.4798 42.3566
15.8952 19.4556 41.5237
15.706 18.9854 41.2405
16.3583 19.9437 42.174
15.4838 18.7541 41.0278
15.7301 19.4581 42.3074
15.8832 19.4532 40.6729
15.105 18.7659 41.233
15.1563 19.3545 41.919
15.9794 19.6715 43.1967
15.0182 18.6497 41.6356
15.8488 19.1151 40.731
15.3644 19.5894 43.4063
15.2439 19.3351 43.2866
15.0105 19.1985 42.1179
15.3998 19.2798 41.6253
15.0152 18.8804 41.2706
14.8345 19.1152 42.5127
15.0553 19.2951 42.2816
14.9417 18.7073 41.8547
14.9739 18.482 41.0944
15.3347 19.7073 43.8128
14.959 18.7624 42.0141
14.8959 18.7745 41.9909
14.6124 19.031 42.3221
14.4796 19.2374 43.2809
14.669 18.7899 42.1095
14.7019 18.3603 41.3714
14.1839 18.2265 41.4755
14.7162 18.2603 41.9254
14.9874 18.8974 42.0633
14.2209 18.1311 42.0172
14.2143 18.4466 41.707
14.4253 18.7862 42.366
14.3914 18.082 42.1232
14.8968 18.9091 42.5189
14.2578 18.8409 43.2568
14.3329 17.9521 40.66
13.8937 18.0685 42.4114
14.3817 18.8101 43.3486
14.4423 18.3271 41.84
14.1613 18.6374 42.5471
13.7532 18.8318 43.5745
13.5567 17.9182 42.9306
13.8836 17.3307 39.708
13.7566 17.7768 41.7018
14.147 18.9916 43.5844
13.8471 18.0207 43.2171
13.8167 17.9182 41.4208
13.7508 17.9081 41.5625
13.6805 18.1627 43.9928
13.5916 17.7841 42.1904
13.6789 17.9237 42.6466
14.1271 17.816 41.3975
13.468 17.8922 41.7986
13.0356 16.9427 41.7814
13.5279 17.5816 41.682
13.8836 18.2863 42.6998
13.1428 17.7294 42.5157
13.7261 17.81 42.6312
13.8773 17.7061 42.8234
13.545 18.0362 43.0677
13.5858 17.5977 41.8917
13.3193 17.9558 43.9102
13.4047 18.0145 42.7099
13.0707 17.5498 42.3924
13.2047 17.2976 42.3725
13.2681 16.8537 39.995
12.8541 17.3203 42.4608
13.1661 17.7979 42.6807
12.8725 17.5548 42.9757
13.1308 17.6348 43.4851
13.0684 17.17 42.3916
13.1844 17.0508 41.5244
12.5026 17.1696 42.0231
12.8386 17.212 41.4644
12.4965 16.9623 41.5438
12.5689 16.9769 42.2853
12.7648 17.3223 42.183
12.548 16.7272 41.0539
12.0308 16.0223 40.8825
