# pn-170911/CsIIA-24-USN3-1280-1959.psd
# Power spectrum* (dif=0,1,2) (really just |FT|^2)
# NOTE: only the first half! (symmetric)
# weeks: 1280-1959
# 1984 clock-days, 454 excluded
# PSD: 1441
127043 3.49097 0.0264515
2.43165e+06 30.1181 0.0131203
1.60923e+07 355.92 0.0198345
1.56143e+06 56.1201 0.014984
1.0743e+06 70.0666 0.0180207
591469 56.2699 0.0195398
406766 55.0431 0.0216918
310560 55.8102 0.0259956
234670 56.5079 0.0294038
181198 53.6765 0.0330223
149202 54.4522 0.0377769
118866 52.6061 0.0441774
105943 56.0274 0.049732
88041.9 55.2194 0.0571284
74020.7 54.5492 0.0638672
66365.9 54.5357 0.0721746
59366.7 54.6136 0.0787982
52327.1 54.5369 0.0879345
46286.3 54.5278 0.0946888
40220.3 53.3024 0.104174
36964.8 53.6979 0.112822
34020.7 54.7936 0.125853
31181.5 55.4461 0.138428
28156.9 53.7683 0.150193
25203.6 55.0045 0.163236
23392.2 54.5342 0.173974
21216.4 54.0774 0.188032
21060.9 55.5451 0.205189
19419.3 56.5938 0.225823
16901.8 52.2465 0.219863
16115 54.2599 0.242703
15424.3 54.7436 0.261362
14245.3 53.4446 0.272769
13425.8 53.3872 0.294864
12953.2 55.3435 0.313376
12027.7 53.9997 0.325927
11719.3 55.4368 0.354316
10937.9 55.0594 0.365809
9782.28 52.9868 0.377106
9516.47 53.7391 0.403811
9543.59 55.0131 0.429994
8776.09 53.6152 0.44068
8314.14 54.6467 0.472192
7732.63 52.6813 0.478371
7604.61 53.637 0.506866
6861.39 52.6586 0.518529
6823.37 53.4752 0.551706
6657.28 54.1659 0.580122
6320.38 53.5667 0.599287
6125.23 53.7445 0.621969
5788.07 53.8919 0.655199
5803.07 53.9687 0.683969
5275.35 51.8994 0.680765
5210.34 54.0964 0.734482
5077.44 53.9694 0.763315
4933.06 54.257 0.794762
4725.23 53.4342 0.812087
4444.08 52.4833 0.823827
4258.93 52.3278 0.850761
4128.43 52.8803 0.889745
3947.16 53.706 0.926997
3993.09 53.7067 0.962288
3905.76 53.5831 0.991551
3845.11 54.8247 1.03818
3450.2 52.0686 1.03081
3356.09 52.3504 1.06516
3158.29 50.1712 1.04967
3276.67 54.6834 1.17801
3081.92 52.4234 1.17059
3044.68 53.2675 1.22233
2941.9 53.4694 1.26051
2821.49 52.4666 1.27625
2823.44 52.6449 1.31315
2682.34 53.6342 1.36344
2586.95 52.6128 1.38033
2577.29 52.6576 1.41988
2498.97 52.6365 1.45119
2444.83 52.8372 1.50031
2488.04 53.6038 1.56393
2280.89 51.1901 1.51781
2199.95 52.1235 1.58706
2211.18 53.6937 1.68571
2096.25 50.9452 1.64082
2112.67 52.551 1.71466
2023.84 51.315 1.73453
1969.15 51.0804 1.75903
1977.8 53.3743 1.88218
1905.15 52.9305 1.91274
1835.68 52.2241 1.94074
1818.74 52.3402 1.98086
1794.6 51.9593 2.01314
1708.34 50.5927 1.99487
1706.4 51.7575 2.092
1678.44 52.6358 2.17519
1622.82 51.3813 2.1675
1602.82 51.6717 2.22222
1510.66 50.7044 2.22202
1519.73 52.4683 2.36101
1420.2 50.2639 2.29957
1429.96 50.0588 2.33514
1380.89 49.8927 2.38036
1440.32 52.629 2.5439
1353.76 51.7993 2.59254
1309.62 50.0998 2.52837
1319.55 51.8812 2.68447
1274.82 50.5678 2.65218
1279.62 51.3977 2.74251
1245.49 51.3655 2.79812
1220.97 50.7687 2.82148
1198.68 50.6154 2.88143
1155.63 50.4242 2.90535
1145.24 50.303 2.94818
1085.59 48.7408 2.92349
1109.18 50.8004 3.08415
1037.71 48.3575 2.97776
1038.15 49.2034 3.08173
1046.26 49.6591 3.16798
1021.07 49.7706 3.22403
977.001 48.5602 3.21797
980.475 50.3341 3.37858
961.074 49.6363 3.38853
926.622 48.6481 3.38392
930.841 48.8516 3.45265
899.942 47.85 3.43681
903.705 50.2267 3.67197
892.101 49.4155 3.65666
908.248 51.8565 3.9161
848.9 48.2496 3.70697
831.49 48.2353 3.74593
848.866 49.3578 3.89986
847.423 51.4242 4.11301
825.19 50.0817 4.07864
788.225 48.4887 4.02135
763.249 47.0398 3.95088
750.268 48.1759 4.10887
736.256 47.4979 4.08633
727.517 47.2481 4.12954
726.46 49.6823 4.41455
734.458 49.7643 4.49889
720.367 49.7773 4.56003
687.048 49.1391 4.537
710.999 49.7475 4.6932
682.856 49.0835 4.66499
664.518 48.5567 4.71196
636.88 48.4452 4.74026
645.08 48.3555 4.79259
615.521 47.8061 4.86214
644.288 46.8964 4.75945
640.442 49.0772 5.07825
589.416 48.1024 5.04219
614.407 48.489 5.16785
598.953 47.9111 5.16255
560.548 44.9392 4.91235
569.902 47.4103 5.25249
554.317 46.3464 5.19696
548.096 45.7712 5.22285
535.717 45.7543 5.26114
533.709 45.5657 5.29364
524.458 45.7716 5.39447
538.184 46.3024 5.53096
515.047 45.2138 5.42296
520.623 45.7425 5.55543
511.611 47.3471 5.8781
476.336 45.6549 5.75471
488.846 45.7569 5.79379
489.94 47.1284 6.05811
491.71 46.7049 6.08437
482.002 47.1382 6.1604
460.131 44.6958 5.97934
469.228 45.4455 6.1122
447.679 45.6826 6.24952
451.443 45.1571 6.22181
438.158 45.8722 6.39322
441.084 45.9381 6.47811
443.827 44.9897 6.3446
423.54 45.7853 6.64585
419.523 45.4772 6.60456
418.377 45.271 6.69927
403.104 44.4992 6.68043
406.509 44.7293 6.71084
401.399 46.9538 7.16231
371.422 42.8297 6.58051
382.272 44.3294 6.97119
385.975 43.4506 6.82957
387.292 45.5488 7.24766
386.328 45.2868 7.26496
381.349 45.3263 7.38127
363.177 44.4131 7.33758
379.533 45.8053 7.55243
345.753 44.2481 7.46241
356.336 43.1191 7.28731
351.767 43.3247 7.43451
338.066 42.0799 7.31671
337.608 43.0159 7.53736
338.433 42.2351 7.49862
316.175 41.2511 7.3254
332.037 42.763 7.65196
318.46 42.044 7.71601
322.408 44.4152 8.13562
327.494 45.3805 8.41696
318.334 43.0411 8.07411
318.346 44.6001 8.42069
301.358 42.5526 8.14152
301.099 42.5379 8.23109
299.461 42.1338 8.24577
294.948 41.5609 8.23333
283.066 40.8377 8.1148
284.55 41.7354 8.36704
282.964 41.0408 8.32952
286.396 42.0818 8.53005
284.144 42.7171 8.87727
278.452 41.5468 8.66312
271.446 41.9516 8.75798
271.658 41.2389 8.82795
271.784 41.9431 8.92442
260.913 40.8553 8.88343
256.727 40.8539 8.93896
261.316 40.5038 8.89252
253.497 40.6202 9.01036
254.687 41.6372 9.3008
254.306 41.4107 9.41092
243.278 40.0511 9.20476
241.475 40.0066 9.20509
237.432 39.6156 9.22524
230.757 38.9377 9.13038
232.337 39.2869 9.30539
236.63 40.6862 9.66457
232.788 39.366 9.41979
227.304 40.5464 9.87374
221.655 37.8781 9.36609
223.63 38.4992 9.46687
222.467 38.0124 9.41665
229.892 41.4553 10.4357
219.971 38.7674 9.77625
217.708 40.1657 10.2627
211.936 38.2169 9.86122
208.463 37.9531 9.82701
209.903 39.1823 10.2934
209.72 39.8301 10.4718
209.988 39.5502 10.5091
210.388 39.9474 10.6977
208.922 37.6673 10.1185
199.369 38.0545 10.3769
197.724 38.8993 10.6305
200.98 38.6148 10.7075
192.999 37.4531 10.5476
201.016 39.3174 11.0323
197.26 38.5096 10.841
192.894 38.4626 11.0461
189.012 38.4132 10.9535
183.15 37.0338 10.7618
184.356 37.9198 11.0825
183.347 38.4766 11.4218
181.561 37.4468 11.114
179.527 38.0998 11.5142
179.77 39.2516 11.7089
178.944 37.4808 11.353
176.078 38.4539 11.8008
173.533 36.5963 11.2944
170.259 37.6078 11.769
167.584 36.7194 11.5372
171.962 37.7336 11.818
158.882 35.0367 11.2038
167.535 36.6779 11.6959
161.224 35.9921 11.647
166.658 38.061 12.3802
163.235 37.5 12.3826
160.211 36.4921 11.9328
151.903 36.1751 12.0403
156.541 36.0804 12.24
153.725 36.5878 12.2631
155.242 36.7167 12.4233
150.395 35.1213 12.1393
146.308 34.7607 12.066
149.602 36.864 12.7287
152.435 36.1283 12.5107
147.276 35.561 12.593
144.945 35.4445 12.5259
146.987 35.1476 12.5068
139.742 34.3519 12.2976
139.201 35.293 12.7661
136.059 34.2733 12.5357
142.042 36.4824 13.2571
139.042 35.6628 13.3311
136.846 35.0646 12.9893
132.081 34.1974 12.8284
131.453 33.9256 12.7355
132.762 34.4194 13.0522
136.514 36.658 14.0766
130.995 34.4223 13.3287
131.108 34.291 13.1473
132.508 35.8437 13.9509
124.532 34.0961 13.4496
130.212 35.8239 14.2665
125.525 33.7237 13.4328
122.572 33.1125 13.2951
123.942 33.4444 13.3649
119.818 32.9449 13.3609
123.997 33.4961 13.7742
120.997 33.9156 13.947
121.531 33.1462 13.6565
120.487 33.69 14.006
116.74 33.1839 13.9672
120.519 34.4897 14.5638
112.356 33.5433 14.2185
114.518 33.6334 14.2778
113.263 33.6543 14.4076
113.266 33.1746 14.445
112.173 33.1662 14.3215
108.68 32.3066 14.1309
110.98 33.0854 14.5781
111.413 34.395 15.2268
108.26 33.4414 15.0786
107.867 31.7996 14.1794
106.872 31.5386 14.4201
103.524 31.4196 14.2026
105.385 32.2707 14.7301
105.644 32.2108 14.7801
103.667 31.0643 14.4001
106.438 32.4803 15.0392
101.658 31.2613 14.5892
101.393 32.6537 15.3185
97.3682 31.3546 14.8703
95.434 30.629 14.6605
100.098 31.3902 14.9913
97.5102 30.6602 14.8019
97.9445 32.3742 15.672
97.5735 31.1235 15.1606
95.8402 30.3361 14.823
95.3485 30.72 15.227
95.2633 30.973 15.3085
93.9007 31.4164 15.8086
95.2241 30.9028 15.4016
95.0289 30.9644 15.7282
93.2707 31.1784 15.9715
89.7613 29.86 15.1041
90.2791 30.1528 15.5235
88.4348 29.1491 14.9717
89.2131 31.1202 16.2341
89.5356 30.8154 16.2101
91.4515 31.0132 16.3195
91.9748 31.309 16.486
90.1588 31.9927 16.9277
88.9848 31.4436 16.7192
85.6905 29.9374 16.2212
85.7535 29.4155 15.8146
81.4227 28.7841 15.6885
84.9319 30.5491 16.6693
83.512 29.8918 16.2959
82.6263 29.7588 16.4466
82.3486 29.3693 16.4068
84.2087 30.5386 17.1304
81.8996 28.9304 16.282
80.3746 29.764 16.7817
80.2879 28.7481 16.2307
80.3565 28.7296 16.2308
81.2142 29.7938 17.2811
77.8693 28.3461 16.3082
77.2825 28.1896 16.4749
77.3638 28.5413 16.48
78.4752 29.1682 17.0662
75.2839 27.4976 16.2753
75.818 27.9318 16.2828
74.8307 28.1189 16.8465
76.2162 29.657 17.6592
71.8062 27.7161 16.7094
75.4481 28.6417 17.2387
70.8615 27.4044 17.0696
72.6478 27.2008 16.2951
70.7551 28.2121 17.3446
69.3535 28.1895 17.5297
71.26 28.2908 17.3975
71.4883 27.5079 17.3309
69.7337 27.4995 17.209
70.8087 27.094 16.9964
67.5218 26.5738 16.5776
68.7229 27.673 17.8321
67.2943 27.7792 17.645
67.8471 27.7561 17.9557
67.1425 27.4337 17.7869
67.4891 26.6889 17.1336
66.2747 27.1397 17.8812
66.9029 27.6066 17.9107
62.0647 26.0349 17.0431
62.4152 25.8072 17.1145
64.4835 26.4499 17.7341
64.8141 25.8229 17.2477
61.9734 26.6535 17.8726
63.7273 25.8508 17.3137
63.5016 26.6834 17.9525
62.816 27.432 18.8092
61.3832 26.8061 18.27
61.588 25.7329 17.6893
59.6715 26.2987 18.2477
59.9875 25.5444 17.8732
59.2761 25.8802 18.1175
60.4955 27.1665 18.9298
59.1498 25.8615 18.4007
60.89 26.2383 18.5461
58.3809 25.806 18.2581
57.2611 26.0673 18.6937
58.008 26.1115 18.8775
58.4488 25.9422 18.4826
55.9734 25.0725 18.0997
56.3247 24.886 17.9906
54.4719 24.7748 18.4314
57.7368 25.7307 18.7844
56.1167 24.8395 18.1829
53.8636 24.6262 18.3663
53.1515 23.7609 17.6854
55.9787 26.1117 19.4445
55.4318 25.1503 18.8762
53.8105 24.1611 18.4227
52.2292 24.6308 18.7116
52.6941 24.4438 18.6728
54.4789 24.9685 18.9912
52.4828 25.0462 19.4869
52.5654 24.9383 19.0822
51.8336 23.7651 18.4432
51.9558 24.3709 18.8251
50.502 24.1049 18.9061
51.8229 24.2992 19.0202
52.6289 24.8296 19.7195
50.4049 24.3163 19.3885
52.1334 23.8385 18.8076
51.116 24.5483 19.7016
50.8933 24.5928 19.6233
50.4671 24.6191 19.8898
49.1505 23.6043 19.0705
48.3342 23.7451 19.5713
48.0979 23.9298 19.57
48.7685 23.7691 19.2481
48.1281 22.9344 19.0131
48.7114 23.6035 19.4429
45.701 21.7064 18.1663
46.5205 23.0064 19.3587
47.069 22.9294 19.1389
46.663 22.9232 19.1863
48.2403 24.0932 20.3129
46.4708 23.7865 20.5065
46.1791 23.4735 19.9203
46.2138 23.6115 20.2788
45.1934 23.4462 20.2734
45.6265 22.4726 19.2167
45.8623 23.2497 20.1358
43.8262 22.7217 19.7386
43.4513 22.0485 19.0428
44.0944 23.2898 20.5106
42.1721 21.1662 18.9246
44.8795 23.0301 20.1875
43.3025 22.0722 19.8243
43.3468 22.8541 20.3967
43.2449 22.3884 19.9482
43.0453 22.9053 20.4128
41.0736 21.8995 19.97
41.6581 21.6186 19.4037
39.6586 21.3011 19.6756
42.2973 21.3782 19.3249
42.177 22.5132 20.699
40.8877 21.8361 20.2664
41.2173 21.5686 19.6953
39.2133 21.7509 20.3824
41.3082 22.0862 20.2461
41.0451 22.7497 21.3238
39.9306 22.5676 21.4966
40.8775 22.2162 20.8643
39.6536 21.2082 19.8729
39.1302 20.9911 20.0574
40.0652 20.8832 20.2087
38.1936 21.2271 20.3322
39.1144 21.4501 20.8979
38.103 21.3353 20.4847
39.2117 21.1721 20.4783
38.9527 21.8799 20.8364
40.1176 22.192 22.0518
39.0849 21.9383 21.3685
37.8584 21.5481 21.2005
37.6411 20.8784 20.8277
37.7149 21.1774 20.8716
37.761 20.7472 20.8494
37.2098 21.4626 21.4536
36.3148 21.6838 21.7796
36.4002 20.592 20.703
35.6546 19.836 19.9484
35.4151 20.5443 21.0323
35.7808 20.9895 21.2892
36.9436 21.3173 22.1198
36.4003 20.5091 20.9104
35.4851 20.7572 21.2089
34.9568 20.0839 20.7533
36.2776 20.6218 21.3948
34.3611 19.8509 20.5755
33.8602 19.6294 20.2153
33.5902 20.234 21.3735
35.1145 20.8245 22.121
35.0801 20.3507 21.491
33.5703 19.9706 21.4603
33.7498 19.8068 21.2515
32.6104 19.9645 21.1099
32.1715 19.4347 20.7112
32.4088 19.4028 21.0083
33.794 19.5745 21.3199
32.9769 19.5734 20.9241
33.5291 20.1472 21.8186
32.285 19.6882 21.8254
32.9099 18.9855 20.8464
32.6557 19.3791 20.8169
31.5289 19.2427 21.681
32.9316 19.7864 22.1706
32.1726 19.7671 21.6675
32.0616 19.3488 21.4578
31.2991 19.6289 21.7878
31.8426 19.9689 22.4881
31.8172 19.2162 21.5136
31.1916 19.5626 22.064
31.0688 20.3472 22.8741
30.6322 19.0086 21.6364
30.8757 19.4234 22.4879
31.493 19.3334 22.2896
30.5924 19.169 22.1789
28.869 18.9115 21.8675
30.7087 18.8627 21.506
29.3053 18.3787 21.5063
29.3103 18.3158 21.2885
28.5197 17.9172 21.2434
29.1971 18.7017 21.6096
28.7195 18.425 21.8685
28.9206 18.2999 21.5147
29.0959 18.3356 21.9718
29.5843 18.1214 21.2672
27.8099 18.0218 21.6167
28.4945 17.9715 21.6045
28.9868 18.3622 21.7648
27.2151 17.6553 21.4313
28.3751 17.5626 21.3018
28.8132 18.5647 22.3917
27.6329 17.8655 21.9347
28.0245 17.9904 22.3178
28.2474 17.476 21.34
27.7255 17.9276 22.2333
26.3507 17.0973 21.0162
27.1885 17.8778 22.4029
27.472 17.6494 21.7113
26.5932 17.2103 21.8995
27.0717 17.4989 21.4924
26.4492 17.3901 21.8906
26.328 17.4835 22.1928
26.3123 17.3515 22.0387
26.7026 17.8406 22.5331
25.9226 17.3559 21.8686
26.4338 16.7479 21.74
27.1117 18.1564 23.1032
25.3072 17.2814 21.9461
25.8238 16.9852 22.1679
26.0716 17.5179 22.3598
25.5007 17.2608 22.1596
24.9942 16.7253 22.2842
25.8461 17.0773 21.81
24.5807 16.8523 22.1634
25.5028 16.6518 21.8892
24.6091 16.5001 21.5501
24.0547 16.3008 21.6352
24.3961 16.7324 22.2203
24.0185 16.7803 22.3291
23.6144 17.1605 23.0639
24.2578 16.4597 21.914
24.9783 17.4501 23.4375
25.2199 16.8185 22.133
24.1989 16.401 22.5312
24.3448 16.6082 22.2097
23.9649 17.3111 23.8922
24.0967 16.5394 22.3227
23.412 15.8536 21.8612
23.8925 16.93 22.7386
23.9493 16.5937 22.9997
23.4947 16.596 23.0931
23.1599 15.7575 22.0219
24.4105 16.6693 22.7282
23.1659 15.8182 22.019
23.5545 16.7973 22.9704
22.2314 15.1736 21.2844
23.1123 16.5422 23.2928
22.8789 16.1025 22.3787
22.2995 15.9946 22.528
22.6927 15.8272 22.1721
21.9581 15.9818 22.2797
21.8396 15.7302 22.6433
22.5198 15.9068 22.627
21.6023 15.2233 21.475
21.242 15.0281 22.1435
22.2943 15.4953 22.1746
21.5645 15.2512 22.2288
21.8923 15.7972 22.471
21.2195 15.0108 21.6422
21.0221 15.5467 22.9545
21.6204 15.0866 22.1648
20.9291 15.3255 22.599
21.2672 15.7371 22.6777
20.9477 15.1299 22.8394
21.2916 14.9932 22.0803
20.7761 14.858 22.1785
20.7536 14.6306 21.7639
20.2511 14.4903 21.7498
20.6937 15.1117 22.3971
20.8139 14.6133 21.9812
20.5845 15.259 22.6962
20.5198 15.0831 23.3134
21.1233 14.7738 21.9593
20.6995 15.5198 23.6448
20.7575 14.6046 21.7964
20.2539 15.0626 23.0241
20.5138 15.0085 22.9163
20.3456 14.5213 21.9123
20.0541 14.4827 22.4716
20.2385 15.4005 23.8077
19.729 14.5099 22.5358
19.5197 14.4471 22.3922
19.9106 14.8114 22.9063
20.4408 14.9301 23.3211
19.7509 14.6426 23.4214
19.5462 14.1429 22.0521
19.8016 14.3588 21.8773
19.0207 14.2087 22.4475
19.1799 13.9673 22.071
19.2277 13.9926 21.8764
18.7048 14.0993 22.945
18.6716 14.0452 22.0792
18.7363 13.5482 21.8786
19.5682 14.5518 22.9495
18.9194 14.455 23.2282
18.8964 14.4807 23.3199
18.3858 13.8465 22.5308
18.7642 13.6038 22.0318
18.5754 13.7868 22.0774
17.9338 13.261 22.2879
17.7908 13.9571 22.654
17.9757 14.4949 23.6431
18.2279 14.0704 23.0137
18.1819 14.0687 22.8329
18.7054 13.5006 22.5702
17.9003 13.9475 23.0146
17.9573 13.9015 23.5393
18.2499 13.5097 22.0822
17.6166 13.6668 22.72
18.0765 13.7943 23.1382
18.062 13.8065 22.6739
17.8713 13.3586 22.3158
18.2918 14.315 24.4165
17.9525 13.9717 23.6443
17.8206 13.8446 22.9062
17.2314 13.1627 22.7075
17.5928 13.6695 22.9256
17.0086 13.1104 22.0517
17.0397 13.3043 22.9847
16.611 13.6883 23.4372
17.6696 14.1879 23.6476
17.0494 13.2572 23.4196
16.9868 13.1357 22.42
16.751 13.3648 23.03
16.432 12.7136 22.3668
16.6118 12.6935 22.1091
16.1565 12.626 21.8846
16.7424 12.8195 22.2754
16.1258 12.7727 22.8675
16.688 13.303 23.0802
16.587 12.7927 22.5636
16.3532 12.9461 22.7701
15.7617 12.6145 22.7112
16.3905 12.9484 22.8685
16.381 12.3785 21.7933
16.3119 12.9182 23.3316
16.2938 12.8746 22.8666
15.9099 12.5959 22.7256
16.0912 13.0131 23.1195
16.1516 13.1185 23.6862
15.7687 12.6849 22.8099
15.5854 12.1604 22.4916
15.912 12.5303 22.3077
15.465 12.5719 22.4608
15.3414 12.4868 22.7972
15.5984 11.765 21.7102
15.5692 12.6152 22.8458
15.471 12.4035 23.0145
15.5494 12.5842 22.7472
15.0527 12.624 23.5872
15.5043 12.2247 22.5921
15.0245 12.2033 22.093
14.7571 11.9394 22.1082
14.5306 11.8794 21.9358
15.1131 12.2052 22.6662
14.7589 12.3356 23.393
15.5945 12.73 23.7339
14.5674 11.9177 22.2319
15.2767 12.0263 22.7124
15.3589 12.1986 22.9476
14.692 12.0625 22.5249
14.6515 11.9437 22.822
14.7552 12.1456 23.3842
15.1624 11.8712 23.0248
14.8991 12.2438 22.8516
14.6588 11.843 22.6741
14.4863 12.2502 22.9255
14.7818 12.2534 23.5693
14.5266 11.7829 23.3942
14.5266 11.6759 22.4039
14.5313 11.811 22.3658
13.8085 11.0639 21.8246
14.1214 11.7313 22.8703
13.6955 11.2695 22.4243
14.3942 11.4572 22.1942
14.3617 11.6472 22.4361
13.8671 11.3124 22.1269
14.0494 11.5147 22.2741
13.8915 11.3349 22.5898
14.2535 11.4905 22.3505
14.0381 11.3181 22.6246
14.0219 11.4962 22.8864
14.1264 12.05 23.6738
13.5344 11.8094 23.5925
13.5393 11.3931 22.9986
13.5118 11.6787 23.3569
13.4926 11.2616 22.433
13.5183 11.4187 23.0791
13.5804 11.0876 22.4204
13.4926 11.3474 22.8939
13.8065 11.0121 22.3258
13.7164 11.6943 22.9377
13.1018 11.1249 22.7064
13.4077 10.5041 21.871
13.2389 11.2627 22.7015
13.334 11.0872 22.7341
13.0944 10.9125 22.2102
13.1131 11.0776 22.9593
13.4786 11.0016 22.235
12.9207 10.4839 21.9802
12.8784 10.502 21.6689
12.9296 11.0342 22.864
12.5564 10.8109 21.8227
12.9262 11.2866 23.3533
12.9815 10.8532 23.0761
12.823 10.7371 22.3458
12.7646 10.9408 22.9436
13.1146 11.1359 22.9922
12.6592 11.2716 23.8701
12.7371 10.9505 23.0053
12.6928 10.6746 23.108
13.0469 10.8016 22.1091
12.5895 10.4678 22.4318
12.5868 10.2592 21.7637
12.4366 10.6214 22.4693
12.3245 10.5944 22.783
12.6872 10.4151 21.81
12.427 10.8681 23.5818
12.4731 10.5336 22.5381
12.0472 10.5736 22.3837
11.8277 10.0057 22.1475
12.3114 10.3467 22.3535
12.4673 10.8866 23.1997
12.0718 10.2157 22.3119
12.0609 10.377 22.3218
11.9904 10.254 22.6698
12.0966 10.113 21.524
11.7396 10.1199 22.4452
12.7376 10.8736 23.0398
11.9167 10.3761 22.6288
11.8284 9.81493 22.1082
11.7644 10.3285 22.7921
12.03 10.2027 22.8213
11.661 9.83194 21.2943
11.4849 10.208 22.6374
11.5779 9.96518 22.3494
11.7522 10.0696 22.2564
11.3941 9.68554 22.1663
11.733 10.2227 21.7233
11.574 10.018 22.6755
11.6787 9.78412 21.8869
11.6625 10.3239 23.3485
11.6686 10.132 22.3591
11.3519 9.67344 21.9062
11.8571 10.108 22.4408
11.551 10.0645 22.465
11.0907 9.69033 22.1461
11.2992 9.61592 21.9923
11.3019 10.0738 22.6928
11.3435 9.46335 21.8828
11.28 9.78864 21.9412
10.9798 9.64817 22.405
11.4848 9.68332 22.374
11.2738 9.52759 22.041
11.185 9.80866 22.0345
10.9468 9.92455 22.6493
11.4211 9.37805 21.552
11.245 9.60365 22.0327
10.791 9.27569 22.4275
11.2139 10.0691 23.0041
11.171 9.77439 22.7638
11.1496 9.71471 22.3139
11.0026 9.76877 22.4446
10.9912 9.48859 22.5523
11.0225 9.72674 22.6065
11.0294 9.12763 21.2071
10.6706 9.28773 21.5691
10.494 9.53282 22.5856
10.6175 9.05006 21.4503
10.7928 9.53047 22.4489
10.669 9.33441 22.0219
10.6146 9.12798 21.806
10.5889 9.4014 22.4385
10.2664 9.15223 22.4773
10.7742 9.51694 22.4387
10.3054 9.43776 22.1392
10.6665 9.13211 22.1339
10.3829 9.21654 21.9842
10.4018 9.18627 22.059
10.5426 9.1676 22.1673
10.2021 9.09559 22.1581
10.4242 8.98305 21.65
10.4284 9.37921 22.6334
10.0816 9.13412 21.9911
10.2884 8.99983 21.6256
10.0709 8.81535 21.5653
10.1185 8.9201 21.2173
10.1731 9.23202 22.4183
10.0835 8.88845 22.289
10.2979 9.26721 22.497
9.90377 8.69128 21.2861
9.75181 8.49947 20.9694
10.1988 8.86475 21.8752
10.3475 8.97539 21.9355
9.8212 8.87103 22.3416
10.4051 8.7871 21.6715
10.1031 8.91257 22.134
