# pn-170911/CsII-av-USNO-1280-1959.psd
# Power spectrum* (dif=0,1,2) (really just |FT|^2)
# NOTE: only the first half! (symmetric)
# weeks: 1280-1959
# 1 clock-days, 0 excluded
# PSD: 1441
2177.09 12.6833 0.173242
3.75117e+06 19.1366 0.0116283
1.71944e+07 321.881 0.012895
2.63432e+06 110.725 0.00606481
1.79271e+06 135.018 0.00542743
46654.5 5.98835 0.0142277
163493 26.5621 0.0167002
212576 47.9117 0.0312891
226386 68.3292 0.0616275
128794 50.8777 0.0518191
26585.4 12.3829 0.00121137
16423.6 9.89935 0.00108589
230247 158.628 0.186662
51810.3 41.2137 0.00583318
93874.1 86.4859 0.0579963
62251.5 66.5312 0.130369
6513.04 7.62679 0.0367346
16259.3 23.1534 0.0211132
48669.2 78.8434 0.118849
68616.2 115.827 0.152703
40349.8 75.4947 0.224938
37322.9 76.2706 0.240258
7032.92 14.7429 0.0447177
75013 187.494 0.505664
13530.3 37.483 0.0856938
26100.2 76.9588 0.266552
42422.2 138.645 0.362867
3348.82 9.98049 0.0697666
10476 37.3059 0.202803
1768.03 6.64677 0.0449777
7240.25 31.8665 0.113584
44902.2 203.605 1.13686
6923.56 34.6061 0.115059
23218.1 117.134 0.688354
20887.6 117.109 0.614273
5336.83 31.5882 0.255777
5401.68 34.8134 0.296814
4432.17 26.3356 0.213626
8182.28 55.0558 0.47889
4404.1 31.2271 0.328861
11825.9 91.3725 0.887903
20555.5 164.954 1.27608
13048.9 113.076 1.15385
2852.2 28.2638 0.37839
1586.46 16.6772 0.273705
4953.83 50.0228 0.513716
5726.34 56.262 0.427488
8104.76 84.3477 0.697348
19157.9 220.437 2.51836
16271.1 186.701 1.86878
2943.07 30.054 0.425689
6212.53 82.436 1.16489
550.367 4.53946 0.0328915
2880.2 35.4911 0.39471
765.218 10.2564 0.210312
1263.82 19.1971 0.398661
126.163 0.74292 0.0288451
3228.89 42.4073 0.566286
7766.14 119.157 1.78845
97.0831 1.31212 0.0135035
3145.36 50.8325 0.806331
4988.78 83.3375 1.60066
924.948 16.1993 0.264768
5121.65 96.6047 1.85569
4322.25 80.0935 1.73725
353.195 6.24627 0.183771
3372.54 67.1957 1.57428
5277.73 109.48 2.47528
2431.57 50.9992 1.27411
9253.6 211.534 5.27497
3543.94 91.9622 2.67443
1732.15 41.2959 0.883613
1295.53 35.94 1.15094
599.734 12.2568 0.273811
2230.33 58.3928 1.79167
3488.29 95.4277 2.92645
2122.09 67.8294 2.38053
1237.42 31.4427 0.940511
4502.16 127.473 3.50291
1576.63 46.849 1.48913
1924.54 70.2808 2.83611
7692.97 221.237 6.01605
1341.23 45.3371 1.3486
2255.76 73.1358 2.67653
1694.73 60.6254 2.30752
1419.31 44.4771 1.42765
839.67 31.6913 1.42886
2165.01 87.6341 3.93205
4810.33 164.29 5.17427
202.835 7.68588 0.409469
2797.91 117.333 5.28151
3831.5 141.804 4.86235
236.26 8.74559 0.24756
2376.54 91.8133 3.25008
2120.5 95.3187 3.8348
487.067 18.1393 0.717311
818.749 37.5219 2.00368
1923.21 84.6664 3.39904
175.278 10.1017 0.44627
2523.73 117.936 5.22691
148.228 3.86727 0.147598
2513.07 119.351 5.97417
422.61 19.5654 1.02334
1521.58 79.3993 4.43357
586.024 28.7396 1.23406
481.339 26.4568 1.37489
1917.53 94.5172 5.06157
2074.25 120.546 7.48432
17.5347 2.28084 0.348862
1110.27 63.4987 3.59379
650.071 46.0551 3.34498
1079.37 63.8575 4.17298
876.705 56.5479 3.62296
144.355 10.6984 1.13973
1557.51 78.7467 3.72093
2583.29 164.953 10.6955
72.7834 4.94243 0.49349
2232.38 142.488 8.73722
814.283 49.152 2.60689
1465.79 95.281 5.72871
7.561 0.521405 0.0187004
1697.5 120.572 7.81175
168.655 15.0911 1.07831
270.6 25.5715 2.00466
682.213 49.2854 3.68703
713.66 47.6926 3.51886
428.989 36.9943 2.84298
2165.73 156.408 11.8609
433.1 41.2641 4.13498
488.541 36.0296 2.34811
56.5238 5.13399 0.328473
106.762 11.6807 0.988137
25.805 3.6476 0.445281
2604.44 219.065 18.8213
343.734 35.444 3.41839
2181.38 164.633 12.8938
1174.46 104.504 9.73835
596.209 57.3154 5.70881
1323.44 124.756 12.0399
458.996 53.2835 6.41699
643.654 69.3306 7.98663
168.269 21.8405 3.06875
36.1617 5.87491 1.37838
4541.33 424.188 39.2485
171.115 23.9501 3.78102
244.899 15.7252 1.06642
2254.02 214.391 19.0511
20.3201 1.01621 0.0804336
72.8907 5.78453 0.425165
105.029 9.38641 0.788463
272.373 30.9828 3.70348
154.549 23.702 3.79821
658.697 56.9588 4.21032
406.546 40.9868 3.64352
685.736 74.5583 7.19784
715.086 93.7333 11.2153
331.726 34.6796 3.71797
779.274 105.765 13.2629
442.744 37.9282 3.44158
388.195 48.1516 6.33558
5.75925 0.106735 0.0861249
348.376 38.0455 3.8938
147.671 17.8958 2.20039
195.433 28.4573 3.97557
209.206 27.357 3.97756
17.7604 3.03447 0.702873
186.789 28.431 4.74478
22.1835 2.51107 0.756411
1478.92 200.273 25.6278
488.989 57.0159 7.20532
76.4429 10.766 1.32086
92.2581 12.6047 1.95141
24.1284 4.43361 0.772016
767.598 126.338 21.1877
336.296 33.5464 2.93989
60.9663 9.62244 1.70048
289.366 51.9443 9.36223
258.497 38.6149 7.02524
647.66 74.0145 7.41917
690.576 103.301 14.1254
51.9796 7.49986 1.36789
8.85105 4.28179 1.71254
633.818 84.7117 10.0009
273.227 44.7512 6.34845
159.679 29.3408 4.66355
452.914 87.6643 15.569
281.438 32.5795 3.92478
125.246 21.7677 4.178
38.1478 3.23878 0.2059
388.872 62.1807 9.17035
109.776 24.1444 4.70841
63.9654 7.78358 1.08715
226.905 43.5609 8.65967
14.5328 2.46443 0.767172
30.2068 5.92227 1.47361
634.565 111.378 18.853
183.452 30.8586 4.7626
164.175 31.3426 5.75745
127.221 29.2993 7.2694
340.398 58.7429 9.50529
98.5848 13.1157 1.34638
414.73 86.3201 16.5663
130.742 19.9175 3.42352
42.9265 12.6653 3.91923
582.415 110.056 19.2522
176.124 32.6857 6.06662
237.651 50.8346 9.58474
286.228 80.756 20.1045
299.428 40.859 5.51009
107.298 23.6851 5.39223
314.942 59.4406 11.5619
148.566 38.7993 10.1089
173.002 29.0929 4.42117
51.9059 10.5821 2.1841
75.8279 17.0607 4.16987
39.1433 11.7055 3.44568
208.954 42.4813 8.5082
78.4044 21.5892 6.37859
406.464 90.8064 19.4787
77.0631 30.4741 11.1134
201.209 34.3165 5.74723
243.498 40.931 5.91756
196.391 42.4234 8.78889
841.785 212.498 49.9909
100.682 14.6473 2.36973
130.878 37.2946 9.74195
24.8083 5.79467 2.15356
128.498 27.5081 5.35935
66.8348 14.6564 3.10582
71.4453 21.13 6.37264
162.025 41.7658 10.1822
172.552 41.9855 10.78
138.658 28.8121 5.79051
28.1207 7.09454 1.98919
300.067 94.2934 28.8267
351.489 78.6013 17.1077
449.786 113.806 29.1689
121.657 31.8745 8.34342
68.0775 22.4652 7.04901
67.4075 22.8767 7.7387
209.899 44.4622 8.74328
38.3767 10.7495 3.54432
208.386 59.7692 17.0511
285.477 80.3546 22.3349
311.985 74.4538 16.2655
100.983 31.2499 8.78033
47.6676 19.4295 7.1196
14.3036 1.55575 0.286687
51.4346 12.7734 3.24117
169.902 60.3165 21.3774
69.8968 13.2361 2.5932
176.282 48.3911 12.3453
56.6777 19.5158 5.88737
105.292 35.1126 12.6412
149.374 39.2061 9.60469
160.59 50.7156 14.205
65.1918 28.7442 11.5073
51.206 9.48222 1.86184
220.156 67.553 20.8753
35.7104 7.80048 1.38503
35.0868 11.6167 3.72084
55.3876 27.2329 12.8176
153.454 39.9689 9.36705
17.3705 3.4463 0.540907
25.9438 8.61319 2.39619
30.7771 10.2875 3.77523
11.5851 3.24638 0.720677
24.4349 9.62489 4.26908
63.9828 21.0627 6.81912
60.7635 24.4972 9.4338
49.8324 11.433 2.63574
152.862 44.2065 11.758
101.947 45.5556 19.0419
72.2812 24.117 9.17581
298.734 92.7928 25.7766
115.557 46.8949 17.1282
20.517 8.73215 4.20323
7.79633 2.2784 1.32501
104.592 39.0905 13.3078
60.1996 26.535 10.4911
2.79591 2.00567 2.39673
132.582 39.382 10.5107
16.7662 5.22513 1.423
102 40.149 15.4061
14.1081 3.11327 0.407515
9.95387 4.43571 1.9683
216.801 90.4861 35.2478
30.0993 4.11713 0.145271
207.724 86.4132 33.3399
71.2079 26.5219 9.46264
10.843 6.13398 3.53397
59.5073 18.8831 6.38914
13.3092 5.38229 2.25435
30.8991 12.0728 4.16749
99.7288 44.7353 18.1711
57.7446 25.8154 10.6911
22.7632 9.20442 4.07136
0.454374 0.310196 0.696569
73.5188 33.1287 15.5266
83.7243 32.4356 11.48
21.761 18.3173 12.6641
154.927 50.0171 15.1871
42.9995 23.6172 10.8104
16.8728 13.1316 9.37706
94.7061 26.8155 7.13042
46.4255 21.9245 9.73039
1.6942 2.16843 2.85619
124.037 46.9753 18.5641
100.745 35.1221 11.6515
59.701 24.655 8.89027
102.644 54.4323 27.1028
13.1841 7.74048 5.49977
77.6215 40.1575 21.3984
46.75 13.8784 4.09184
19.0356 5.42194 1.21379
23.1102 15.1123 10.3239
163.654 60.7553 19.392
163.256 81.3709 36.6633
4.51591 4.36927 4.05231
20.8451 9.15052 3.4765
43.0756 24.2085 13.7118
43.2144 15.5629 4.26545
65.1981 40.7599 21.9508
13.2726 10.5187 8.49774
60.622 21.7406 9.01683
112.676 49.1353 17.7575
40.5746 31.3275 19.1512
56.4016 22.5862 10.5039
108.396 54.9509 24.3455
3.7076 5.76745 4.61121
4.00011 2.45731 1.85276
6.05201 7.35733 6.51176
39.8663 17.1326 8.89966
56.2724 27.8686 12.7406
120.543 72.1042 40.6115
93.2686 36.9546 14.7404
34.2758 20.9981 14.5369
120.702 54.4724 21.2557
66.7699 63.0003 48.5831
277.379 120.316 48.7068
5.5883 1.89591 0.843184
54.4846 39.2329 24.694
41.6812 22.4935 12.2154
6.35232 0.983412 0.585888
12.4614 12.4021 10.1297
44.7282 18.8563 8.60555
24.3876 18.5092 14.6825
36.7274 22.0308 16.7322
107.117 34.4397 8.19576
45.2811 18.2593 7.14171
317.939 197.274 113.78
59.9608 19.744 6.61678
22.4314 9.67579 3.5254
8.29862 5.7363 4.05725
48.8533 29.1497 14.7769
0.781524 0.641657 0.721287
5.77951 1.7117 0.279457
72.924 47.8466 28.1824
0.493728 0.776552 1.84138
1.82141 3.92636 4.75893
15.8415 5.78185 2.02353
20.7026 12.7863 8.53773
33.4467 23.3536 15.2245
69.3148 37.9106 20.6118
1.39986 1.57667 2.75231
2.51425 0.0787258 0.911519
50.3321 29.5438 16.8283
5.85418 1.1336 0.656749
48.902 27.8406 12.6149
6.76063 6.71795 4.58685
7.43216 4.25627 2.41523
9.72479 7.49817 4.14662
12.4831 14.706 13.4167
69.4224 48.3858 30.8976
13.1487 4.15706 2.52027
5.65114 1.52032 0.71342
2.36682 3.09011 3.0996
1.98717 1.38995 2.03499
14.0802 17.1257 20.1533
149.481 75.5951 34.8014
0.690216 0.729948 0.72131
9.07343 3.97239 1.09876
32.002 26.5511 19.1645
31.8999 16.4532 8.46471
10.2244 12.9361 14.5297
69.7685 40.9573 23.0344
28.3973 17.123 10.8661
46.2649 29.6524 18.6755
12.1849 6.28302 2.50261
11.3752 9.98822 7.75551
17.4561 9.34025 5.06565
25.7434 21.3358 17.278
17.8122 7.51967 2.25586
15.5518 12.3816 8.39056
14.2381 12.3991 10.5928
10.4188 7.03555 4.692
24.1264 19.8799 16.5012
18.4126 9.08178 3.75839
3.45437 2.96997 1.64889
7.19044 8.87059 8.2584
2.08182 0.751609 1.38247
15.7172 9.21213 6.26713
12.2888 6.79503 4.009
32.761 17.2571 6.7631
60.0119 55.3861 43.922
14.9631 6.8908 3.55758
54.4036 55.6173 49.9448
8.39744 1.50911 2.57455
45.2037 44.8835 46.202
111.918 67.4008 35.2906
4.95934 4.60175 3.33242
1.35337 1.92114 1.71571
22.6679 32.242 37.6476
50.4404 23.976 8.67971
4.5305 5.72453 5.551
9.17166 4.89452 3.13814
33.403 31.0679 27.4161
63.584 54.321 46.3294
14.7254 4.02189 1.24899
4.43902 8.96593 16.4939
58.9387 33.8101 15.3764
11.5666 10.6727 10.0475
26.6705 17.8482 9.47581
0.531575 0.755041 0.900263
11.5102 13.7443 16.822
37.8234 26.9627 17.8509
40.518 45.2542 52.484
78.4355 36.4279 11.5951
62.39 47.7954 27.6063
46.9122 46.4353 35.1106
6.03357 5.14458 3.40818
16.4957 23.1774 23.6878
30.5436 24.4176 19.333
20.7827 20.4919 19.3405
69.3967 70.7708 67.0789
61.9549 41.1569 25.8866
0.932866 2.07786 5.19524
15.5312 8.12261 3.27102
9.06925 12.3188 12.6548
12.1941 14.5214 19.3799
42.4595 28.8573 18.2431
14.1856 18.7614 21.9059
38.5564 24.8516 15.5381
0.579336 1.04981 3.18082
6.99028 4.26603 4.179
25.7019 14.5807 4.92592
38.6374 40.8191 34.6133
12.9618 21.197 26.3553
6.58743 1.71429 5.02462
32.4379 19.681 8.89247
14.7464 19.3788 21.9684
25.9886 18.3031 11.1708
4.80984 7.94639 9.22365
10.0586 18.1391 26.6558
61.7887 47.5833 35.1478
2.29758 2.61109 6.89865
74.2694 80.3661 80.8569
42.1791 24.0335 13.7289
20.718 18.4162 14.0106
8.1607 6.10131 4.13759
2.25861 3.15746 5.24298
22.681 19.6044 14.4083
12.7449 14.0433 11.3917
2.88888 6.33793 9.32588
8.42506 7.87177 6.89556
5.29558 7.40883 9.06797
2.62745 5.01735 10.8362
14.8164 8.91262 5.42624
11.4926 10.7017 10.4109
16.3004 11.7683 8.424
11.2759 13.1163 14.8748
17.0146 11.5361 6.42129
2.72228 3.16094 2.90103
4.41028 9.99978 17.9979
31.6827 25.1352 15.9028
3.48962 7.35939 12.0448
22.2135 21.5661 20.2252
13.2776 10.6745 9.11879
6.67288 8.25759 9.64204
12.2505 11.0042 10.4412
6.36193 4.95134 3.15175
7.13866 8.41412 7.99163
14.8652 19.9937 22.4346
12.0116 12.6573 18.3072
27.6888 22.6308 15.1887
9.70072 11.4343 11.3167
0.159011 1.85931 6.16668
23.2272 25.6905 25.5908
2.97959 3.62203 10.3794
34.0244 26.1255 16.2762
5.31173 9.922 15.8012
22.913 20.3324 16.4086
1.85737 1.94277 2.18739
4.15529 3.47357 3.00395
1.22941 0.972288 0.909092
2.91547 4.04824 4.73399
14.158 15.061 13.5198
0.421804 2.54088 4.86008
0.369771 3.61802 9.60294
18.2373 27.7036 43.129
64.2785 51.378 33.9599
2.27142 6.73884 11.4871
13.936 15.2135 15.9971
3.81241 6.77565 13.389
14.4948 12.3809 8.84452
2.002 3.99411 7.80525
8.61898 11.8665 17.4632
11.1742 6.28933 3.09268
9.80721 11.2976 9.85575
2.50591 1.99968 1.60356
0.9416 0.364025 0.162463
0.586886 0.0726459 0.315826
3.97489 4.40663 6.16388
3.6373 1.9222 1.32871
7.88745 6.31609 4.04937
16.9051 18.3486 15.0489
3.4841 10.5262 21.0543
22.0803 23.0808 21.6666
17.2433 17.5345 14.8462
3.91367 11.9692 27.6289
61.9454 80.0688 90.4624
24.7014 18.1517 14.8667
10.6904 10.3119 9.50771
0.0532697 0.799958 3.19039
4.69807 4.64105 4.92292
10.3659 18.1155 26.6336
15.5657 9.81182 3.47709
7.3843 11.7226 13.3433
2.51572 2.09358 2.15789
2.75254 3.13156 2.68873
5.11857 10.6789 17.0007
2.70146 2.35833 3.51246
8.77565 17.4878 34.5808
34.5044 35.6285 32.1771
9.74166 10.3966 11.6065
4.51037 5.55882 9.7029
11.4604 12.1853 9.64114
0.806315 0.882008 2.72184
15.9118 25.6726 32.6956
5.92613 2.68647 2.53672
2.34124 1.04621 0.0217521
5.49239 7.70318 8.07142
2.70726 6.68951 12.2678
8.48393 6.76863 5.58259
3.30799 7.4952 14.6005
20.6987 25.2732 32.6135
25.0124 28.4879 28.857
6.67426 10.5354 15.5974
7.31899 4.70469 1.64993
7.2065 13.6491 20.3708
1.81049 0.198011 3.08041
11.1937 10.6925 7.47327
5.97633 12.9824 23.5772
18.5759 23.965 27.484
7.74476 7.85454 9.0759
9.67029 13.8936 16.1694
1.8746 0.40383 0.0233889
2.71729 3.28172 3.81492
3.3622 5.38095 10.7587
20.1375 27.6232 30.9769
1.10043 1.41929 5.87177
11.7289 14.2007 10.7093
3.114 10.1173 16.9132
1.70103 1.11075 1.72449
1.61851 6.92404 16.728
6.9655 5.46659 4.83938
4.93479 9.40894 14.5492
9.45616 12.0722 15.2244
2.42289 6.73484 16.1589
5.98723 3.03003 2.02901
10.4261 14.7903 18.5635
7.25747 9.51961 11.7542
2.71885 2.28072 1.74318
2.31889 4.99274 7.75422
0.0917061 1.23191 3.50551
1.10931 7.47973 24.373
17.5286 17.3564 17.1457
32.2204 64.6646 99.91
10.1851 1.87526 5.97405
8.50262 3.44751 0.0781695
6.20651 4.69621 1.29247
6.84732 7.82741 4.76041
6.12406 15.282 26.9622
2.109 0.282959 5.16122
12.0899 14.5607 16.1067
15.8239 24.7481 27.7152
1.17279 1.45168 3.95023
5.10764 8.9385 15.3763
6.26295 5.95213 6.48824
3.08194 3.79043 3.2997
3.13305 10.1809 25.6501
12.7385 13.1053 12.5078
8.21305 17.7405 33.5744
15.2772 13.8635 7.99307
3.86998 8.56225 14.0649
3.65545 4.32071 5.2748
4.08481 7.39562 14.2756
7.86195 12.4367 19.4729
6.20619 4.7367 2.12614
2.1467 1.6339 0.0302302
7.99934 14.8267 18.6618
3.12441 5.93767 8.95276
1.79015 1.72813 2.9412
5.99667 14.9672 35.1933
22.4325 26.6832 22.9333
4.39113 5.60143 2.61366
8.44825 20.2222 25.9625
2.96884 18.3401 45.963
8.52507 3.54462 1.03637
1.34198 8.79527 25.2714
6.14976 3.13702 8.14978
9.42894 9.7677 10.1148
9.57845 16.2159 25.6242
3.74824 2.37689 9.11547
13.6404 12.4268 7.79748
7.79253 8.64864 3.90026
8.19277 14.3806 13.1732
6.1379 19.292 33.812
0.161562 5.54334 26.0765
11.9 11.0796 5.42128
5.77291 20.4697 46.2272
12.2383 11.8826 12.8142
2.81846 6.21377 14.4342
3.49098 2.52646 1.82104
1.20671 4.13229 14.7088
10.5291 15.9366 27.0266
5.20668 2.39623 1.56166
3.84733 2.32461 0.782308
15.1672 29.2761 38.8069
5.76801 7.64863 15.0304
21.9434 37.3293 47.036
0.615138 3.28334 14.1795
4.90609 4.65781 2.01741
9.06092 27.6447 58.5856
9.10805 4.68253 0.57492
1.93385 4.95451 12.0691
8.70232 13.9399 16.0821
0.550219 1.0351 4.90735
3.46671 4.48764 5.72037
2.08516 3.51745 6.12944
13.7071 30.7931 48.0255
6.08678 20.4702 59.268
19.3106 15.7228 13.329
7.30404 9.75904 10.0315
2.37693 4.21042 4.32606
0.668475 1.87601 3.94796
0.194252 0.0708991 2.71936
6.08277 10.5881 10.9022
0.977092 6.90562 15.2684
0.93001 11.7177 51.6144
21.1198 15.942 4.25682
5.524 9.7445 11.8257
2.66459 4.98179 6.84292
5.31888 11.9898 20.5294
1.01919 5.21495 21.2558
3.55899 2.51498 17.7286
23.5655 35.1709 35.5867
3.32736 4.20389 3.15893
0.379275 1.76128 6.26967
6.80312 8.22273 6.86493
15.0431 40.5472 71.6234
6.05592 2.54029 0.976394
2.34168 6.8504 15.516
1.81748 2.21102 4.37955
1.67445 2.47857 3.70243
1.74575 3.63092 7.20016
2.32533 5.9364 12.9465
4.33103 5.503 7.05683
0.700771 2.225 6.55099
3.28475 4.49431 6.85795
1.45557 1.88511 3.23513
4.05903 10.6578 25.6784
12.0209 19.7237 27.6538
1.54617 2.84756 9.54625
2.82222 4.12895 8.78179
3.24654 4.67472 11.7771
21.0428 47.8629 74.9507
2.82385 5.01793 22.9674
3.8653 1.36922 5.4748
5.6698 8.64822 11.1275
3.63881 8.14205 24.2717
8.90523 10.3923 7.79917
3.72632 7.17233 9.34355
1.32445 2.07855 1.30974
1.40726 7.26905 21.8917
7.16423 6.5898 2.40603
5.32975 13.2021 19.5668
0.318537 2.61128 12.7725
4.43823 7.01895 9.40862
1.67053 2.21886 1.6247
0.714292 3.33501 11.4863
5.64142 10.4009 15.0226
4.7825 9.89696 15.9925
1.1703 4.30478 15.1671
6.36929 8.65154 10.0345
0.135862 0.077334 0.474113
0.243862 1.76283 10.2673
5.2539 7.26378 6.1534
2.8912 8.18847 14.6388
5.62174 12.2212 16.7818
0.205893 3.87041 12.9833
1.29057 2.47687 12.0843
4.75634 4.79769 2.90867
0.547271 2.00824 4.28959
0.347349 0.872781 2.80082
0.0293066 0.660075 5.40765
1.43929 0.909471 0.301946
1.47988 3.18461 2.81108
0.342532 2.34714 5.97354
2.76791 9.82982 30.0033
7.37498 8.4035 9.70072
6.45581 13.4893 20.4079
1.04521 2.34386 4.5241
0.287974 0.663014 1.83133
0.103092 2.03569 11.1636
5.81588 13.6505 23.2157
1.2818 0.464733 3.48302
2.51743 5.41086 13.0112
1.31802 0.349948 1.37908
1.94243 3.38363 4.68669
1.49113 3.37207 12.2164
8.08233 19.865 35.8226
3.38174 2.43551 2.39429
1.20915 4.33077 14.7391
5.13003 7.01712 6.58031
1.11831 5.35654 14.4951
3.04325 3.08924 1.50367
2.27539 12.4388 39.9152
6.65567 5.93053 5.83015
0.51548 0.608286 9.13974
7.60235 11.9618 9.34548
2.77495 11.0394 27.178
3.68617 2.75772 0.424505
2.59203 8.36208 18.0373
1.54545 2.93898 7.11289
0.827112 0.581294 2.60031
2.22183 6.07747 13.5249
4.16734 9.65881 20.8452
2.21044 3.43701 11.6564
3.97438 2.76161 0.208361
6.3428 14.993 17.6542
0.37414 4.62644 11.6302
0.464731 3.64239 16.5358
2.19946 2.53219 8.8025
4.92866 7.43013 6.80659
1.63081 8.1244 25.9202
4.11888 5.51947 6.95622
2.23103 3.27178 1.61249
1.79849 7.71662 16.4083
2.24503 7.94531 22.3239
1.92596 5.07594 20.038
3.49494 4.60907 6.92733
0.326503 0.262296 6.40306
1.36372 1.07192 18.5917
15.5716 30.3884 31.6426
0.81179 6.54539 17.6855
0.197924 0.686509 6.91661
0.994973 1.09089 2.77382
1.90692 6.95614 17.0696
0.564156 2.37259 23.8789
12.863 29.8999 56.727
7.47496 8.24123 4.49766
3.19051 14.1123 33.2679
1.1671 2.02623 8.69555
0.316158 4.70122 27.1709
3.02903 0.833707 2.14372
0.416502 2.54387 21.5663
3.12684 0.130669 13.9022
8.80255 8.56805 0.646309
8.18355 19.7986 20.8646
4.52711 17.3537 30.4034
0.574224 0.122927 0.986812
0.1452 0.917376 1.63742
0.577944 5.35014 20.6809
4.82626 7.78235 12.6279
2.35273 5.08452 9.2553
0.962973 4.1257 12.8214
1.50578 6.77434 37.0268
7.6328 7.7051 7.41908
4.64765 8.49635 4.04928
0.763998 3.44969 3.83243
0.0469512 0.512221 5.28988
3.37087 7.1412 12.1299
7.56559 23.0541 38.4398
1.20754 0.147178 0.307594
1.40755 5.55628 19.6254
6.78333 14.1028 9.70465
2.1812 16.2481 36.806
0.89925 1.80899 5.13581
0.549825 12.5398 56.3986
9.4795 12.432 16.0183
0.669137 2.63046 8.46691
0.414797 4.60275 25.2036
2.70708 0.261873 3.11012
0.979383 0.803312 11.6112
3.35542 1.59111 4.72166
4.92227 7.7276 10.8995
9.23612 27.6067 48.482
0.397159 2.23848 27.5082
6.87893 10.0937 10.914
2.62974 3.8843 0.46947
2.95597 13.1833 30.6603
4.53767 17.2695 50.0367
6.80692 11.9354 21.9123
1.8931 2.69358 11.7175
2.8932 3.94288 3.02569
0.0688722 3.87953 30.9987
11.6344 21.7357 24.9725
0.482317 1.70693 3.30064
0.1231 0.663231 3.80912
2.60845 9.56591 19.9419
1.4493 7.19163 28.4338
3.91225 2.80433 2.00899
1.23142 2.03113 5.29969
3.75393 9.49665 13.2379
1.78216 6.20301 11.107
3.39901 23.9502 84.219
6.48806 1.20291 8.33106
8.07912 18.4992 23.8218
0.00553274 3.01301 23.1632
3.47348 3.24722 1.58113
0.750089 1.12232 0.429424
1.46581 5.94118 11.8165
0.759749 0.453452 0.438185
0.116033 0.568968 2.05371
