# pn-170911/CsIIA-35-TWTF-1280-1959.psd
# Power spectrum* (dif=0,1,2) (really just |FT|^2)
# NOTE: only the first half! (symmetric)
# weeks: 1280-1959
# 2 clock-days, 0 excluded
# PSD: 1441
147874 2.34935 0.059485
1.96885e+06 42.4454 0.033395
3.802e+07 831.306 0.0136398
647831 56.7028 0.0267826
3.09934e+06 211.827 0.0886441
433832 16.9498 0.0243557
299911 90.9791 0.0740898
18651 29.3265 0.0361669
607027 160.004 0.0634181
339366 101.197 0.113088
405655 138.086 0.153984
241337 69.9646 0.102479
80569.8 33.8794 0.029238
101841 79.037 0.149926
13427.1 28.0055 0.0368563
173975 162.837 0.179061
91156.5 72.8336 0.184849
23034.4 33.6099 0.130682
15713.1 90.4412 0.172398
13644.1 47.0956 0.114935
49222.9 51.386 0.200008
59581.9 71.7443 0.289487
9833.99 26.1947 0.0811287
42446.5 85.4214 0.378519
55283.4 124.73 0.34551
35969.4 33.1757 0.172501
58610.7 71.6 0.299345
9521.37 27.7872 0.0701864
38979 71.9788 0.429017
10458.3 4.78557 0.0586063
15355.4 39.1378 0.0992991
35297.9 57.8432 0.253487
5452.3 31.4538 0.101601
11471.6 66.3091 0.244836
47391.7 114.048 0.727521
9714.58 99.4138 0.826821
18363.2 49.9381 0.254982
16822.6 44.1961 0.238546
12381.9 55.7241 0.529228
13047.4 43.919 0.394292
8049.76 76.5383 0.487109
9374.45 46.9385 0.195166
7032.97 48.9507 0.320444
10244.9 42.2121 0.217039
3926.96 40.6485 0.28315
7618.11 134.509 1.31637
3991.79 46.9685 0.537215
3274.06 48.6942 0.720554
2486.73 69.88 0.69308
2207.78 23.1573 0.449174
11932.7 47.7459 0.646078
7188.6 24.2325 0.457573
13185.4 127.546 1.25064
10118.9 40.1069 0.450222
13304.2 118.456 2.02115
6569.08 61.0072 0.864882
16813.3 136.029 1.83036
5717.15 133.099 2.26956
4357.69 33.5857 0.367577
6831.86 63.254 0.714643
5703.93 151.452 2.55799
3902.91 30.9302 0.471278
2637.44 29.3705 0.441749
2411.85 1.66332 0.0822804
3586.33 40.443 0.590227
3656.77 9.61015 0.266995
1187.75 88.7352 1.73926
4044.16 40.0498 1.09984
2994.14 12.2888 0.155377
245.629 19.7913 0.499274
3006.59 49.9523 1.05045
4292.05 75.102 2.22273
3457.84 42.4876 1.34121
9393.3 114.627 2.6461
3333.17 56.7224 1.88251
1142.13 13.8401 0.283983
4082.07 72.1258 1.48379
5034.48 119.745 3.60145
5147.29 62.0437 1.38657
2039.14 41.1345 0.952889
2478.43 66.7998 2.12601
3111.3 44.1981 1.73977
3460.65 87.6363 2.23284
7847.51 120.312 3.69369
779.894 4.30801 0.132256
6221.84 129.534 4.9151
1062.87 37.5076 1.12408
2979.04 56.5633 2.18839
2177.46 40.6065 1.73893
770.964 67.2366 2.43174
2867.42 41.3815 1.63098
1736.55 17.7097 0.511028
2498.35 35.3468 1.23686
3237.2 198.294 8.24523
3475.05 95.1227 4.11148
1799.35 33.6121 1.2454
2221.5 29.4695 1.52713
2336.58 45.6364 2.0516
851.766 14.2361 0.510589
315.843 69.3633 3.70749
3689.85 83.0854 3.73976
2560.23 46.6587 2.6217
1872.11 18.5226 0.958861
2813.81 44.5545 2.29121
1407.66 29.5416 1.11642
2677.62 60.3086 3.10321
2189.43 41.252 2.13578
605.996 26.5809 1.17627
994.479 104.258 5.63035
1173.09 62.1973 3.56002
3473.44 138.52 7.72937
1117.5 71.0407 4.75079
2206.81 62.9624 4.04771
2112.77 42.0298 2.239
759.199 6.82527 0.321326
1354.64 30.4745 2.1323
130.045 24.0842 1.71505
1497.42 85.6102 6.05901
1001.34 26.6736 1.37812
1880.69 35.706 2.60038
369.266 14.0888 0.80494
826.027 81.5122 6.17336
1426.68 25.5283 1.88771
2966.78 85.5271 6.03579
2336.58 68.4826 5.55236
1627.46 61.9675 5.05536
2328.43 131.875 11.5886
537.914 37.2432 1.85864
458.198 17.4182 1.84488
338.23 27.6981 1.93509
2146.7 92.6657 8.50517
1425.69 176.147 13.2516
2165.47 64.2455 4.61414
2295.18 102.937 9.67273
163.239 48.7944 3.94714
375.267 9.67491 1.02499
3176.51 157.386 14.6658
971.178 158.342 13.5285
2138.51 159.98 16.6455
885.156 13.6356 1.7318
1688.76 57.284 5.62771
447.46 87.0278 7.277
195.506 31.994 2.72586
930.631 61.728 5.62402
82.3619 21.7905 2.51264
638.959 20.2293 1.96922
1186.96 52.9124 6.46062
1182.46 113.478 11.5139
284.633 28.5359 2.3823
259.311 31.8013 4.01297
665.431 27.1989 2.89031
291.153 72.0283 8.48301
608.681 44.0485 5.30632
781.843 17.0951 1.92485
856.015 35.778 2.96401
370.122 42.6798 4.67746
1044.52 41.7011 4.28192
396.576 52.2227 6.64555
338.614 57.1724 8.21894
362.215 11.7001 1.12112
513.45 21.0771 1.85415
394.131 34.2241 3.96684
380.59 30.7996 2.80465
917.579 83.1453 9.64509
185.45 18.2011 2.66465
185.981 4.27116 0.754496
828.036 23.8288 2.86828
485.072 38.5216 5.30701
371.53 48.3723 6.85011
466.491 107.665 14.863
1295.39 53.8915 6.54804
1159.4 71.1721 9.96584
200.471 7.56143 1.23954
311.913 12.6191 1.19498
165.119 2.72037 0.324911
244.516 24.0889 3.41229
728.476 59.7194 9.60357
332.516 74.9762 11.8274
321.196 29.3373 5.43898
690.141 25.4925 2.37381
694.291 45.3572 6.07479
174.849 19.0643 3.70124
473.141 16.4726 2.55225
1045.93 55.4272 7.4224
546.787 29.9403 5.78304
528.113 13.7361 2.28473
202.608 14.0294 2.93566
822.53 61.4662 8.91015
1552.13 123.629 18.5214
862.808 76.234 13.9886
333.531 21.8123 5.27984
721.306 52.21 6.85925
762.707 62.0948 11.0005
255.104 3.30095 1.32646
270.238 27.1325 4.39452
733.318 61.1992 13.6191
55.9397 33.7624 4.62355
54.7754 16.4207 2.84501
536.835 33.3281 4.93485
91.6452 19.3122 4.11113
704.392 81.1179 12.0973
549.886 63.7273 8.52335
1052.69 139.325 25.164
224.921 57.2868 10.1071
530.556 106.741 21.3819
414.834 62.4711 15.216
235.527 49.9995 8.80145
233.713 8.87203 1.73726
301.793 9.0111 2.29012
71.7078 27.3838 6.22015
116.41 73.6936 15.4686
318.05 33.9816 7.05982
282.487 25.4931 5.66023
752.786 76.6496 17.7078
589.098 65.4014 11.1194
486.623 77.5907 17.528
275.969 35.5642 6.31424
589.723 77.4476 19.4126
210.168 54.1081 11.9072
552.362 101.118 27.1556
274.721 70.6665 12.2471
338.015 36.7545 7.79899
276.922 106.421 29.3934
616.469 44.2328 8.95368
593.751 37.6784 6.65836
223.339 17.7257 3.76023
134.38 7.28592 2.64827
314.717 22.367 7.06313
333.156 72.4292 17.5586
1018.25 106.177 21.5569
478.189 43.3897 12.7772
430.626 57.5842 12.0675
195.244 31.1499 7.14525
147.961 21.1882 5.0114
261.649 66.7409 20.882
138.038 11.8333 1.50112
290.24 30.742 5.77318
176.509 31.4756 7.91826
279.722 33.1913 8.96742
359.089 26.419 6.88521
144.93 4.70278 0.796424
190.901 45.6795 9.99546
250.68 26.7304 8.0127
342.749 78.4446 20.7465
199.357 47.6214 14.7055
106.65 48.3172 15.0326
75.3385 4.66384 3.03728
102.486 36.3125 10.0609
286.093 16.8019 4.03699
106.756 14.0442 5.53901
174.032 24.9634 6.5138
199.594 15.6428 5.26079
128.74 4.25781 3.04882
431.342 35.6208 8.8983
427.245 29.948 6.31342
512.932 51.7128 14.1015
495.247 74.153 24.4629
87.9324 4.83906 0.678798
255.799 42.3832 12.7665
340.676 55.5513 20.7465
171.883 28.1701 10.9858
137.864 10.8878 3.2136
222.035 80.3082 21.5911
230.723 8.21337 1.71772
321.491 23.169 5.87596
284.89 28.9414 8.77805
148.023 27.5812 9.31112
127.725 17.0726 6.29003
318.912 39.4395 14.5328
95.3292 55.5627 16.9255
254.414 41.3744 15.4399
98.3466 1.61356 0.56152
256.595 47.1161 13.9925
343.275 77.6002 30.164
257.67 70.5529 20.8231
181.097 9.99452 3.07004
85.2332 9.22916 5.4061
233.156 52.1061 15.0064
348.792 42.5411 13.4764
234.592 23.4409 10.1836
90.4444 29.2196 10.5525
163.209 14.1194 4.80409
194.752 38.4424 14.5204
227.642 26.9654 9.62666
85.7206 4.33344 2.64211
209.719 77.7761 29.0621
136.692 3.16417 1.97188
302.048 57.5764 24.6832
22.4636 44.2461 23.0893
208.178 17.9287 2.11806
274.805 82.1739 25.8445
158.873 35.9669 15.3557
85.4337 16.0285 9.21979
112.501 5.34994 1.3462
115.815 32.8665 17.4234
170.977 26.2505 6.44552
130.023 5.19863 1.93356
86.4146 38.2435 12.7357
155.665 66.7481 29.7043
103.5 8.36721 4.44949
158.976 9.5537 4.08442
87.5098 22.7069 13.6754
321.326 31.4224 10.3294
194.68 18.579 6.22835
102.485 5.4542 2.24229
60.4225 29.2161 11.2557
118.709 12.1449 6.54534
278.056 52.383 20.3609
128.211 14.5708 8.07184
199.851 56.4173 23.8874
210.066 20.5886 8.41265
26.1366 8.58648 4.84527
330.86 87.1369 40.1099
4.622 39.1739 18.3107
150.485 27.1247 12.4205
110.87 9.06969 2.71892
167.894 10.8553 4.81928
133.97 4.41649 1.10422
276.587 32.8165 14.1135
126.317 24.8771 13.7754
153.729 28.2317 8.72957
223.246 32.8255 17.7016
64.1949 18.0108 9.92348
14.8947 44.9658 17.3915
34.6932 12.3462 7.53703
118.928 15.0077 10.562
120.574 10.2222 3.20874
52.3667 11.7695 9.47551
103.518 8.90034 2.0658
129.72 51.5895 22.728
365.23 88.1441 37.7788
42.0472 27.4592 16.7824
229.039 35.2673 15.7332
93.035 4.90318 2.19176
182.157 15.4655 6.46886
173.878 24.7168 15.572
107.584 9.96511 6.49444
41.6748 1.67731 0.695447
99.9678 12.9867 10.8962
40.836 16.197 9.57998
94.3221 32.4122 12.3449
81.0016 17.7122 9.55908
28.4459 37.5478 14.4875
89.2346 25.7112 10.9908
155.862 45.8827 24.499
14.5963 50.0971 25.3144
132.668 49.6905 23.4992
27.9778 26.754 18.485
43.8954 42.2011 24.6207
110.163 4.14318 1.58896
87.3651 12.3926 9.6483
238.311 86.4564 42.1093
116.066 49.5539 29.4012
91.1338 43.1739 34.7092
279.286 66.4386 30.7445
128.108 18.5524 13.4716
98.0611 39.5188 22.913
168.472 102.243 59.9647
103.667 16.5224 9.65119
113.037 9.35836 5.18831
31.0682 14.9271 10.2525
158.424 30.9041 19.8925
222.985 55.6159 28.709
91.2201 6.04697 3.97837
101.738 10.8686 9.31726
16.2579 21.2046 15.7377
72.685 31.2894 16.9612
116.774 14.3968 7.38135
91.1611 24.7782 21.6588
116.576 20.6458 13.3476
84.816 9.74927 9.76511
51.995 16.8205 8.22679
201.597 55.572 28.9821
27.9069 7.00544 6.35739
46.9947 8.59673 4.23518
72.2444 26.1186 16.0057
191.7 41.0905 29.4716
42.7745 14.2709 7.48752
17.9001 37.3986 25.8808
80.4805 10.689 10.9968
43.32 34.7389 29.5264
253.22 77.3986 42.2348
243.527 79.6306 45.2192
170.098 37.9037 24.6186
104.41 30.4597 19.5133
54.1143 44.9859 34.0067
112.021 8.3629 5.04089
255.583 107.972 68.647
158.638 34.8383 24.6968
18.5346 11.9211 3.8286
34.8167 65.7393 49.987
63.7721 12.2807 15.4535
272.947 89.6613 49.3737
174.712 40.909 31.0339
87.3158 15.4527 8.40289
33.2373 17.1152 11.2491
118.863 22.4779 20.6695
50.1516 10.4329 3.64464
64.3005 22.4664 16.3098
23.0564 16.8205 12.7454
111.939 13.0332 9.57585
96.1759 39.2889 20.8837
52.9536 66.0311 54.3788
66.2863 11.2446 9.4195
31.9956 5.87549 4.64948
42.1234 22.6101 19.9719
122.849 8.93853 3.02589
74.0592 9.81614 8.91923
73.5528 9.57662 5.89042
65.3817 18.0127 16.188
86.4455 25.3945 15.7451
67.2126 13.0531 8.05963
47.9511 3.01908 4.8035
135.548 37.8947 28.1363
125.428 22.5386 17.4704
21.1212 0.978682 0.693581
45.4426 44.9673 37.4584
161.915 44.9673 25.7791
115.028 27.1205 27.5349
26.1844 8.17631 5.78042
51.7138 4.81496 5.95025
64.5105 17.0788 21.376
121.762 56.0805 37.9945
43.7516 1.775 2.35582
40.5602 17.2238 10.466
96.2212 33.2383 25.0302
98.2301 32.1286 21.9794
49.4464 17.1629 19.635
38.4575 29.4459 27.0608
63.2497 10.6111 6.96162
20.2449 13.048 5.13243
20.0869 53.0788 42.8637
75.7579 5.31189 4.57136
65.6049 16.3473 14.2221
47.786 12.5158 12.8978
74.8125 10.6218 14.4736
5.86203 27.7192 33.8763
139.193 34.5481 16.0801
72.0033 7.68679 9.31818
99.6097 28.7429 25.4344
48.987 36.7018 25.2098
37.7326 18.0806 15.2129
38.3169 5.15505 4.23253
75.2255 27.99 26.4777
39.8736 4.22552 2.88601
37.6871 14.8986 15.611
55.3857 5.66644 4.40979
67.0649 16.0631 11.8116
121.217 25.22 19.0516
75.8069 20.7426 24.7136
17.9994 10.6471 6.11841
40.1594 26.877 24.2074
36.3572 7.28116 7.02634
55.102 9.35833 7.63508
98.195 25.2862 27.3356
74.9185 41.8386 35.0421
12.1308 14.03 12.4439
65.1891 9.10278 8.41568
26.7802 4.56403 4.70251
45.8699 19.1599 14.0327
18.5126 9.62238 15.7676
113.96 21.9098 17.0192
33.2273 16.6482 17.8035
17.213 3.33161 8.51362
20.4776 29.8266 17.9339
26.3795 17.5737 18.8632
43.7094 40.8467 42.1902
62.237 7.29526 11.1232
98.5114 13.9094 11.76
30.3886 3.68996 3.49767
57.9247 1.17162 0.950248
91.6776 32.4303 29.5799
52.2287 14.9977 11.6116
40.1639 30.4826 29.9478
113.418 33.166 25.2355
60.2467 6.88971 8.6891
142.494 60.8414 49.552
46.4908 7.22568 8.21944
50.9909 5.74185 11.0054
70.6301 12.8246 8.52685
65.9245 37.6941 29.3926
71.2884 15.2672 19.2522
45.4788 19.1654 32.9087
8.2682 25.6704 24.7613
26.9996 19.9267 9.86443
23.112 20.5272 15.5202
19.3634 9.62281 10.9025
34.043 1.6884 2.92152
40.0168 8.24284 9.16838
62.4609 18.0177 16.8193
28.6669 8.67188 10.2676
37.8436 4.95538 4.5296
19.6189 7.45113 10.0468
73.1135 10.6336 10.7493
16.3645 10.4998 14.1355
57.2412 53.9371 54.1765
20.1726 14.9005 14.0178
29.6522 6.20089 17.3759
124.083 48.3449 42.7906
45.124 14.1938 11.2313
40.8178 11.8166 14.6075
18.707 7.56636 9.37565
40.0617 8.39962 6.13284
37.59 3.79375 4.18863
64.6181 8.49444 7.52784
51.505 18.3758 21.1004
49.9516 3.47506 4.06031
78.0232 53.0932 59.4784
4.78465 22.4068 22.2447
34.7964 10.3571 19.4718
44.7836 8.25947 11.6534
42.8772 33.8714 33.54
28.6316 14.3806 18.5842
50.4412 8.38383 13.7406
74.8524 31.3852 33.3524
67.9527 18.5515 16.3461
65.9194 16.6483 26.8303
80.9073 36.5405 27.0194
49.2039 14.7919 19.4754
36.3345 9.41689 17.4459
10.5853 7.38568 14.2883
43.0648 2.47779 0.751859
94.4682 32.602 34.1001
36.3715 8.45713 20.2199
3.82583 14.9595 11.6038
13.8101 14.0971 24.993
62.3814 16.8285 10.5519
28.9897 8.10412 8.53632
13.7572 7.11089 4.36684
10.7581 18.4155 32.9479
88.8869 27.7166 21.6272
32.1155 10.8734 17.1195
30.1472 12.2006 8.95912
44.6608 10.3566 12.0346
32.2131 31.2797 51.4817
22.6129 9.54064 16.8442
35.869 22.0742 32.8016
68.5917 52.6652 52.5487
41.5279 12.2247 16.2538
27.8961 6.46035 7.96621
40.4428 16.2385 29.3309
20.2763 3.94987 6.41109
28.771 19.2691 9.3983
23.6008 23.8662 31.0743
32.5413 13.333 20.2675
64.248 28.601 42.2406
29.8456 2.55607 6.08873
57.7925 11.3245 7.1673
38.3726 10.4939 12.3073
24.5429 7.69924 9.80552
51.2288 10.7506 9.67226
39.4103 4.29221 7.38368
32.0141 13.695 21.2278
31.2944 16.9833 24.1761
38.7053 21.019 28.8739
23.7063 38.0168 43.4092
54.2076 12.2105 28.2136
17.2928 21.1729 20.152
50.1599 13.8747 14.2373
44.0802 18.6396 23.9443
4.24574 9.10901 10.4743
21.1849 22.8828 28.7393
28.3883 32.7244 44.3565
37.8582 11.5584 14.7424
30.6757 6.43925 9.12742
35.8048 5.42346 15.9612
26.753 13.5126 19.1505
82.285 45.0024 54.099
23.5832 1.38468 9.29671
43.4595 20.6058 22.2216
51.0091 31.1092 37.3382
60.61 23.8605 25.721
21.3401 2.60761 9.60882
39.4791 7.46351 8.697
31.6608 9.6386 17.2537
15.7602 3.12674 0.833115
23.5363 1.50146 3.94599
17.9439 25.8468 33.2098
20.7059 18.9426 26.7576
57.8589 11.2522 17.1247
16.6923 5.2874 6.92133
9.80807 20.5036 23.9655
38.3988 5.30418 10.4425
28.8498 6.69045 6.57232
12.5375 3.88572 8.47463
24.702 15.2906 20.8727
32.1785 14.7652 19.4038
38.5939 10.5962 9.20137
9.1505 7.59885 6.39156
16.9761 5.71652 8.44608
6.50465 29.3979 44.5249
29.9289 19.6821 59.1524
101.793 25.2242 15.0311
29.6546 5.45162 13.4338
24.8672 8.5514 18.587
28.3344 8.25935 8.93851
41.7638 21.5433 23.0934
18.5729 8.12612 19.7767
54.1172 10.7177 11.0977
34.924 20.2127 21.163
31.5463 6.55464 11.7331
60.9498 30.6525 49.2959
9.20455 12.7156 12.8065
30.0589 22.1235 26.8527
22.8363 6.11182 11.8395
11.3725 7.95477 19.1612
48.8743 14.0938 17.0248
23.2824 27.3537 48.4274
11.0235 29.3453 53.4208
67.195 16.5844 22.9689
31.7356 13.1614 17.7882
45.479 5.41924 3.24072
20.6024 12.1069 24.7912
48.802 13.7599 17.6172
12.8266 17.2212 24.7359
23.4924 5.2582 11.3931
31.3988 6.73908 19.5025
41.152 3.60717 10.0493
27.5998 6.85606 9.63602
30.5681 59.8571 80.1896
34.983 10.3685 17.5309
50.3319 19.7199 23.4215
42.9574 14.018 26.4603
35.5196 13.3215 16.0875
38.3017 8.20973 25.1391
20.4169 13.4397 7.51173
28.9383 15.3826 20.6148
34.8448 17.3526 33.1819
21.2554 7.82554 8.44438
27.1202 4.22711 5.08563
22.2905 7.48436 18.9228
30.0077 7.5951 10.3583
25.6 5.80249 12.5998
32.0535 2.09675 6.49324
54.785 19.3641 25.547
39.6865 19.5069 37.2258
24.9138 9.33081 9.72335
35.676 18.4495 36.719
33.4544 8.48087 5.73349
27.3711 14.5824 34.1104
70.8028 29.1698 35.7905
24.0113 8.57866 18.7829
33.6302 23.4797 36.3332
19.7193 2.84696 4.34218
25.046 16.1913 31.2202
27.5963 10.8454 16.8501
25.5939 13.2869 28.6411
18.8458 13.0131 23.2307
24.6467 3.33432 13.0563
59.6138 21.0535 25.9881
17.0534 2.521 1.60261
18.1834 3.49202 16.1516
34.8559 21.5567 20.865
15.5657 4.85004 10.9303
42.223 33.0794 52.107
15.4371 12.6991 22.7534
20.0698 6.42641 17.1674
12.9445 9.0461 31.8635
45.6462 9.03922 6.65541
19.217 0.670362 2.09658
13.5057 11.6904 17.8014
34.149 8.64429 19.4248
46.0881 13.0252 14.6602
12.1264 4.81205 11.0307
22.8147 15.4856 24.502
22.7072 4.96123 18.9454
48.483 14.4495 36.9193
22.7105 11.916 12.4946
34.8018 5.23728 12.1608
37.684 10.2783 12.0201
24.3704 4.45027 21.7689
73.4972 24.685 14.0733
43.5175 21.844 29.7334
41.2239 24.6116 48.5935
29.444 15.6623 49.9011
8.67059 10.2633 11.9551
4.00076 13.4462 19.1435
34.242 5.53472 11.3205
8.20888 12.3781 20.6972
17.6091 4.45864 14.7133
35.6126 9.47543 12.2077
19.3738 4.45431 11.4471
37.7759 13.0343 21.74
33.6652 12.4977 25.2395
37.0625 15.9572 21.9978
25.1487 8.24187 13.0356
21.4207 7.74777 18.0684
21.4802 6.75402 23.9305
9.44831 11.814 17.3525
26.8843 7.34759 10.2346
15.496 4.82473 18.4143
7.18502 13.2297 7.10483
11.1435 17.8215 28.9913
24.0708 8.18469 29.5565
41.8344 8.46294 11.5381
9.76008 4.58528 6.97114
9.85696 6.58574 14.5865
27.4213 9.95592 18.7067
21.4841 0.787106 8.45149
23.347 3.02836 1.88759
11.8576 4.2735 11.8987
26.0246 9.85246 21.1848
23.4771 4.52128 22.6877
44.4933 8.78056 9.04869
53.7778 19.4628 18.2558
27.4995 9.40688 27.7553
24.192 5.66224 5.84886
34.9792 13.1701 24.4471
11.2589 8.29233 15.753
18.9149 6.80308 16.1008
25.7671 7.33941 14.1476
15.8103 5.00044 6.92407
21.3353 5.56358 13.6591
27.2772 3.76505 6.68577
16.5847 4.86203 6.51817
25.7196 4.24083 11.6901
29.0115 2.59014 0.997383
43.7451 26.4355 53.2603
14.6613 3.66542 3.52736
12.7843 0.803428 1.65441
15.7998 2.68808 7.39609
33.3552 8.19872 14.771
13.8276 1.02195 6.25456
38.4563 25.3574 46.9556
13.1873 6.0027 19.3215
7.08142 7.79204 8.56335
18.2397 1.61528 5.82082
30.3423 10.3837 27.3578
8.97965 7.42821 6.31528
12.6965 18.1856 51.5016
10.3215 15.7082 27.3143
27.3118 6.17298 6.53483
14.0996 20.3235 36.5177
25.3058 2.48207 6.99134
10.4488 26.0173 60.1777
26.3121 1.27795 10.9029
17.0952 7.60216 5.48738
11.2027 5.22683 16.7815
23.0821 12.8166 56.5793
43.8034 7.60092 6.82696
34.1825 28.82 26.6029
10.1214 21.2578 63.3909
46.5069 10.6138 9.81556
22.6689 2.13753 7.30989
23.158 3.63345 5.9186
23.9985 11.5973 25.8579
16.6308 1.7082 5.58618
15.7382 8.69162 16.0914
13.5816 4.61554 6.33091
15.5527 1.23647 5.32579
20.214 4.96283 15.5704
31.2257 12.965 31.5631
14.7438 13.7074 21.9213
24.4483 5.00843 7.67401
11.5759 3.26659 11.0366
18.5909 9.46951 26.0405
35.8817 8.1846 9.83211
11.3606 4.87043 12.5978
14.6726 2.1974 13.0343
29.7669 7.20631 17.1843
27.0702 7.54418 15.0979
23.3604 8.43076 9.54614
23.6981 6.94396 25.4842
8.09865 7.99458 10.4131
31.3172 24.2811 43.4596
5.64577 14.64 32.5695
24.1949 1.74329 3.93164
7.29825 6.90112 10.1156
12.9369 8.91109 39.2912
26.8804 11.0428 23.1059
35.9027 12.3141 21.8067
26.077 3.90672 8.3793
30.9086 13.9418 24.1621
22.8869 24.3645 91.587
19.1797 25.6389 27.0468
6.4196 11.535 20.5414
20.8185 14.3575 22.4049
12.915 4.81743 12.7534
10.3342 7.67434 24.5392
21.1017 10.6306 35.7202
36.9954 6.49787 17.3674
35.2689 15.3172 18.6119
24.535 5.58363 9.05447
15.7895 3.19411 17.1228
28.8632 15.0132 23.0747
10.6762 2.35501 8.81695
22.1702 3.37412 14.4925
13.6718 13.6058 34.4505
20.1046 5.38134 10.6759
15.0117 5.15765 28.7542
11.0048 12.1195 17.6713
18.8732 2.26211 18.5305
32.5874 3.56858 1.70317
33.1187 15.9266 23.4517
25.7627 8.59163 12.8479
13.129 4.1129 11.3472
9.87719 4.86101 10.232
18.5149 4.59949 15.6559
10.4427 10.1583 29.2848
23.5156 4.38298 6.46752
11.5847 6.18443 19.8957
24.1543 0.787538 3.62075
27.0373 4.63061 11.3814
22.9599 3.14802 9.12334
22.657 16.8329 24.163
11.6788 3.45397 17.4065
27.2969 10.061 15.7639
11.7661 12.2378 29.2357
30.6174 13.3916 36.0226
9.54355 1.48638 3.99316
16.2104 0.760488 10.3807
19.9221 6.00224 8.86197
14.2104 7.47404 17.5552
12.9234 4.47936 21.4901
25.0819 7.37764 8.84078
13.8148 0.572123 5.69019
24.2075 14.5347 23.2779
13.209 7.3393 21.0856
22.3853 1.50006 10.9544
19.6937 2.4886 8.5943
33.6437 17.6793 22.4406
24.5761 7.4207 9.2334
22.5604 15.3324 53.8182
11.7866 8.69092 16.791
15.5285 4.65923 12.4432
14.1563 8.94196 14.2284
14.6565 8.83906 37.5732
4.74337 23.0949 83.7037
47.4146 18.0971 16.5906
16.418 1.70949 11.6535
22.5096 5.72668 4.21373
19.2569 10.0069 16.6103
