# pn-170911/CsIIA-25-CsIIA-1280-1959.psd
# Power spectrum* (dif=0,1,2) (really just |FT|^2)
# NOTE: only the first half! (symmetric)
# weeks: 1280-1959
# 439 clock-days, 112 excluded
# PSD: 1441
50200.2 2.01052 0.0568113
3.10673e+06 50.4127 0.0290443
1.73386e+07 339.644 0.0366746
3.13454e+06 115.782 0.0344698
2.50011e+06 178.255 0.0424854
1.03729e+06 112.603 0.0401292
852167 123.806 0.0503632
562864 111.662 0.0528008
430454 105.963 0.0551557
324470 107.869 0.0692895
274842 114.959 0.088429
218738 108.715 0.0854662
172416 100.25 0.100175
170478 114.53 0.12296
129645 100.882 0.11845
121417 108.443 0.143151
104362 108.402 0.161924
88959.2 102.515 0.17022
84589.1 110.128 0.202076
75036.1 108.725 0.213282
68296 110.945 0.238192
63999.1 110.701 0.260607
53401.2 107.329 0.277478
48931.1 109.97 0.30146
47702.9 108.062 0.323895
39272.1 102.836 0.333989
35764.2 98.3876 0.349169
38319.6 114.342 0.424296
37559.6 115.289 0.452463
30727.6 103.234 0.439946
27817.4 102.61 0.471424
27418.1 105.235 0.504112
26521 107.537 0.544586
26079.1 111.396 0.601895
23931.5 111.919 0.642981
22058.1 106.787 0.672182
20597.8 108.635 0.702772
18970.8 99.7848 0.673002
18710.6 111.134 0.791872
18379.5 112.879 0.848937
19013.9 117.714 0.915342
15908 108.17 0.900082
16373.3 117.731 1.02764
13166.5 103.227 0.93977
14225.6 105.638 1.00056
13548.6 110.588 1.11409
12937.5 111.588 1.1511
10495.7 92.6087 1.02388
10508.8 99.8394 1.11416
11220.1 109.919 1.27165
12014.5 124.094 1.51247
9713.49 100.961 1.25677
9394.7 97.5882 1.2745
9588.26 104.452 1.38898
9577.01 117.713 1.66477
8161.7 101.793 1.51758
8534.21 108.388 1.65905
7706.78 104.813 1.65931
8672.83 114.309 1.85017
7480.84 104.434 1.7621
7398.3 102.617 1.80766
6820.15 102.212 1.84223
6646.06 105.111 1.91639
6360.29 102.321 1.97289
6602.48 106.204 2.07526
6044.59 103.426 2.12164
6212.9 107.706 2.28677
6178.57 108.342 2.35859
6318.77 113.094 2.49514
5699.21 105.188 2.41872
5143.83 105.562 2.49718
4844.35 94.4115 2.28708
5300.21 105.79 2.62442
5162.57 107.422 2.75566
4612.64 103.566 2.71925
4708.95 102.651 2.78742
4700.97 110.183 2.97938
4514.86 105.502 3.00559
4267.07 103.447 3.0157
4283.54 103.336 3.08344
3970.58 102.17 3.10665
4070.54 109.681 3.42431
3908.2 105.503 3.40169
3588.87 98.7463 3.23528
4018.2 110.358 3.6592
3574.89 101.336 3.48345
3332.9 97.6917 3.45966
3511.43 104.317 3.72558
3357.53 98.6761 3.69856
3245.42 106.105 3.98848
3234.23 100.534 3.86661
3227.03 107.667 4.28921
2834.79 96.764 3.8966
2985.17 107.523 4.36664
2886.91 97.9752 4.12377
2865.11 100.721 4.32934
2763.03 101.973 4.4452
2789.46 108.573 4.80903
2775.69 102.563 4.73938
2374.72 93.4385 4.33517
2607.14 100.046 4.74867
2558.78 108.517 5.27833
2390.46 95.1221 4.68056
2364.63 100.531 5.14193
2547.18 109.904 5.6351
2386.77 103.762 5.35667
2166.03 99.5856 5.37546
2300.05 101.277 5.56253
2246.67 108.229 6.00735
2171.04 107.271 6.10884
2096.88 100.435 5.83944
2086.85 99.8781 5.83287
2102.8 101.656 6.01546
1974.8 100.962 6.21545
2001.47 99.6422 6.1176
2067.4 109.296 6.79166
1892.1 97.5908 6.21763
1819.52 99.6896 6.44589
1775.19 99.6264 6.71874
1806.02 104.633 7.02176
1829.05 102.64 6.95576
1827.44 105.133 7.31231
1676.73 101.006 7.1615
1695.74 102.33 7.38826
1670.56 99.6328 7.19854
1566.94 90.8514 6.65793
1612.98 101.029 7.52282
1585.64 100.328 7.70227
1573.73 105.085 8.14523
1395.74 96.3688 7.50281
1426.61 90.6598 7.23171
1485.39 99.2518 8.15053
1315.07 87.6306 7.20505
1428.07 103.986 8.78247
1351.57 98.9272 8.38507
1437.2 100.267 8.64255
1449.99 104.778 9.17509
1335.32 99.726 8.74372
1343.12 97.4249 8.8339
1260.67 95.5556 8.75225
1243.37 93.1161 8.63306
1283.35 102.586 9.72735
1148.63 90.5349 8.70398
1315.45 103.839 10.1517
1117.11 95.4188 9.23284
1108.3 90.0093 8.9979
1182.36 93.0838 9.37594
1052.57 88.1249 9.04579
1151.17 98.2707 10.1215
1119.19 97.1307 10.1852
1095 94.9468 10.0336
1058.01 98.1828 10.6648
1074.81 99.0871 10.7918
1042.88 94.8886 10.5396
981.289 92.8697 10.2882
941.125 89.7906 10.2357
971.673 90.9877 10.4229
943.124 92.4451 10.8476
1018.65 95.9107 11.2771
878.925 84.2582 10.0767
924.494 89.8912 10.952
1002.23 98.3008 12.0335
955.39 97.7454 12.2599
932.651 94.6769 11.8261
905.423 95.3749 11.9879
850.791 91.8401 11.9271
886.57 96.4343 12.3398
765.722 86.5211 11.5878
914.137 98.28 12.894
819.256 89.4026 11.8401
742.864 87.1941 11.9168
773.675 87.7435 12.0619
847.181 99.139 13.8918
792.492 91.1881 12.8126
799.891 95.5456 13.7329
772.909 87.5568 12.5907
745.526 88.1003 12.8389
804.249 99.3031 14.6888
688.468 86.0161 12.8043
706.62 91.2339 13.7738
736.443 86.9699 13.2433
709.003 86.3641 13.2419
719.71 92.4388 14.3002
756.701 98.1485 15.4581
692.909 88.1797 14.0747
688.64 94.5574 15.5459
691.785 94.8639 15.1495
681.229 89.9541 14.8109
633.411 91.9673 15.2837
625.021 86.9319 14.8147
664.751 88.0204 14.8006
563.935 79.2855 13.7144
611.394 86.9057 15.1288
574.507 83.8183 14.4856
601.571 85.164 14.9726
636.67 90.1691 16.113
605.18 86.0709 15.4597
527.147 79.7105 14.5587
607.725 90.7122 16.8023
578.617 85.1572 16.0355
514.354 78.7827 14.7134
613.059 97.147 18.2981
521.586 80.5308 15.4192
600.577 91.804 17.6785
521.331 79.5551 15.5752
539.168 83.4133 16.244
524.81 85.7918 17.0454
488.458 80.7371 16.2236
502.885 78.0717 15.9522
514.91 84.9993 17.3034
492.644 83.1697 17.3534
521.981 86.2012 17.3894
496.602 90.4817 18.8963
450.951 82.304 17.59
482.056 83.5168 18.0531
495.969 86.5787 18.7847
466.806 78.8219 16.8473
474.348 78.4319 17.0868
428.735 76.3662 16.9644
459.962 78.5088 17.625
428.121 85.1959 19.3769
439.408 81.0245 18.6688
453.82 80.6536 18.5375
416.29 81.3928 18.8694
422.461 78.379 18.4422
428.844 79.86 18.6557
435.206 87.7013 21.1365
424.937 82.9696 20.1553
391.339 76.4167 18.6615
420.579 80.8025 19.8035
427.216 85.6273 21.2921
413.24 82.7583 20.3409
390.337 76.4414 19.2047
395.787 81.6157 20.4417
403.667 77.1896 19.9433
399.376 82.9634 21.5922
415.393 85.8067 22.1343
413.297 82.7966 21.455
381.177 82.7307 22.0113
371.439 79.8021 21.3752
370.018 79.2813 21.681
387.588 81.2524 21.461
351.304 75.436 20.6834
344.819 73.9044 20.1455
341.411 72.5475 20.1465
350.705 73.6282 20.9329
384.661 85.3755 23.1659
360.086 81.8514 23.5739
354.779 79.7785 22.9315
372.56 80.829 23.1419
356.279 77.9399 22.4822
329.132 72.5622 21.4335
323.621 78.2245 22.9538
306.657 68.7726 20.608
318.68 74.592 22.0434
336.836 78.6252 23.8668
313.638 79.1473 24.0553
306.487 72.7057 22.2835
328.552 81.636 25.1114
278.863 71.4203 22.5762
302.093 75.4347 23.7944
301.262 75.1937 24.0267
286.799 71.3453 22.316
290.205 72.8381 23.7013
306.532 76.5924 24.4734
312.247 77.846 25.3989
277.938 73.1323 23.9055
305.042 75.055 24.3107
281.624 77.3086 26.1376
279.302 74.9203 25.0398
262.542 70.9127 24.0093
296.564 75.6478 25.1389
262.244 71.0678 24.7665
263.05 69.2638 23.8773
243.063 69.2442 24.2704
258.166 69.3499 24.1994
250.841 68.8067 24.7263
261.076 71.7449 24.844
264.347 73.2978 26.0877
248.156 71.2606 25.7299
256.412 75.8702 27.4594
260.94 71.2885 25.5782
239.662 70.6099 26.8737
247.942 72.3692 26.5578
267.019 75.5272 27.2545
250.752 73.0012 27.9794
245.061 73.3074 27.8239
238.146 71.648 27.3539
244.079 70.2963 26.743
241.255 72.7454 27.2909
232.875 69.4048 27.1594
227.518 65.9815 26.0992
216.72 65.7037 25.506
237.045 71.8937 28.29
218.972 68.6271 27.7549
228.448 69.6319 27.6552
227.399 71.9089 28.7188
211.146 65.952 27.3107
227.101 69.9486 27.9543
227.639 72.8655 29.9619
215.386 68.2323 27.9335
227.462 72.8884 30.1691
219.773 72.4325 30.4255
230.967 72.0255 29.4674
211.445 69.3601 29.7389
216.851 73.6489 31.3845
205.232 68.4014 28.9658
215.391 70.4697 31.3541
189.941 64.5962 27.9575
198.392 66.0041 28.4844
195.646 64.1157 29.0239
187.984 62.2796 27.6191
192.136 69.1804 31.5216
191.303 63.7531 28.0849
178.632 63.27 28.6273
193.639 66.2501 29.1601
199.337 70.237 32.055
183.297 65.6408 30.4778
183.508 65.9091 30.9215
177.785 63.3019 28.9113
166.169 59.6822 27.447
168.211 63.5286 30.2918
182.998 65.2254 31.1095
167.141 63.8411 30.4159
187.599 70.6523 33.9642
175.449 63.9513 30.9233
170.2 61.08 29.2765
170.736 63.3287 31.199
165.704 60.3611 30.0361
169.308 63.4988 31.2369
167.194 62.158 30.5528
165.683 66.2293 32.34
161.511 60.6177 30.7055
180.071 70.9443 36.2158
165.19 59.3822 29.7794
161.008 65.1687 34.0814
162.966 63.0931 33.126
163.65 63.1388 32.4027
151.495 57.9284 29.7294
156.118 64.834 34.4851
169.877 64.6127 33.536
158.161 63.1234 33.2041
148.59 58.5946 30.4886
140.547 60.6985 32.4918
150.187 62.2892 33.2975
154.465 59.5035 31.7984
150.234 56.9588 30.8491
144.904 59.7035 33.2002
157.174 60.1958 32.9832
158.26 68.1574 37.6778
151.29 61.1481 33.9281
161.888 68.3968 38.3518
149.392 63.812 36.0986
142.315 62.7671 35.6909
140.105 58.283 33.4848
137.845 58.3519 33.3915
139.473 60.715 34.2664
138.866 60.4712 35.1954
149.69 61.7459 35.0265
136.649 60.1466 34.9114
127.999 57.2946 34.1356
136.549 56.9725 33.2546
143.18 65.9743 38.503
132.021 59.5589 35.9776
133.259 56.3705 34.2284
138.044 61.0431 36.994
135.16 59.7864 35.9879
128.2 57.4901 35.5054
135.251 59.1967 34.9828
125.377 56.4257 34.4282
122.513 57.1875 34.7955
122.242 59.2434 37.4307
128.019 53.6991 33.686
119.887 55.7244 34.4074
111.187 52.0295 32.972
127.657 61.8506 38.8291
117.763 56.884 36.6412
112.834 51.5218 33.4249
117.276 56.2806 36.3593
121.104 57.3064 36.6323
116.577 54.0862 35.1253
109.922 56.73 38.2027
124.104 60.2616 39.328
119.506 57.7872 37.7256
104.753 52.7795 36.0154
119.913 56.9294 37.8748
117.932 54.458 35.5955
107.692 51.1408 33.6238
116.234 56.8774 38.1745
115.794 58.4461 39.8831
110.236 58.5883 39.7185
102.355 50.1945 34.7256
111.053 55.5043 38.7901
98.8346 49.4228 34.7447
115.418 56.2699 37.4456
108.61 56.6898 40.1644
105.65 56.5864 39.6716
101.964 52.5789 36.8864
101.69 51.0525 36.8267
112.306 59.2512 41.0719
98.0819 53.5449 38.4056
103.159 54.0357 38.9415
106.873 55.0173 39.6323
108.574 56.5938 40.7231
105.412 52.9748 39.5445
102.46 54.4248 39.433
95.3927 51.1691 37.1595
101.189 55.9937 41.9673
106.482 58.3672 43.1021
99.5433 53.7701 40.5705
99.8796 54.0831 41.334
101.401 52.6971 38.3824
90.0384 50.8218 38.2693
93.8016 49.3443 36.6336
101.654 56.248 42.5952
98.5704 53.1981 39.5797
88.093 46.8776 37.3019
90.98 53.4438 41.0878
86.8493 50.2434 39.8076
90.727 53.3051 41.4086
85.2104 45.7377 35.7156
88.8907 50.8448 40.2693
90.0842 51.8037 41.9464
94.1424 55.0867 42.3855
87.6078 49.6994 40.5322
91.5908 52.4394 41.6306
89.9595 47.4055 36.9715
85.7049 50.3095 40.5934
84.9396 51.0119 41.8769
81.4835 49.6421 40.7741
84.7487 49.7804 41.2018
80.8832 47.4436 38.6223
83.3018 49.7565 41.4168
88.9443 51.9256 43.0649
81.849 48.1413 39.8439
88.9166 53.0168 43.6211
83.1501 51.3621 42.5486
82.2578 47.643 39.137
79.4757 51.7349 44.6987
81.199 49.4147 40.6956
79.2191 46.2069 39.3952
79.9592 50.4451 43.6906
78.2966 49.5401 43.8198
80.308 48.436 41.5338
76.9549 45.6898 39.8461
77.1603 47.465 42.1151
79.4074 48.9828 42.3838
75.0884 46.3769 40.3037
75.853 49.747 43.4737
69.2244 44.1088 39.4143
67.6146 44.4744 39.8343
73.5888 46.1482 40.2054
78.8486 48.5451 42.5053
73.706 49.2076 45.7082
77.1564 47.8058 43.5979
70.0818 45.291 40.5353
74.7318 45.7492 41.6255
67.611 43.3546 40.0797
73.4242 47.4835 43.5764
75.6277 46.9382 42.6716
68.5698 46.5726 43.417
68.0509 45.8576 42.5908
69.4078 43.2492 38.8071
66.1578 46.1931 43.3535
68.9315 46.3341 43.6941
68.78 47.5048 45.857
69.3011 45.1466 42.6396
66.858 44.2587 42.505
71.4845 45.6427 43.5571
65.2323 42.748 40.8158
69.7394 44.6811 42.9542
61.5274 42.2487 40.8509
69.3678 48.0876 46.709
67.8337 45.351 43.2524
68.2146 45.1783 44.1194
62.2938 41.5031 40.2913
63.5527 44.0696 43.3763
67.0146 44.7891 45.4743
68.0056 45.2769 43.6416
66.4738 47.6236 47.9748
67.7241 46.2361 48.2789
66.2712 43.5821 43.0285
62.3984 41.9959 40.9541
62.5107 42.8451 42.5292
59.0305 44.4841 45.1587
58.1748 38.9608 40.181
59.8585 41.5219 42.6532
58.6887 41.0134 43.1281
59.7487 41.2095 43.414
64.1287 41.8672 42.7644
58.4683 41.8439 43.1549
59.3055 41.2498 42.4705
53.4254 37.0791 39.5311
60.328 41.1044 42.3547
61.5386 46.1809 48.262
61.1637 46.4734 48.8366
58.912 42.3381 46.0287
61.4694 44.5348 45.6304
55.5818 41.4531 44.5965
56.8374 41.3166 43.819
56.2042 39.9658 44.2751
55.6789 41.4582 45.4067
62.4713 44.8594 47.522
59.3641 40.2416 43.5846
55.0448 39.0798 42.6911
56.7025 41.8069 45.8508
57.761 42.8261 45.5166
54.8547 41.2903 47.0937
56.1888 42.06 46.1589
56.112 41.9384 46.269
53.5482 40.3168 45.2836
53.1537 40.5808 44.3189
54.9596 42.6722 48.9576
53.8533 38.8471 43.8127
56.3741 40.503 45.329
50.7671 38.561 42.668
50.4608 40.6352 45.6784
55.8198 39.893 46.2418
52.4609 38.8976 45.5728
51.3636 37.8574 41.5799
50.0108 35.7201 42.0642
48.6779 41.6897 48.7535
51.7007 38.5649 46.2442
52.0988 42.0939 48.3604
49.5909 36.3484 42.9562
49.0578 39.7435 46.0597
51.0149 38.9899 47.799
48.1382 37.3522 44.3727
49.572 37.5689 43.4271
46.6701 37.5429 44.8979
49.5447 39.1302 45.863
52.1652 40.0452 45.8611
48.0319 40.1111 50.3743
44.1868 33.6515 41.5148
49.4795 36.9596 42.7813
49.9604 40.871 48.9914
48.9854 36.9209 46.0467
44.8724 36.8739 44.9223
45.5488 37.9824 45.3674
44.1648 37.8239 46.9969
44.803 36.122 44.3432
43.6813 36.2225 45.0468
41.3046 32.9056 42.7048
44.2594 38.4718 48.7766
47.2505 36.8655 44.7935
45.1619 37.1055 47.5314
46.0453 37.3818 46.926
47.3165 37.658 46.4595
44.4368 36.7035 46.4874
41.6659 34.1425 44.6335
45.62 38.776 48.5438
42.5887 38.6717 48.8386
44.1462 36.2471 47.5362
44.5283 37.496 48.1261
44.5859 36.4969 44.3898
40.8603 35.9453 47.8959
39.4027 37.042 48.2457
44.6694 35.5118 45.6046
41.7504 34.1502 44.781
40.1412 34.4746 45.0714
41.3181 34.1182 47.2125
42.2071 33.6913 44.394
43.7329 35.0043 46.6444
40.9353 37.8162 50.9155
43.443 38.3325 48.859
40.2229 36.2871 50.5975
43.8965 38.1484 48.6949
38.5543 32.194 44.3769
40.6344 34.2643 45.3716
41.398 35.5964 48.1726
42.31 36.2496 48.145
41.9417 33.6554 44.7409
40.5372 35.581 50.9001
38.2545 32.4964 43.9791
40.0951 36.7009 50.5826
39.6248 32.0969 44.3655
40.3005 37.5324 52.7913
41.4663 33.1 44.496
38.9985 36.7182 51.2645
38.8995 32.9217 47.1238
35.8635 35.244 49.5053
39.2645 34.873 48.1815
40.8292 35.4486 50.0697
39.919 37.3742 51.9317
38.4832 33.8919 48.5698
37.422 35.2086 49.9802
39.3182 35.9037 50.0059
37.9039 32.6985 46.5001
39.4258 37.1731 54.1761
36.9956 31.9271 45.8513
35.86 35.3025 52.7518
40.6281 36.9775 51.6729
37.8374 33.6887 48.373
33.5102 32.2921 48.1081
35.656 31.1077 46.1881
36.2176 34.0272 51.0262
35.1701 31.3663 46.5337
38.479 33.7534 46.8026
34.193 31.9646 49.81
38.0658 32.9565 46.3564
33.2572 30.8226 46.9523
35.9893 33.3241 47.2445
31.925 29.7751 44.9064
35.2749 32.6897 49.2263
35.5431 31.8398 47.3302
33.8749 31.7266 47.1838
34.5086 31.7224 48.7047
34.4899 30.9996 47.6355
35.3472 33.1615 50.509
32.239 31.3785 48.9344
37.1885 34.8131 50.7568
35.3386 34.2897 52.7146
35.1 34.412 51.7255
33.4807 31.5363 49.5723
31.232 32.5936 51.6684
36.8651 33.9838 51.4856
33.913 30.991 47.2013
34.1684 33.5787 52.5136
32.5999 30.0603 46.7535
32.7859 30.8356 49.6201
33.0849 32.6601 50.0903
32.1966 28.8463 47.4908
33.3152 28.3146 45.8202
34.289 31.8304 50.2654
32.6224 31.1291 48.5239
31.7118 30.5254 47.8688
32.8615 31.1548 48.4536
30.7537 30.6673 48.0336
30.7683 29.5033 46.8729
30.7851 30.9781 50.1085
31.6574 30.2729 49.4027
31.803 31.1319 48.1741
31.593 30.5693 50.9077
31.3192 29.0525 49.1375
30.8792 29.9892 47.3012
30.8259 30.0406 46.7784
30.8219 29.9134 50.2005
28.1966 27.7129 46.6726
32.2387 30.1633 47.802
27.8356 27.4686 44.8797
31.4869 32.1606 53.7479
28.7902 29.9845 50.2874
30.9989 31.3428 51.2109
29.128 29.1372 48.6584
30.9935 29.2343 49.0579
28.2359 27.4874 46.0511
29.0683 27.9576 49.3602
31.9389 30.0034 49.3915
29.7146 28.0655 48.9408
28.3885 28.5791 48.0273
29.2689 28.5497 46.6509
29.5741 31.4055 54.3942
29.0554 28.4636 46.1963
28.9533 28.3446 46.6353
28.8346 29.0178 49.1301
25.5722 27.253 50.4066
30.392 27.5716 44.1689
26.3231 25.3965 45.6986
27.4153 27.9277 50.0154
29.3373 28.709 48.6858
28.1669 29.1289 50.4426
26.9691 27.3957 47.3002
25.7459 27.3426 49.8437
28.7084 28.3523 49.0476
28.4779 28.8664 47.8663
26.1513 26.1158 45.9275
27.0183 27.7593 48.1756
25.8495 26.4411 49.0032
24.8771 28.6797 49.9116
27.993 28.8717 52.8564
28.5536 28.5024 50.7633
24.3252 25.7887 47.4659
27.3067 27.9517 48.8762
25.8206 27.0245 47.5208
24.6444 26.9139 49.9414
25.3765 27.9957 48.5336
24.7898 24.927 47.1658
26.1792 28.0731 49.6156
24.6981 27.7645 50.718
24.3385 27.9145 50.8581
27.3541 27.2071 49.2408
24.4569 23.7506 45.3195
25.0659 26.7974 49.8752
27.4168 28.1431 49.6444
25.7238 26.148 46.7408
24.6103 26.4942 49.8925
25.3297 27.467 52.0074
25.1278 25.6535 47.4709
23.7272 24.5889 46.3264
24.8794 26.2847 51.932
26.0014 27.8932 50.7077
25.7318 28.4159 50.6997
25.3325 27.7419 52.889
24.5639 28.0505 52.55
23.3942 25.1244 47.8272
24.7099 25.4486 46.4784
23.633 25.9822 52.4445
27.4036 27.0533 50.2638
24.3167 27.3178 50.1827
23.5333 25.0549 48.7555
24.1742 26.9372 48.4928
23.4312 25.9762 51.4202
22.3829 24.1032 46.8808
25.6641 28.1683 53.1012
23.013 23.5019 47.6456
23.394 22.6913 44.0572
23.9741 25.3574 49.4331
24.4965 26.1332 50.138
23.3791 25.578 47.0656
22.1775 23.4016 48.9413
23.4582 26.0352 50.5378
23.6251 23.7823 45.3264
24.8774 28.562 56.1531
23.5619 23.6663 46.4695
21.5319 24.5686 48.9839
21.8943 24.0332 49.4384
24.6603 28.2259 52.3435
22.4384 22.9257 44.1429
22.2718 24.6334 51.184
22.0685 24.2818 45.8469
21.0247 22.1921 48.184
23.4259 24.895 49.3204
23.4478 25.6092 50.5603
22.3713 23.7479 47.353
21.5281 23.4185 49.6438
21.4431 23.8176 46.4711
21.5318 22.7978 46.0893
19.3161 22.5709 48.9851
22.387 23.4664 46.8542
24.1211 25.7633 53.1527
20.9033 23.8502 47.5263
21.4457 26.0446 53.3523
21.9014 23.5342 47.4974
21.309 24.3803 47.7543
21.1884 24.351 51.1922
21.1798 24.031 50.3826
21.9835 22.9838 45.1566
20.1 22.8406 49.3949
21.2816 24.0675 48.2625
21.3227 23.7264 52.9515
21.1626 23.3502 45.9131
20.4217 23.8322 51.4409
22.0805 23.7205 49.7352
19.6467 21.4642 44.6731
20.7652 25.2286 51.9489
20.3488 20.5395 45.6294
20.3291 21.0783 44.9243
19.1863 22.5595 46.7761
20.7566 22.7577 47.396
19.606 21.4115 47.6576
20.4236 23.2583 47.8066
19.8131 23.8073 50.5236
18.4875 20.271 42.3346
18.8605 23.2207 49.5097
20.463 23.1397 49.4702
20.1787 22.0048 46.8003
18.2008 22.3603 47.2305
18.6178 22.3766 49.4063
18.3641 21.4364 46.7883
19.3378 21.5566 45.8075
19.037 21.9448 48.2431
20.0037 21.7558 47.9101
18.7841 20.8965 46.7095
18.4306 22.443 49.1677
18.2788 21.3786 46.6222
18.977 22.2237 49.0518
19.3634 21.7704 47.1976
19.1624 23.7796 53.3051
19.832 21.3703 46.1984
19.9229 22.2484 50.0091
19.592 21.6912 46.9611
18.5898 22.0376 49.977
18.7491 21.4074 46.6646
18.2058 21.553 49.3117
18.0028 20.0127 43.6363
18.3212 20.9494 48.7727
19.4161 21.5129 47.9672
18.7706 21.0191 48.2898
19.1504 20.1595 42.6648
18.0816 21.9107 49.8295
18.5168 22.5409 49.5581
19.1906 21.0459 51.5603
19.4756 23.2099 51.3486
19.0875 23.1475 49.346
17.8437 20.4414 49.2033
18.6596 20.3273 47.4926
17.6217 20.347 44.5417
17.3834 20.989 48.4232
16.8935 20.7574 46.4484
17.6148 19.2406 45.6157
18.285 23.1379 53.5813
17.3031 21.6977 51.5848
17.3413 20.6815 45.6554
17.3125 19.432 42.8365
17.1999 20.8528 49.9653
18.9328 23.0553 50.5466
17.3444 18.7977 44.6691
17.2085 19.8052 45.2249
16.8044 21.0204 50.7584
17.7829 19.4563 44.1693
16.4201 19.1486 44.9275
17.1858 21.6887 52.3111
18.0499 19.5793 47.0032
17.5824 21.0124 47.3469
16.1117 19.6657 51.0035
17.1485 20.0106 45.905
17.7607 21.2682 51.9698
17.9168 21.4019 50.1559
15.898 20.0153 49.9316
18.2829 20.3972 46.0607
16.4748 18.4634 43.9647
15.8553 18.8894 47.1871
16.9233 20.9694 48.466
15.9596 19.5925 46.5045
16.419 19.3605 46.3828
15.7054 19.8236 48.9093
16.7115 19.4208 46.585
16.084 17.9218 41.1234
15.9767 20.0906 48.5982
17.4253 21.407 51.1249
15.2716 18.7262 45.6558
15.2774 18.8749 45.0508
15.6817 18.2133 47.3633
16.6294 18.7267 46.2536
16.4495 19.655 46.8462
16.302 19.6067 47.4579
16.0474 17.8118 44.6183
16.1036 19.6093 48.9615
15.9902 18.5774 45.2407
15.4751 17.7459 46.0523
15.9203 19.514 49.0429
16.6573 20.0563 47.1119
16.0448 19.7007 47.7389
15.1755 18.0294 47.6378
15.955 21.0827 49.222
