# pn-170911/CsIIA-32-CsIIA-1280-1959.psd
# Power spectrum* (dif=0,1,2) (really just |FT|^2)
# NOTE: only the first half! (symmetric)
# weeks: 1280-1959
# 951 clock-days, 382 excluded
# PSD: 1441
305370 8.65387 0.0465955
1.10986e+07 84.2514 0.0364138
9.34589e+07 2077.5 0.0767707
4.98792e+06 159 0.0455314
1.34836e+07 993.605 0.110059
1.79678e+06 163 0.0557006
1.32872e+06 170.275 0.0634109
894807 154.773 0.0709076
724084 167.963 0.0867091
531991 154.227 0.095607
475565 162.652 0.112264
365873 159.894 0.127498
314336 161.768 0.143986
255742 152.72 0.158993
222819 157.832 0.182423
197381 157.341 0.203555
169134 152.531 0.220158
149757 150.76 0.242169
139746 160.036 0.275908
128137 162.275 0.31715
115037 162.354 0.34502
99399.8 156.905 0.357601
94288 154.416 0.38996
88175.7 162.589 0.450191
78006.3 158.257 0.453653
67715.7 152.895 0.488254
68979.7 162.755 0.552022
65182 168.104 0.614617
56914.1 153.207 0.600819
54987.5 171.053 0.734866
50216.5 160.302 0.709221
49571.2 171.372 0.819092
47440.3 174.342 0.873231
43648.5 168.361 0.912764
41669.4 173.201 0.983854
38223.4 167.543 1.02714
35629.6 165.993 1.06429
34407.3 165.909 1.10592
31002.5 156.381 1.09764
29644.9 154.52 1.13298
30558.5 168.126 1.31241
28177.2 172.148 1.40084
25459.9 159.347 1.36149
25191.1 169.651 1.52452
24285.4 170.046 1.6058
22511 159.424 1.58385
21056 164.13 1.69237
20714 166.04 1.77339
20813.5 171.779 1.91855
19691.5 167.742 1.95383
18673.7 169.678 2.06394
17627.4 162.802 2.04164
17214.1 160.947 2.0983
16602.9 169.58 2.24846
16547.6 174.576 2.44013
15790.7 165.213 2.38224
14218.6 161.376 2.39883
14088.6 161.975 2.52707
14198.8 169.165 2.71506
12963.7 158.94 2.65735
12799.4 161.626 2.8225
11649.1 153.357 2.70836
11696.2 160.421 2.97223
11366.4 167.69 3.17357
11040.4 158.34 3.12037
10424.3 157.867 3.19077
10983.4 167.81 3.47389
9647.32 149.352 3.19459
9678.01 156.974 3.46943
9476.94 159.093 3.62136
8828.73 158.13 3.69629
8602.77 148.824 3.62693
8486.45 155.355 3.82825
8500.01 159.083 4.00757
8356.39 163.588 4.24268
7757.37 150.539 4.06197
7894.35 158.339 4.36186
6891.79 144.153 4.08824
7442.65 160.888 4.64957
7166.16 152.831 4.52329
6884.35 146.755 4.43124
6225.73 141.389 4.41878
6608.79 153.716 4.92189
6270.98 145.857 4.74724
6421.99 148.507 4.99585
5480.33 142.309 4.89464
5724.56 146.61 5.10533
5273.26 136.146 4.86421
5655.35 148.458 5.4699
5279.51 143.208 5.33036
4784.85 128.517 4.92715
4578.41 129.535 5.1128
5032.65 141.084 5.65793
4705.5 131.817 5.41177
4531.89 128.365 5.37248
4601.47 143.264 6.16906
4375.52 140.275 6.12647
4327.93 137.288 6.11083
4250.76 136.115 6.24862
4162.68 139.233 6.43927
4210.63 140.531 6.69871
3891.89 131.835 6.3473
3928.49 134.761 6.66938
3721.45 126.039 6.35933
3569.32 126.002 6.51063
3520.15 124.007 6.43092
3233.51 120.797 6.45276
3459.22 130.765 7.09126
3048.96 116.63 6.40671
3149.36 125.238 7.0733
3288.22 131.642 7.59702
3050.07 121.567 7.11758
3016.07 123.446 7.28683
2922.09 115.661 6.98877
2949.6 121.565 7.42683
2796.16 118.275 7.45743
2600.34 110.215 7.03814
2603.1 114.464 7.41702
2547.04 112.049 7.40369
2369.04 107.274 7.18992
2509.74 118.197 8.07058
2392.18 110.611 7.6759
2358.7 110.485 7.75606
2336.49 110.561 7.87777
2400.75 116.375 8.48482
2354.65 114.719 8.46029
2193.76 110.25 8.31162
2265.85 112.3 8.62684
2181.63 114.33 8.916
2090.93 106.269 8.34837
2060.79 107.565 8.55894
2194.48 112.544 9.17853
2061.38 108.897 8.95446
1967.76 107.234 8.93105
1861 107.059 9.09886
1740.61 103.648 8.93248
1872.04 107.268 9.36939
1889.83 111.32 9.84253
1757.85 100.909 9.09389
1674.87 100.17 9.14857
1815.2 104.607 9.68464
1664.91 99.4829 9.28285
1707.31 101.823 9.68614
1617.39 100.935 9.70321
1612.63 111.311 10.7916
1494.74 98.6949 9.89753
1521.25 97.7527 9.8127
1573.55 101.119 10.2241
1435.13 95.1966 9.89038
1480.64 96.544 10.0803
1360.85 89.616 9.46624
1416.25 95.5368 10.2489
1334.28 93.1615 10.1695
1353.56 90.7053 10.0435
1339.3 92.922 10.3804
1254.98 90.7459 10.3407
1323.61 96.8672 11.1078
1262 85.419 10.0106
1250.13 90.7124 10.693
1276.91 92.8833 11.0105
1264.97 94.9326 11.3886
1272.5 94.4906 11.506
1221.83 90.1452 11.1523
1179.59 87.945 11.0316
1109.06 87.6875 11.0643
1134.7 91.9018 11.8323
1075.29 83.3185 10.84
1073.28 82.1029 10.7543
1078.65 86.2814 11.4335
1025.07 83.8677 11.2454
1051.44 84.2615 11.3581
1024.86 85.0113 11.7139
974.826 80.5476 11.396
997.063 83.9647 11.7581
952.077 80.4069 11.4625
978.745 82.9323 11.8204
962.729 82.2194 11.9871
976.93 86.8182 12.7641
931.982 81.1845 12.0752
927.828 78.9639 11.8383
920.368 80.0998 12.2006
847.49 76.9231 11.7828
889.134 84.2757 13.1232
864.562 80.8764 12.6589
852.453 78.8821 12.565
832.289 77.5735 12.4893
847.512 83.586 13.5299
814.003 77.5356 12.7603
838.564 79.3676 13.0863
822.946 82.0003 13.6937
803.661 75.1895 12.6755
796.01 80.3757 13.9801
802.671 77.6346 13.4363
734.997 73.9266 12.8691
755.738 76.2775 13.5162
759.958 75.4104 13.343
771.845 76.1971 13.7305
709.001 74.7348 13.6512
690.456 72.2148 13.3223
731.295 73.6049 13.5984
659.921 70.9974 13.2518
701.739 73.018 13.9126
676.023 70.2626 13.3845
651.7 66.3133 12.7855
662.289 70.8242 13.8149
634.833 73.1787 14.4015
645.347 72.7038 14.4054
606.558 65.7317 13.2041
627.746 67.249 13.5414
645.812 74.8807 15.3358
599.992 71.4323 14.7301
644.428 72.3613 15.0146
575.264 66.459 13.9946
608.816 71.4655 15.1852
571.765 70.4695 15.085
582.618 68.5159 14.6639
552.454 64.7003 14.2837
579.934 67.1792 14.7377
568.112 67.4921 15.0637
556.65 67.1492 14.9026
573.114 69.5847 15.7122
533.797 65.5912 15.0612
544.606 66.8932 15.4125
561.884 68.942 16.0285
546.267 62.6883 14.677
511.523 64.0834 15.1577
524.666 66.6398 15.9252
515.617 67.5006 16.2261
506.189 62.4966 15.1945
484.266 64.0703 15.407
481.757 63.883 15.9614
486.311 62.9913 15.5988
483.173 63.0533 15.9775
483.22 63.1738 15.8534
469.694 62.3772 15.9429
463.474 60.8493 15.42
482.517 64.0617 16.555
443.424 61.5122 16.1135
464.034 61.4922 16.1121
444.2 60.9606 16.3632
441.221 62.6982 16.9743
443.371 60.7874 16.0646
415.791 60.0319 16.3763
435.921 60.0728 16.5858
404.015 60.5755 16.7446
432.838 61.0996 16.9062
399.686 60.5423 17.1683
413.784 57.7512 16.4527
398.31 61.4142 17.4652
377.041 56.293 16.3175
381.553 55.1317 16.0165
409.57 60.3879 17.6693
390.384 57.4822 16.7893
390.933 59.7558 17.7527
392.435 57.0783 17.0417
361.959 53.1963 16.0915
367.279 55.7782 16.9632
388.047 55.6398 17.0546
370.812 57.6124 17.7789
382.959 58.7312 18.4882
372.059 59.0039 18.4739
361.525 57.9731 18.3231
352.589 55.2007 17.5943
344.889 56.2511 18.217
356.533 54.0758 17.3211
345.208 56.5131 18.4287
341.71 54.648 17.7381
343.805 52.9739 17.4971
342.284 57.2364 19.0766
335.866 54.2269 18.0264
323.029 53.6921 18.0288
321.919 55.1978 18.9263
322.509 54.0548 18.1449
335.279 54.6769 18.8912
309.712 52.6144 18.4882
312.769 54.3833 18.8634
302.086 51.5514 18.1994
319.103 54.4986 19.2365
322.144 52.8853 18.9643
297.535 50.4306 18.2242
299.78 53.1708 19.3441
300.849 54.3377 19.6546
304.753 53.9153 19.7416
295.343 51.8256 19.0287
294.619 54.0881 20.0198
289.365 52.3568 19.8503
290.294 50.2223 19.0289
293.716 49.8642 18.8987
287.398 51.3428 19.6808
283.32 53.6088 20.2575
279.757 52.0221 20.4214
272.476 55.2596 21.2827
284.013 50.375 19.8717
259.569 50.5594 20.2492
265.336 50.3087 19.8129
267.273 50.2471 19.9888
279.168 52.2811 21.2456
261.93 48.8177 19.6851
266.363 49.9787 20.3449
264.644 48.3027 19.6794
257.181 51.381 21.4933
254.058 48.8101 19.9547
247.099 46.3843 19.6205
251.915 49.5022 20.7539
240.531 46.7895 19.6472
249.175 44.0894 18.7972
238.324 49.8831 21.1932
245.498 45.6846 19.8922
241.534 51.2606 22.3984
250.114 49.309 21.5125
237.008 47.2834 20.8277
236.462 46.5455 20.6714
226.116 46.3375 20.6713
232.206 46.5872 21.0517
225.316 47.4961 21.7155
234.057 47.8441 21.3196
227.759 47.1827 21.0628
221.264 44.0894 20.5094
228.672 48.3449 22.5131
215.338 45.3399 20.8852
214.806 43.7722 20.644
218.066 45.7042 21.4993
211.421 46.6693 21.851
226.626 47.3082 22.1806
216.312 45.0646 21.8834
211.268 44.7768 21.9026
215.246 47.1608 22.5299
207.267 44.5739 21.9685
209.759 44.9432 22.1713
209.02 44.5471 22.0808
204.708 44.8495 21.9742
189.27 44.1682 22.3038
201.385 44.8769 22.3984
193.968 43.7214 22.0042
198.32 42.7505 22.163
201.772 45.0207 22.8642
194.416 42.6812 21.9844
202.072 45.2294 23.3319
194.09 43.5845 22.3755
196.622 45.6109 23.6607
181.909 40.1385 21.2193
194.882 42.2437 22.5272
177.167 40.8744 21.6442
185.495 43.8538 23.1062
175.525 41.7765 22.5113
177.524 41.4181 22.4739
184.707 41.708 22.7012
178.612 41.3761 22.6668
185.503 41.7 22.9177
179.329 42.6551 23.4779
180.972 42.0247 22.6192
182.088 42.2621 23.9022
175.408 39.8381 22.5023
173.155 42.8081 24.2627
181.68 41.1335 23.6812
170.06 39.8177 22.3033
172.092 40.4117 23.0373
174.965 42.3154 24.2215
165.774 41.0713 24.3189
165.288 39.0957 22.7375
173.966 41.1907 24.0035
152.388 37.6752 22.4527
170.954 41.9316 24.4649
160.466 39.8544 24.282
161.062 39.2542 23.3449
154.532 37.7658 22.4342
158.285 39.9207 23.9844
163.124 39.251 24.073
150.992 38.8803 23.7499
155.972 38.9427 23.6302
152.486 38.6599 24.0156
154.431 38.8581 23.9347
153.336 39.2905 24.4399
152.898 38.4977 23.4608
154.052 37.9942 24.4394
156.54 38.6134 24.1213
150.142 37.7229 23.7347
152.677 39.3794 25.6632
144.689 36.4121 23.64
143.502 36.4369 23.6679
144.886 38.5044 24.7148
140.584 37.4581 24.7545
139.742 35.958 23.6427
149.865 38.4759 24.7234
141.592 39.0641 26.5926
135.351 35.5231 23.6878
136.036 35.3106 23.6459
145.956 39.9983 26.0602
136.058 36.6301 25.1404
137.473 38.1354 25.6534
139.69 37.4123 25.4022
137.225 35.9227 24.7493
144.229 38.0306 26.7349
137.635 37.938 25.8474
135.205 36.0546 24.6636
127.491 38.5732 26.9763
133.086 38.2278 27.309
126.755 36.0802 25.4308
131.133 35.7593 24.827
126.367 35.4443 25.1086
122.396 34.1622 24.6121
131.307 35.3148 24.9523
126.667 34.3878 24.8529
126.359 33.5842 24.4514
127.112 36.5062 26.5375
128.208 34.9309 25.5138
125.104 34.1769 25.0934
119.798 33.2308 24.9754
123.718 34.627 25.8683
128.543 34.6815 25.5116
121.094 34.8245 26.3011
125.636 35.4708 26.2174
122.829 34.8526 26.3624
121.605 33.7806 25.5717
119.627 33.5309 25.3616
122.391 35.8453 27.677
114.473 35.3598 26.8878
118.59 35.4129 26.9679
118.138 34.8091 26.6711
114.741 34.5869 27.135
121.476 33.7007 26.4702
114.615 34.3496 27.0115
120.088 35.8405 28.5214
114.815 33.9066 26.8475
112.353 33.4749 26.1765
109.25 32.7973 26.4063
112.814 31.6771 25.5626
110.755 33.8982 26.9807
110.872 32.99 27.0836
109.153 33.7752 27.401
108.758 32.8489 26.8528
111.147 30.9779 25.2254
106.59 33.9566 27.6227
108.642 33.7362 28.0498
106.007 33.0086 27.5226
110.651 32.2246 27.1534
109.552 31.9594 26.6914
99.3761 31.6355 26.2216
102.148 30.2842 25.6828
104.464 32.0873 27.565
101.371 32.326 27.5867
104.854 33.0265 28.0472
105.504 32.5911 27.8068
103.767 31.1195 27.0567
97.5203 31.7112 28.1682
101.203 32.501 28.22
97.5571 30.9217 26.8971
105.305 30.9695 26.6328
95.8091 31.1121 27.1273
96.5443 29.9783 27.3285
95.3543 32.5608 28.5766
99.7354 30.9943 27.2589
97.5686 31.386 28.2293
99.8124 30.9365 27.4662
92.0161 27.7486 25.3892
92.3497 30.3905 28.25
91.7528 28.733 25.7735
95.6493 32.4075 29.8221
97.6508 29.8178 27.5073
95.4876 30.0095 26.8965
90.7273 29.3786 27.6373
92.532 31.3048 29.1926
88.9255 29.7214 27.3246
90.9281 31.1392 29.7041
96.6406 31.7981 29.8684
91.6698 29.4794 27.7195
89.335 28.7244 27.2695
89.7073 31.7971 30.4308
91.5901 28.2252 26.8965
88.1913 29.1919 27.5279
89.1825 29.5164 28.7793
87.9289 30.2601 29.0434
85.7045 29.6109 29.1316
88.0269 30.0072 28.5658
84.4961 29.0846 28.5919
87.1497 29.3716 28.1096
85.9938 29.0384 29.0101
86.848 29.7477 29.3167
84.8825 28.6121 28.3219
83.2335 29.0289 29.4336
88.1382 31.3017 30.5262
82.4308 28.4601 28.5611
86.7113 29.4008 30.0933
83.693 28.3475 28.4762
82.518 29.8158 29.5578
82.4484 28.0195 27.9538
79.1204 27.4749 27.9718
81.642 28.4237 29.1049
79.4597 27.1812 27.7305
81.2299 26.4284 27.9997
82.594 29.0971 30.0371
83.354 27.4437 28.8322
78.5318 26.3975 27.6786
78.1559 28.7027 29.89
79.3863 28.5772 29.6172
76.1691 27.612 29.542
78.6459 26.2558 28.1215
79.6696 27.454 29.0595
76.7762 27.8889 29.7675
75.0449 27.8182 30.0298
76.3585 26.9225 29.0016
75.7421 27.5218 29.5927
75.6363 28.8178 30.8292
78.9872 25.8729 28.5298
76.3713 26.6587 27.9417
73.8374 27.3405 30.0498
74.562 27.0091 29.5408
74.468 27.5929 31.0309
72.206 25.8496 28.1687
75.5891 25.9266 29.3036
75.7606 28.364 32.0909
77.8286 27.014 29.8528
74.1039 26.3595 29.8443
76.1089 27.8458 30.6325
72.8046 27.1881 30.1978
72.0111 26.9536 30.3766
71.9715 27.7306 32.0604
70.2635 26.3665 30.6151
74.0074 26.5212 30.2882
70.1005 24.2975 27.4816
69.3033 26.4105 30.4726
67.9297 25.5135 29.9884
72.5663 26.493 31.1911
69.234 25.9745 29.8402
67.8199 23.9492 28.2349
66.7871 24.2178 28.6215
67.21 25.1302 30.0214
68.4401 25.727 30.033
69.2732 24.2486 28.2436
68.2757 25.1345 30.0068
67.9407 25.098 29.365
65.8061 24.9911 30.0074
71.1633 25.7287 30.7539
64.217 24.3077 29.6025
66.3624 23.175 27.6271
65.6837 24.5391 29.1759
65.8119 25.9644 32.8571
66.7401 26.8737 32.1171
65.2244 24.9967 30.3874
63.3117 24.1558 30.2096
63.7082 25.0224 30.6098
65.9899 25.8094 31.861
63.946 24.1068 30.1494
62.3824 25.1309 31.5361
63.3118 25.4322 31.6483
65.438 25.4805 32.1612
64.4742 24.3307 30.2496
63.9053 25.1173 31.368
60.4903 23.9718 30.5702
59.6148 24.1236 30.969
62.3626 25.054 31.7832
61.4193 23.757 31.1314
61.7102 23.1567 30.4883
60.0213 23.8054 29.7287
59.0735 24.0587 31.0707
60.3503 23.5056 30.495
60.3346 23.8274 30.3393
62.8182 23.429 30.1048
61.6866 23.5922 31.0267
60.4179 23.9979 31.8186
60.8598 21.9114 29.2301
58.106 19.9518 26.4392
58.3435 23.1234 30.4963
61.7748 24.2615 31.6035
60.3585 24.0988 32.4423
58.8302 22.2747 31.2337
62.1213 24.4292 32.0166
58.1546 23.296 31.2013
57.3057 20.7929 27.6562
59.1849 22.3665 30.1662
59.817 23.9942 31.99
58.1967 22.0746 29.1216
56.7842 23.3727 32.7179
57.9243 22.8784 31.5288
56.0329 23.9577 33.4582
60.8758 23.1265 31.2376
56.1815 22.0308 31.6987
55.0095 21.7746 29.5764
56.9869 22.8006 32.5575
57.6488 24.5398 33.1521
55.9144 24.0379 32.9262
55.6747 22.0323 32.3798
57.3872 24.0994 33.556
56.3722 22.9907 31.512
58.8921 22.1361 31.8605
54.0623 22.0965 31.7043
56.2388 22.562 31.646
55.4268 21.9154 31.3127
56.6404 23.0493 32.5404
52.8086 20.8796 30.4442
51.9527 21.1965 30.2138
52.2562 23.2588 33.7841
56.4074 22.6534 32.2183
53.9071 23.193 33.3795
54.4924 21.4325 31.5844
53.9962 21.7869 31.8157
54.2748 21.5704 31.7965
51.5062 20.9542 31.3317
54.4855 22.1477 33.3404
55.5164 23.2329 33.0957
52.6362 21.5152 32.9834
55.7039 21.5587 30.0756
51.4928 20.2224 30.5894
53.2347 21.0076 31.9715
53.6755 21.3811 31.5158
51.7616 20.5257 31.7443
52.2676 21.9792 32.6806
51.2233 20.5245 31.198
50.5689 20.7965 31.646
49.3525 20.863 31.0106
51.5939 21.5537 32.0151
50.6751 21.4358 33.6533
48.3501 21.2502 32.4348
50.0923 20.6037 30.8934
49.1541 19.4771 30.7845
50.5368 19.7766 30.4799
48.2081 19.5887 29.7165
50.8035 22.1399 34.6127
48.8905 21.5611 33.5709
51.2879 20.1965 31.1062
48.4273 19.6793 31.057
48.6915 20.0096 31.4037
49.5971 20.9548 33.7328
48.6349 19.8033 31.6694
48.8684 20.2313 31.1605
48.0275 19.1053 30.2146
46.9246 20.2579 33.4713
48.7977 18.8707 29.771
47.2825 19.0128 30.4871
47.5179 21.491 34.8521
48.9937 20.1699 31.0493
46.3991 18.4162 30.1514
46.5045 21.2742 34.4045
48.1632 18.9159 31.2113
47.0768 19.6056 31.0225
47.2511 21.2036 34.3471
45.8322 17.963 29.6436
45.9926 19.3012 31.5789
47.015 19.3706 31.4988
45.9353 18.7607 31.7646
46.1792 19.3735 31.6349
46.4748 19.0198 31.2913
47.2581 18.9856 31.9638
46.1541 19.9487 32.7684
44.0876 18.6668 31.6701
44.686 18.6383 30.9918
46.1056 21.3111 34.7007
45.3168 18.2335 31.2381
46.5653 18.64 31.302
44.5694 18.1824 31.1656
43.8226 18.342 30.9322
43.6075 18.0527 31.0159
46.3599 19.3729 33.3146
46.9359 19.0295 31.7452
45.1375 19.0125 32.8462
45.0797 18.5437 31.4262
44.2505 19.1392 32.3156
43.5174 18.619 32.1539
42.3643 18.9918 33.6438
44.5009 18.5355 33.1854
43.8233 20.1102 34.1069
42.1535 18.4979 33.1505
42.9323 17.4289 30.7619
42.9901 19.6643 33.8301
43.7379 18.2748 31.2114
42.4987 18.2779 31.7391
44.6031 21.3636 37.6408
42.5264 17.9138 32.2235
41.7853 18.7854 33.2016
41.1635 18.3299 32.0798
42.5412 17.9405 32.2961
40.0388 18.8766 35.202
42.4191 19.7666 35.1036
40.3501 18.2156 32.057
41.432 17.4169 31.6018
41.9785 18.7684 32.9361
41.6414 18.4742 34.0381
41.5272 18.2092 32.6588
40.7407 18.107 32.9053
41.4941 17.2338 31.9184
41.7407 17.1739 31.1499
39.5826 16.6714 30.3094
39.8771 17.1077 31.6263
41.1076 17.948 32.8663
40.1204 17.1437 31.7116
41.5905 18.0386 34.5663
41.5519 18.6501 32.9904
41.1207 17.7577 32.9188
38.7187 17.7985 33.0119
39.0466 17.4414 33.1999
39.3962 17.6305 32.9711
39.4025 16.8742 31.8624
40.1683 17.542 32.6115
37.5105 16.1371 31.8841
40.6011 18.1954 33.1201
40.8502 16.8391 31.7221
38.6815 17.0201 31.513
39.4707 16.8021 31.7775
38.7487 17.8791 33.6292
37.6411 17.8906 34.6307
38.4106 16.4369 31.0317
38.8499 16.5251 30.7926
37.2066 16.1974 31.6939
36.744 16.9567 34.8718
38.4324 18.4306 34.1139
38.9963 16.3698 31.0548
39.1502 17.5237 34.0989
37.7419 17.5385 33.5689
36.7481 16.6215 32.0646
38.1392 16.3839 32.7555
37.2357 16.4343 32.5146
37.6938 15.9851 32.109
38.5247 17.4041 33.9697
38.2456 16.4579 32.1861
35.8597 16.6042 31.9187
36.9189 15.3572 30.8857
37.1792 16.0413 31.3019
38.0007 17.175 34.3669
37.9937 16.0475 32.4721
37.1707 16.5262 32.2991
37.8927 15.9254 32.0118
35.7962 15.5201 30.7205
37.4473 16.4408 32.2821
35.9868 16.218 32.6378
35.3337 15.6632 31.8753
35.969 15.4566 31.6687
35.2558 15.8152 32.6276
36.7357 17.2489 34.7468
35.8563 16.1519 31.7107
36.0626 16.2374 34.3854
35.9942 16.0733 33.5649
35.8659 15.8344 31.5703
34.9789 16.4681 32.52
35.3808 16.4686 34.4992
35.1197 16.9316 33.7722
35.5915 15.2776 31.6652
34.8016 16.0884 33.0504
35.3005 16.0489 32.6547
35.3323 15.8646 33.8159
35.3079 16.6153 34.3383
34.7285 15.0668 32.1457
35.7781 15.972 33.2236
35.1673 15.97 33.7395
34.731 15.0749 31.1623
32.9373 15.6316 33.1059
34.9838 15.8042 32.2881
33.4505 14.6972 32.4168
35.0288 15.3756 32.4687
34.3403 15.0378 31.6198
34.0154 15.7099 33.3262
35.1637 15.9893 33.1164
32.1524 15.0952 32.9567
33.8877 15.8521 32.7594
33.377 15.4335 32.7722
34.135 15.7842 33.5338
33.9546 15.0069 31.7709
33.1465 15.1326 33.6239
33.4452 14.7817 32.5811
33.3363 14.4859 32.5482
33.5011 14.4779 30.535
33.6447 15.0694 33.7974
34.7118 15.6977 33.3554
33.7454 15.4928 33.4302
33.4691 15.1166 31.3312
31.461 14.262 32.8397
33.1176 15.2335 32.8774
32.9962 14.754 31.4502
32.1617 14.5196 33.0089
32.21 14.1485 32.1217
32.0342 14.3585 31.842
32.3202 13.5196 30.2091
31.9887 14.6841 32.5459
32.8253 14.328 30.8997
32.3064 14.6594 34.0676
32.3562 14.1132 31.2679
31.9978 14.2312 31.6922
31.8812 15.0686 33.3794
33.0508 15.311 35.7407
32.4733 14.3366 31.4104
31.5773 14.7044 32.4905
30.1953 13.6933 31.421
31.5006 14.5598 33.3007
30.6915 14.3447 32.3061
30.9902 13.2947 29.9063
31.2281 14.3835 33.1215
31.5856 14.7639 32.9704
29.9872 13.7436 32.2364
31.5692 15.1041 34.1776
31.5113 14.2603 32.744
31.2575 15.3333 35.1098
31.7065 13.8974 31.7247
30.6695 15.2399 36.3481
31.6866 14.4416 32.7419
30.303 14.4621 33.7489
30.1871 14.241 32.2239
29.8334 12.9947 31.6632
31.7199 14.0643 32.4641
29.2676 13.8946 31.9086
31.098 14.3326 32.5873
29.5486 13.8887 33.6018
30.6106 13.3311 31.4627
29.7785 13.4894 31.7622
30.3667 13.818 31.8278
29.5201 14.2504 33.2637
28.7585 13.3504 32.2905
29.5659 13.7561 32.6515
30.325 13.4002 31.0316
29.4148 14.5207 34.6475
30.7283 14.057 34.1362
30.5671 14.8332 34.4612
30.1911 13.2883 32.259
29.4034 13.6219 31.764
29.1931 14.4048 35.5076
30.5349 12.8796 31.0497
29.5152 13.2724 32.1829
30.4978 14.2244 34.1601
30.4131 13.3018 31.51
28.8405 12.9664 32.0456
29.1782 13.1588 30.9075
29.4845 13.9353 32.8785
27.7448 13.6896 35.2046
29.179 13.8391 32.5627
28.88 13.938 34.1456
28.8617 13.1432 31.6971
28.6146 13.3006 31.6818
28.8174 13.5023 31.6621
28.1202 13.2019 33.7794
28.991 13.2351 33.5137
28.7365 13.3066 31.1598
27.3906 13.0099 32.2352
28.3428 13.1901 33.1121
28.322 13.3152 33.8276
28.2511 13.9827 32.3604
