# pn-170911/CsIIA-31-CsIIA-1280-1959.psd
# Power spectrum* (dif=0,1,2) (really just |FT|^2)
# NOTE: only the first half! (symmetric)
# weeks: 1280-1959
# 50 clock-days, 43 excluded
# PSD: 1441
154890 5.04519 0.0610993
6.82636e+06 148.495 0.0813434
3.33528e+07 604.206 0.101641
7.28079e+06 222.663 0.0760788
1.40626e+07 1036.67 0.155097
2.88514e+06 245.324 0.117029
1.82174e+06 281.035 0.116922
1.26902e+06 226.052 0.12857
1.0537e+06 256.554 0.164883
645134 228.128 0.144876
709507 290.495 0.244684
480720 241.642 0.25123
432403 278.428 0.281649
453962 277.545 0.288303
313932 234.421 0.336961
340867 281.86 0.39522
262094 267.995 0.416171
271231 264.015 0.452777
146579 210.134 0.397122
243872 322.481 0.651301
140934 216.388 0.461831
219931 387.459 0.860668
107446 214.524 0.58859
134918 295.023 0.805701
159513 337.588 0.92288
117078 300.909 0.977215
74396.4 188.426 0.608586
101918 286.299 1.08594
76551.9 229.155 0.917739
85164.1 278.135 1.22446
87833.6 315.222 1.41554
55150 238.499 1.16253
89662.1 367.646 1.91698
61844.2 258.043 1.40307
56792.3 208.608 1.23266
49710.7 213.777 1.39206
48737.3 258.742 1.76641
57976 247.352 1.70119
44449.8 243.219 1.76346
39844.5 247.669 1.81122
41780.4 233.697 1.72476
33158.9 244.437 1.98979
31948.8 206.701 1.76175
43480 311.968 2.70365
27915.6 233.733 2.20363
40836.5 302.651 3.19841
42458.6 379.431 3.88564
28219.6 250.921 2.68054
32303.3 284.762 3.27298
23383.1 175.599 2.01202
26817 253.852 3.05152
21258.3 221.313 2.6495
29593.4 312.939 3.9996
18647.5 182.657 2.68261
19238.3 250.819 3.64312
16928.6 206.766 3.12905
20940.7 240.866 3.68832
19692.1 267.678 4.24905
21427.5 297.544 4.67658
16771.4 204.969 3.49288
18023 248.336 4.21174
15084.2 201.269 3.68673
16974.3 228.702 4.07698
17073.4 255.734 4.87066
14958.1 216.511 4.14024
11091.1 169.195 3.48185
14724.5 230.932 4.90751
16866.2 289.262 6.29252
17407.5 312.491 6.71769
11853.8 229.961 5.09554
12527.5 234.028 5.44126
10343.1 208.057 5.10625
11579 225.145 5.47065
9815.24 222.499 5.65183
11812.1 258.908 6.70308
11151.9 238.187 6.11746
10573.9 216.982 6.22709
10943.9 215.613 6.2503
8733.23 210.966 6.01153
9154.74 230.648 6.87399
11877.9 281.892 8.65297
8344.44 205.98 6.48652
7793.02 174.555 5.25851
7572.42 164.977 5.3045
7256.04 221.654 7.48317
7528.99 232.82 8.07503
6630.52 158.419 5.38888
8849.04 213.924 7.66339
5928.73 174.413 6.63923
7335.97 189.582 7.07327
8137.11 238.962 8.9591
6133.73 183.793 7.23991
5379.59 158.142 6.30345
6948.43 185.87 7.71394
5289.84 173.173 7.04782
5372.2 169.315 7.17663
5660.93 182.796 8.0082
7191.67 235.55 10.4782
6546.01 226.598 10.4589
5574.31 205.101 9.69079
4409.79 164.027 7.70274
5017.22 170.782 8.46937
5134.93 204.792 9.85132
5392.12 181.533 9.71993
4733.53 165.32 8.716
4917.65 211.796 11.3446
5725.61 224.135 11.6492
4939 212.8 11.2916
3554.63 158.258 8.81359
4453.7 181.11 10.9299
4317.01 205.769 11.3272
4827.11 208.339 12.1989
3897.52 183.969 11.0588
3954.82 179.965 11.3557
3820.23 162.959 9.71902
4470.6 207.55 13.2474
4234.27 184.072 11.6212
3118.69 157.846 10.1188
3211.17 161.678 10.7467
3178.67 159.673 10.6076
2476.08 143.05 9.79938
3217.76 178.972 12.2765
2583.08 138.095 9.81992
2640.28 154.21 11.3195
3077.47 182.117 13.4964
4225.87 223.495 16.7306
3119.18 164.757 11.751
2605.08 156.357 11.9647
3681.53 198.055 15.8401
2462.19 175.48 13.2547
2660.88 161.715 12.7497
2997.89 148.693 12.1291
2845.02 174.25 14.4773
2117.02 139.243 11.5241
2907.01 191.136 16.0997
2676.89 191.395 16.6244
2824.58 160.877 14.0227
2360.41 145.103 12.6033
1739.74 126.281 11.1621
2453.78 169.58 15.9607
3024.48 201.199 18.4955
2252.39 145.344 14.0871
2264.72 152.505 14.0944
2150.27 158.541 15.6009
2225.32 166.184 15.6537
2726.87 205.951 20.1991
1604 146.123 14.864
1751.65 158.498 16.7282
1852.26 108.365 11.1024
2003.94 140.201 14.7303
2045.04 161.455 17.0246
2013.65 125.334 13.7542
2319.12 174.917 18.5686
2215.06 178.512 19.6684
1944.61 133.607 13.9844
1386.71 115.594 13.1833
1764.9 119.929 13.8703
1887.31 152.902 17.6087
1619.1 122.394 14.3918
1698.83 143.802 17.541
1774.65 140.677 16.6807
1643.11 144.405 17.8444
1679.43 143.977 18.2686
1281.73 120.038 14.9428
2008.13 149.963 18.3736
1349.63 115.473 14.8252
1583.24 154.077 19.8323
1370.11 109.941 14.8006
1975.17 165.969 21.3802
1496.12 151.331 21.4628
1607.92 136.991 18.3304
1247.86 155.222 21.6036
1441.05 137.142 18.6291
1193.16 142.137 19.7468
1443.19 159.574 22.9505
1262.99 122.332 17.0577
1132.71 120.963 18.0574
1381.25 139.873 20.0228
957.123 112.349 17.2616
896.847 105.958 14.7977
1265.41 134.723 21.6472
1291.83 136.835 20.4877
1232.19 127.433 19.348
1213.16 104.986 17.0292
1264.11 121.629 19.0196
859.609 112.565 18.4774
1285.02 122.129 19.663
1229.42 128.126 21.0429
1200.57 118.867 19.2644
1117.92 107.883 17.7883
1185.96 100.901 16.7978
1211.52 120.629 20.8525
968.204 123.127 21.5595
1075.33 86.0462 13.9248
1000.25 112.219 19.1721
1088.07 106.681 19.3426
941.056 110.318 20.3411
911.614 96.9169 16.9359
1058.15 92.8717 17.572
845.896 97.2264 17.9151
1027.38 108.506 19.863
987.659 116.955 21.9391
900.303 123.369 23.4325
872.415 123.21 23.2995
829.642 111.653 21.8215
739.119 83.0455 16.5318
881.32 122.43 23.8097
993.399 112.068 23.3013
757.989 76.0456 15.6054
745.112 93.4695 19.3543
888.903 126.252 25.8825
912.416 110.133 22.1076
880.034 90.8557 19.3337
806.268 107.777 22.5001
806.767 97.7361 20.3431
649.945 92.8031 19.5103
737.166 106.49 24.2919
827.505 100.863 21.4715
581.264 75.3647 17.2607
715.696 91.0062 19.202
778.941 114.445 25.6424
671.314 96.5536 23.1122
644.389 77.4609 18.2161
692.063 109.605 24.2151
550.994 73.7684 18.0094
780.758 103.99 24.3582
626.898 89.7024 20.267
592.033 91.5211 21.8001
645.033 69.8546 16.6393
820.923 101.631 25.0133
580.355 99.6335 25.2672
600.91 106.371 25.6319
555.363 73.9331 19.0821
626.055 75.9656 17.9955
616.003 76.4184 19.548
588.167 95.4914 23.9009
702.857 109.186 28.782
645.567 103.027 26.7709
579.608 72.1454 19.5761
643.212 98.6641 25.9372
541.502 78.7404 22.2142
565.343 102.719 26.6375
547.425 79.993 20.4524
623.69 104.247 28.4001
605.576 89.3962 24.7669
455.649 62.6322 18.5239
486.079 81.8685 21.6791
466.132 76.8565 21.7915
568.985 88.9319 24.489
503.688 80.8628 24.2589
471.02 71.8948 19.7616
542.185 103.024 30.6778
414.084 66.2217 18.6618
420.162 85.5375 25.8584
532.356 88.3817 27.6493
486.678 92.9175 27.3271
555.163 93.9905 28.3408
560.738 92.6967 27.7932
590.392 79.1629 24.5419
432.644 84.9976 25.9193
338.385 76.9614 24.5135
455.198 79.1135 25.4886
430.484 64.0741 20.2569
555.606 85.8318 26.9757
486.616 84.9321 27.2067
304.44 66.9649 21.3049
419.967 81.1207 27.0393
402.914 87.3794 29.1768
519.079 79.0048 25.0009
482.695 73.4935 24.8097
518.296 90.2948 30.0198
387.479 73.9867 23.9272
379.63 61.7761 20.834
309.186 50.6494 17.7322
353.569 74.588 24.9577
384.729 72.3409 27.3241
413.714 81.0636 27.1531
442.793 74.9668 28.2369
469.2 85.4607 29.9303
390.039 78.2869 27.096
360.269 61.5807 21.7656
387.801 51.0665 18.5182
351.37 64.6307 25.1568
413.653 70.5333 25.9543
410.879 69.3914 23.9984
334.321 78.0963 28.1452
342.501 75.8719 31.0748
378.659 76.9121 28.7584
256.744 58.0168 21.9712
350.361 67.9422 26.1247
344.463 68.3897 26.4289
374.241 81.7443 32.6957
418.874 79.4928 30.6222
310.016 61.4926 25.1685
323.348 55.0933 20.5545
317.015 54.1046 22.2804
381.163 68.4374 27.9341
310.885 58.8336 23.4914
320.454 58.1207 22.9945
311.846 67.4941 29.0142
410.256 82.542 33.8068
327.038 54.9139 21.5778
317.729 54.4998 23.0992
345.205 65.6287 26.726
281.672 56.1063 25.1924
295.37 63.705 28.8175
278.419 63.4346 26.5273
320.936 51.621 22.0646
317.391 78.6997 33.4837
231.388 48.5168 22.1655
340.381 65.6174 28.7504
240.215 49.4194 22.6212
332.965 72.9388 30.7388
308.641 68.314 31.0662
314.279 54.874 25.3066
276.604 49.1129 21.727
344.764 67.4553 29.3701
297.179 59.3354 28.8982
306.585 61.3001 28.6541
316.758 61.9227 27.8482
229.303 59.821 27.324
257.756 46.5385 24.3781
260.615 55.6149 26.0133
243.29 62.185 29.8716
288.085 51.8804 22.392
287.39 60.0214 27.9967
350.972 62.6935 30.6747
261.218 53.018 25.9887
323.965 65.8116 31.4198
216.372 52.0797 25.3604
270.228 59.3513 29.1876
275.572 66.2803 31.889
224.328 57.0642 27.3532
252.272 66.3756 34.9759
230.554 48.7198 26.5788
315.887 67.417 34.0467
224.391 57.5018 27.9007
224.972 69.1468 38.235
234.289 65.1422 31.4121
213.489 51.8284 28.1483
242.012 46.4987 24.3266
242.423 61.5595 31.2422
252.354 61.2405 33.3359
230.694 59.3524 31.6059
205.141 53.6765 31.0395
236.399 52.4258 28.0913
217.839 69.5402 37.0307
211.87 54.4651 29.8515
196.724 45.3375 25.168
176.736 48.0993 26.53
247.738 52.1022 31.3713
264.993 54.4064 31.6374
220.961 59.5084 30.2549
205.152 63.2624 35.4129
196.306 51.0282 29.0619
188.79 54.3319 29.8855
175.208 42.6367 25.5001
177.722 47.9758 27.7596
215.422 49.2586 26.6266
178.727 43.7996 27.7623
195.307 48.0789 28.5713
291.649 66.4655 39.5993
214.367 52.3601 29.4507
254.041 56.3983 32.6381
171.753 48.7242 27.504
183.698 42.6212 25.6469
192.877 58.3397 34.358
155.583 44.0893 30.554
219.513 47.9278 30.4011
211.289 58.6364 32.0915
164.144 30.6737 20.6546
216.841 58.6278 32.799
202.49 46.3951 28.7779
221.836 63.4704 39.7652
168.904 44.9457 28.8396
169.033 42.1597 30.3868
187.191 55.983 34.676
216.256 46.606 30.1048
195.366 45.7888 30.6063
186.498 53.4021 35.2487
151.833 48.8069 29.5588
146.901 43.5137 29.427
213.273 42.1877 28.15
183.307 42.372 25.2472
147.534 36.1876 23.9442
167.646 40.3808 26.1184
185.456 53.5516 33.2679
175.339 52.9463 36.2373
169.394 37.2332 26.9724
179.57 40.865 27.7278
152.54 42.23 28.4288
168.17 30.6149 23.3958
169.543 53.0383 33.3403
161.609 37.6685 25.5871
168.26 35.4943 23.4487
134.703 46.6717 33.64
187.423 51.7667 39.6462
166.278 43.1978 30.1582
192.21 42.8644 29.0503
153.493 33.1378 25.7164
180.331 42.7363 29.7735
184.103 40.4495 27.0491
166.845 44.8761 31.4212
134.319 40.7957 29.6014
162.042 51.6861 37.3557
186.892 48.8131 38.0296
166.736 54.7307 37.8068
158.692 42.7799 32.3237
134.757 41.9275 32.4784
129.594 40.2106 27.8881
176.254 41.6015 30.5261
130.318 36.1828 24.9467
159.593 27.1673 22.91
128.93 37.8308 28.6692
162.306 44.6945 35.2232
134.885 41.164 29.0867
109.594 32.063 25.1582
127.342 29.4224 23.6315
142.282 52.4597 41.9706
157.66 41.0846 33.3864
156.585 42.2112 31.0047
154.602 36.175 24.1466
145.666 34.8897 27.0338
150.051 34.9783 30.5323
145.774 37.1033 30.5316
143.556 40.8881 33.8066
173.341 45.5141 36.8235
125.507 31.7488 26.1856
143.323 42.0339 33.5105
117.313 37.8869 29.584
131.841 35.2584 27.3314
161.728 43.2775 34.2089
141.174 38.0142 31.5578
142.253 32.9071 28.6525
117.426 32.679 25.9926
131.706 30.3267 24.5804
137.375 41.51 35.656
117.594 46.393 39.1458
142.38 38.3824 30.3213
118.336 44.8161 38.2366
129.932 39.751 33.9802
118.355 33.5332 27.1757
134.391 33.3854 32.6382
126.45 39.9785 32.3684
140.56 34.7903 28.7267
161.805 30.1146 25.4817
117.549 35.8987 33.1495
130.903 30.3729 29.5883
114.639 33.6714 27.8678
103.345 34.8238 31.2409
117.383 39.8993 35.4028
107.506 36.7955 31.1591
130.441 36.8428 33.3458
97.2771 37.9179 34.6671
136.059 33.1162 31.3389
107.206 34.7985 29.7418
121.255 35.0441 33.0178
119.564 43.6509 36.8918
106.358 30.3035 28.017
111.995 33.8897 33.9297
117.99 38.6671 31.9221
131.476 36.3763 33.7459
125.836 32.0457 27.6109
112.82 36.4018 34.5184
107.73 31.5703 31.3029
103.113 22.4959 21.5005
122.771 35.2694 32.9816
112.825 45.7724 44.3316
136.383 33.3564 30.1088
98.6958 35.6388 36.641
127.015 35.6846 33.1362
110.725 25.1472 24.0187
114.59 35.3295 34.8636
137.366 34.7526 31.7255
106.833 43.0234 43.617
127.389 28.9147 25.0799
104.468 38.3241 41.0509
95.0329 37.3214 34.9535
127.407 41.8787 42.1231
94.5672 24.2903 24.3364
137.253 44.3426 42.7221
98.5661 27.2364 28.1046
118.707 29.6938 28.9389
96.3859 25.843 30.5316
99.9331 30.2799 28.6674
105.295 27.1206 28.2048
90.8443 31.486 34.7702
116.037 35.0269 33.1997
83.1028 28.2274 30.4028
86.7895 21.5494 20.9741
85.1607 22.2996 24.1919
105.342 33.8981 36.5992
130.592 33.97 35.3717
121.881 34.4643 35.4255
127.553 35.2462 35.1085
93.6081 30.6342 34.3863
97.2529 31.573 31.624
90.7442 30.0981 32.6804
80.697 28.3468 29.3442
86.5417 25.1234 27.5364
87.2602 28.6532 35.6071
111.054 32.3698 33.9955
92.9383 30.4087 32.0042
107.252 32.0341 34.0154
88.9696 26.2471 27.5557
101.683 34.4605 36.2566
91.1698 25.5653 30.931
83.7206 23.1445 25.1889
82.5941 26.4137 31.2958
113.698 35.4461 36.4182
96.9069 28.5706 30.2515
91.2641 33.428 38.1971
91.1028 31.2252 34.1592
95.4162 26.9245 30.2812
92.6853 27.1761 28.5882
93.1894 20.171 24.393
104.681 26.4302 28.2811
113.882 26.2516 31.157
96.9009 27.3697 29.9187
104.876 27.2474 30.5165
84.7503 25.408 31.6764
87.4967 23.143 30.2112
86.2838 30.3529 35.2437
76.2538 29.126 30.2916
71.0103 18.7415 23.1587
85.3142 25.7044 33.1219
85.6732 29.7366 32.3214
90.3848 27.6875 33.5738
76.5514 25.6655 31.441
86.476 26.5176 32.7159
89.0376 26.824 33.9366
100.19 26.7138 28.9215
77.5761 27.227 30.3807
83.2778 28.4975 37.1273
77.6102 22.4713 25.8047
70.2814 23.0745 29.8389
78.2123 24.6607 32.6299
83.7768 21.8771 22.6044
79.2545 22.5 28.7615
73.742 31.6121 35.056
88.5502 19.4334 25.4188
102.079 22.2879 28.9996
89.9943 22.273 26.3855
92.7146 22.0787 26.4186
58.3678 20.4073 28.5333
80.4774 20.7292 23.0301
75.9017 24.9317 31.0276
77.9095 24.2312 31.1619
88.413 25.5577 30.5397
71.7025 21.8812 29.3961
86.2027 22.2696 29.8537
54.939 19.7829 26.8753
88.7675 28.7296 36.6596
75.2395 27.8136 32.5921
86.2159 28.6906 35.0572
79.3085 16.214 21.3296
82.1208 29.7199 36.837
82.146 28.5857 36.072
55.5032 18.9978 24.7462
71.5215 22.7074 31.0113
69.3559 23.2261 29.1714
86.6418 25.4584 34.4321
84.4386 19.134 24.7572
77.2157 22.7262 30.7052
91.9028 21.075 29.4564
68.5683 17.9457 27.4598
81.0554 22.1571 31.734
71.5638 25.2608 28.0435
70.6193 18.3662 27.7322
69.2905 25.0512 28.4134
67.0953 18.4141 25.1053
76.0346 21.7579 30.1032
70.0152 22.3418 29.3783
82.5508 23.3869 32.7934
73.2193 26.3206 35.1834
90.0966 22.6793 30.9087
75.0456 21.1248 32.5496
66.8407 23.5496 28.9352
68.8496 19.3177 29.8056
65.022 21.1944 30.6423
72.956 22.9922 30.7445
56.9594 22.2721 30.2168
73.9424 22.4218 30.994
69.4524 26.1408 34.9881
63.7176 21.4941 29.6543
70.6485 21.5679 31.4644
69.0079 17.2102 27.4989
73.1294 24.9319 38.5478
79.8216 23.3612 31.2713
76.5501 21.4329 29.9357
71.5225 20.9774 31.7751
61.1168 17.6945 24.4457
67.2295 20.9401 28.8374
55.2977 18.6011 27.965
76.5483 24.7123 31.4887
56.9716 18.9748 33.0222
61.788 21.9911 32.1526
67.4054 16.7428 26.4772
69.7981 25.1964 36.3398
79.5646 25.8744 34.809
57.1824 25.2249 38.9199
67.3854 21.1192 26.2876
56.1338 17.8181 29.3218
68.9719 19.361 28.9667
65.8025 28.6901 39.7341
60.4206 19.1673 29.1221
68.1901 21.1751 36.356
64.8417 16.3949 23.9049
71.2061 22.7858 32.1595
58.913 17.6279 30.0546
66.0079 16.2558 25.4257
81.5224 22.2936 31.2712
58.4044 15.2103 22.342
75.3857 17.6141 26.4416
70.5215 19.916 31.1547
62.8348 21.7172 30.5566
55.3484 19.5099 30.465
62.8319 18.6964 32.1589
61.1392 21.794 33.4015
55.6342 20.4966 32.943
74.0383 23.8246 34.1348
51.2043 23.4789 35.7203
56.9206 21.3812 31.6706
49.4225 18.6693 28.7732
62.0839 23.0933 37.3237
62.8645 19.5592 36.7154
61.4532 20.5403 29.4745
56.6638 17.7487 26.7713
48.8992 18.7375 28.5592
58.6027 20.3702 31.8432
49.0031 17.1227 29.0398
61.9351 25.245 41.2713
70.2313 20.4096 32.0088
63.5442 21.4811 37.5243
58.9449 16.4668 24.1654
59.6839 19.2794 35.3384
68.4727 18.3916 31.9536
58.6448 23.1864 36.0343
59.3043 16.0217 27.1949
59.6281 18.1763 29.5989
55.6923 18.9312 29.9952
53.9546 19.3141 34.8196
52.3579 19.4108 29.6803
65.6363 15.8733 24.1695
60.1747 19.829 31.1441
65.8234 23.0016 37.3609
46.4223 21.3634 40.5087
55.2827 19.9983 34.0588
62.0637 16.0795 25.0648
45.9832 22.3611 37.0079
57.1458 15.1206 25.9057
56.9297 19.8442 34.1374
62.5349 16.9102 29.4586
55.2938 16.725 27.5443
61.9593 19.3861 34.294
61.9631 18.7441 30.8351
59.5679 17.4219 31.5896
65.7097 16.3848 29.597
52.9058 17.1256 26.8171
63.9061 15.8275 28.2786
50.0578 15.8706 26.2125
59.6381 16.5695 30.4279
53.7321 18.5326 30.7162
57.2795 17.6854 34.4834
60.3849 20.6053 33.6235
48.7187 19.4937 33.4662
60.0484 18.9868 30.2926
54.9933 17.2012 31.4194
55.4663 14.0073 25.7628
56.466 16.0087 29.7693
43.8584 14.0578 27.762
57.9111 22.3172 41.5223
52.431 15.9019 29.4053
58.9199 16.4073 26.1684
47.529 9.95707 22.4765
51.3059 15.9946 29.3179
58.7976 19.1994 34.8104
40.1293 17.7934 29.4179
52.9815 16.0246 30.2589
43.5339 16.5798 23.1859
52.2909 11.6024 25.7289
50.4718 15.8115 32.7639
65.4897 14.6403 24.0133
61.3743 15.2378 29.7839
53.33 17.1009 28.9316
62.8855 9.57815 19.2067
45.9833 16.3249 29.8847
47.5054 16.7768 32.518
40.772 16.1758 32.311
47.3344 15.0729 22.7712
51.1115 14.4964 27.6751
43.6294 15.7563 26.4071
45.2144 14.9391 30.3487
47.1672 18.6325 33.7915
56.6588 13.3199 32.8628
60.291 18.15 27.5803
48.4983 11.5007 23.815
56.9813 13.8646 28.4996
46.6285 19.0467 35.7265
49.9134 16.898 31.2739
37.9028 15.206 26.5918
54.5397 17.6122 35.4394
53.7059 16.9549 31.3609
55.6006 17.1289 32.1693
60.3075 15.2355 27.1997
47.4633 14.2239 27.6546
61.7789 12.0704 23.0058
43.8378 16.2259 31.023
56.3383 14.069 30.7093
44.0301 14.3459 34.1782
54.6957 15.2351 24.1064
44.973 16.2297 29.3515
47.4906 15.8604 33.8753
60.7147 14.1807 28.1548
39.631 11.8683 22.9226
48.5507 12.0941 25.9882
49.2853 12.9382 23.4519
50.3482 14.2234 28.8284
53.1434 11.9044 21.4321
43.5573 12.8276 26.3351
54.1568 14.8874 29.2941
45.8714 17.4507 33.8669
44.8524 11.3249 22.1628
46.956 14.2343 32.6387
46.5025 14.3398 27.2426
55.0445 12.8581 23.4108
42.7575 12.5799 24.973
57.7548 16.1704 38.3922
52.8985 11.1728 21.6989
53.0711 16.8632 32.3129
46.7748 10.3057 23.4736
52.1018 14.7871 25.4805
49.1141 11.4139 24.7305
42.0192 13.287 22.4602
50.7474 13.251 30.461
43.1591 12.8637 28.2293
46.3219 11.3999 24.8888
52.8614 16.6034 30.9882
46.3484 15.7637 33.77
41.8923 13.0536 28.5305
44.119 12.1984 25.1514
42.5878 13.0916 26.101
40.5891 12.6176 22.7859
50.4342 13.4158 34.022
42.9893 13.541 29.8769
43.3878 12.2669 26.5092
48.7761 11.7012 26.3222
36.213 10.9602 23.513
51.2306 16.7733 32.476
38.9999 15.1212 33.6594
51.3232 17.3307 34.7145
45.4778 11.7962 23.779
50.256 10.8643 25.3576
46.4502 13.5881 28.4454
45.5864 15.2326 30.9828
52.3042 17.3205 39.4942
39.4281 12.962 29.981
37.8904 11.5583 27.305
43.5404 13.4809 27.8481
42.1217 11.9951 24.7992
43.4556 13.1898 30.7129
38.4666 15.5927 34.5064
48.6654 13.555 24.8574
34.5752 15.8215 35.0545
48.9147 8.5842 21.8609
37.9298 12.8462 26.9876
43.9823 12.5421 23.3994
44.378 11.711 29.6462
38.6135 12.1442 25.2771
38.7277 11.4242 25.4733
35.5532 10.2627 21.8036
39.7118 11.928 30.1699
40.2154 13.0304 27.8904
42.8738 14.6661 32.3391
51.035 15.3203 30.7251
41.3287 12.1711 31.6605
52.431 12.5822 23.9105
46.0695 10.4754 28.1829
48.2028 11.6649 19.9696
38.7987 11.1235 24.2431
38.5178 9.73127 23.2085
41.2594 12.0104 27.9709
37.9284 14.1542 30.3624
43.2028 11.6316 28.7615
39.7686 11.8932 25.3156
42.4534 11.4081 25.7281
43.2874 12.3054 27.9946
39.3841 15.0137 33.8192
45.3542 10.5273 26.6542
42.7042 13.3766 27.9081
43.4656 13.7911 29.54
33.1147 11.4739 27.289
38.8235 11.0967 25.5441
38.8696 12.2876 31.732
38.6406 15.2764 34.0345
41.7771 10.597 26.4741
37.6998 11.0588 23.9406
43.0842 12.2413 28.8553
41.7724 13.0908 33.6238
50.632 12.7285 25.2192
35.5508 9.77632 23.0065
42.8295 10.6158 28.7125
42.0763 10.8942 20.5144
32.4254 11.839 30.8135
42.1719 8.35854 20.2877
33.8521 10.2884 24.7118
38.1299 11.1013 26.6404
34.0875 12.1965 27.7618
40.5057 10.3341 25.3231
40.5905 9.60075 22.3315
34.0175 10.6255 25.3801
38.2861 11.0974 28.0469
35.5159 13.0584 30.5916
46.7416 10.8402 27.5163
34.9826 11.1164 25.3863
33.1354 9.78974 20.6747
40.817 10.3672 28.4083
38.2726 14.2441 31.1917
33.6377 9.30563 24.8878
35.6225 11.6016 23.5778
38.9279 10.9605 32.0143
35.1681 12.1827 29.9733
40.6581 11.8645 30.9317
46.789 12.0328 29.5502
36.1686 11.4269 31.7144
48.1748 11.225 25.4756
32.8961 10.9566 28.6026
45.0989 10.5553 26.9457
40.3162 14.3298 29.7186
35.3726 11.2941 27.6719
37.8059 13.1655 30.5833
36.5477 12.1132 26.6488
40.9636 8.564 25.6609
32.9948 10.9993 27.9623
