# pn-170911/CsIIA-35-USN3-1280-1959.psd
# Power spectrum* (dif=0,1,2) (really just |FT|^2)
# NOTE: only the first half! (symmetric)
# weeks: 1280-1959
# 302 clock-days, 88 excluded
# PSD: 1441
82787.9 0.950694 0.0275103
2.49275e+06 39.7576 0.0133721
1.22102e+07 255.004 0.0192457
1.76064e+06 64.2481 0.0160753
1.22372e+06 78.6257 0.0192537
713581 65.6206 0.0215085
526819 72.0681 0.0243898
348723 63.3801 0.0276288
275438 70.1296 0.0349984
207700 64.1241 0.0377425
150699 59.8864 0.0419926
155034 69.108 0.0509622
109719 61.1845 0.0554201
93304.1 59.5617 0.0617622
81401.6 58.9258 0.0678088
79483.8 66.4906 0.0834406
64817.4 62.621 0.0876265
56755.9 55.3536 0.0886867
45641.4 56.2834 0.0963809
48356 67.2919 0.133865
43226.5 63.9283 0.135557
37061.6 62.6798 0.144588
32825.1 60.2005 0.152318
29858.2 64.4645 0.177676
28122.3 59.9592 0.175845
25082.9 58.3081 0.188048
27239.9 67.0272 0.229739
23053.1 62.5633 0.233016
20938.1 64.7181 0.254378
21784.2 68.5484 0.287235
21090.9 70.961 0.324264
17501 62.9414 0.301989
16555.7 66.8098 0.340302
16010 67.7972 0.365921
14975.7 65.6806 0.371422
14611.5 67.5867 0.407171
11668.5 57.0771 0.362916
12332.5 58.9295 0.387845
10901 60.9523 0.430912
11151.4 60.9701 0.453258
10407.6 64.8033 0.508342
9925.28 62.5642 0.504881
9720.36 63.5127 0.560633
9301.93 63.8989 0.585211
9682.05 66.2059 0.619016
8450.4 66.3508 0.645035
7939.38 63.0068 0.642276
7525.83 63.0404 0.67602
7349.57 59.533 0.66848
6668.29 60.9668 0.713087
7126.67 67.1379 0.820137
6299.26 59.5127 0.745424
6034.86 61.5554 0.815928
6285.5 63.4061 0.849181
5500.7 64.7603 0.926632
5541.15 62.3361 0.920711
5357.92 64.7238 0.974355
4990.79 62.6372 0.984359
4763 57.0244 0.92863
4535.85 61.5945 1.04902
4587.75 55.4332 0.950211
3794.05 54.5934 0.97366
4315.57 60.9525 1.13013
4134.48 56.6571 1.09285
3706.17 57.227 1.12561
3933.22 63.2131 1.29153
3712.99 61.4785 1.29239
3610.96 58.3673 1.24204
3580.39 56.7824 1.27088
3569.21 63.5804 1.43432
3227.76 59.413 1.38987
3285.56 64.6537 1.57705
3365.15 59.9792 1.47254
3260.03 65.0912 1.67355
3014.48 61.0633 1.58392
2912.88 57.7461 1.5513
2919.11 63.1362 1.73078
2554.8 56.5082 1.61093
2634.81 60.1196 1.75767
2724.49 64.304 1.91679
2844.92 66.5902 2.0322
2407.01 57.6733 1.8121
2389.66 59.2522 1.91026
2201.09 55.4288 1.82063
2406.31 64.4716 2.1782
2266.79 56.9544 1.93693
2063.3 57.7956 2.04324
2407.77 64.6062 2.33966
1964.87 55.4548 2.03721
1799.85 55.7685 2.11314
2019.26 59.9655 2.32488
1869.72 59.1518 2.32095
1764.66 51.5016 2.06208
1690.66 54.4121 2.24576
1813.22 58.3117 2.44529
1676.55 55.9309 2.41193
1691.92 57.4516 2.54054
1819.44 66.448 2.96081
1458.56 53.7152 2.4311
1617.88 58.5185 2.75888
1634 62.3857 2.98499
1532.6 58.506 2.89451
1469.06 57.4465 2.80451
1488.02 55.5766 2.76245
1589.99 59.6974 3.08283
1374.92 56.8079 2.99135
1372.05 56.5994 3.04531
1298.7 51.9101 2.8189
1308.19 57.8433 3.21761
1266.21 57.4598 3.22569
1198.69 56.3858 3.28313
1388.52 59.0312 3.44143
1246.12 56.3719 3.40088
1163.85 55.3397 3.37366
1244.49 56.8903 3.48732
1077.52 52.5133 3.28098
1208.67 55.5714 3.54177
1141.16 54.9165 3.53292
1104.74 53.5254 3.52721
1063.75 52.4818 3.55723
1081.77 56.9938 3.88806
1086.31 57.7369 3.98
1088.07 61.4684 4.3629
971.25 53.4987 3.8469
960.71 51.7714 3.79378
996.388 58.7972 4.37585
950.511 51.8117 3.90702
960.413 57.2381 4.40359
1001.3 57.3477 4.48895
823.532 51.0452 4.05356
862.833 53.9523 4.31273
892.944 53.4841 4.346
867.7 54.5387 4.48267
794.616 47.1967 3.98814
866.061 54.7751 4.64812
749.294 53.6149 4.67434
880.737 56.9456 4.92084
833.765 56.1899 5.02771
816.165 51.9815 4.59282
730.091 47.7435 4.38716
777.394 52.1103 4.80984
702.085 53.1713 4.97435
823.874 55.0269 5.24258
762.29 56.7494 5.51293
715.498 52.5853 5.20835
711.142 52.5721 5.2324
685.261 50.5466 5.04847
633.276 50.319 5.14758
649.193 49.3922 5.05147
629.059 50.3699 5.23763
646.246 50.5521 5.38537
644.988 49.9748 5.43277
650.091 54.369 5.94264
640.689 48.6102 5.39405
597.153 51.3526 5.69565
562.823 49.3711 5.65034
595.973 50.3773 5.7544
565.863 47.274 5.5854
607.618 56.4735 6.53629
530.417 48.857 5.87899
523.196 47.8693 5.8171
476.672 47.0487 5.81936
494.467 44.327 5.54602
528.278 49.2104 6.09268
508.726 49.4845 6.29752
575.236 52.2799 6.71295
560.982 49.6718 6.36141
523.507 51.7385 6.75123
494.338 49.4176 6.46252
481.96 51.7542 7.02359
508.113 51.6381 6.98941
546.693 55.8393 7.58296
473.824 50.0459 6.97855
484.112 47.6432 6.72206
472.311 48.9578 7.02862
479.126 46.9886 6.67034
461.868 50.1595 7.4749
456.413 51.0488 7.55385
446.707 46.5473 6.85939
471.227 49.1461 7.43884
449.939 49.2109 7.45704
384.625 45.9227 7.09289
442.995 51.2149 8.05823
384.612 41.3944 6.48034
399.777 46.7078 7.3931
404.105 50.4764 8.14041
385.651 44.0482 7.18103
360.769 42.9832 7.09931
406.401 46.3819 7.67867
367.495 45.6136 7.72621
358.518 41.3432 7.17685
357.18 46.6552 7.87517
361.874 45.129 7.71968
401.962 47.8176 8.43029
370.845 50.4017 8.92254
353.424 45.326 8.04868
349.22 44.9506 8.12961
366.22 47.4559 8.72479
343.925 46.3241 8.46583
318.992 42.9998 8.0528
362.222 49.101 9.20104
329.977 43.3804 8.32154
340.08 50.2244 9.5296
332.885 43.6503 8.47337
303.68 45.5511 8.87885
335.783 46.5564 9.01025
322.166 44.0033 8.882
302 44.2086 8.81528
287.116 43.6406 8.94288
301.159 45.527 9.19924
312.868 44.6107 9.26312
297.917 43.3312 8.98893
303.831 46.2398 9.71536
302.374 43.8955 9.37277
284.523 45.226 9.65756
287.471 43.9428 9.48491
277.049 43.6743 9.53029
287.693 45.3457 9.95092
280.544 43.8942 9.89474
295.19 49.3819 10.765
259.28 44.4737 10.1449
244.378 40.7831 9.42627
234.315 39.874 9.2733
267.249 44.7005 10.2197
249.574 40.6306 9.55122
233.718 38.0835 9.13343
264.97 45.0196 10.5752
248.352 41.6779 10.2209
250.064 41.7027 10.1125
248.184 43.1389 10.4107
217.368 37.0276 9.29062
218.277 39.2371 9.71438
226.762 42.6903 10.6575
215.605 37.3102 9.38296
235.213 42.6513 10.8232
224.206 41.7443 10.7047
211.688 39.073 10.3058
246.6 47.353 12.4222
236.936 43.614 11.3851
214.268 40.9009 10.8478
213.347 38.4656 10.1829
193.186 36.2787 9.83803
228.311 43.7742 11.943
213.922 41.4543 11.5061
210.91 39.0588 10.6631
214.815 41.0847 11.4905
215.003 45.0449 12.7133
187.765 39.2714 11.2635
212.628 43.6288 12.5633
198.67 39.6442 11.4085
191.842 39.3042 11.4418
188.536 41.0965 11.9058
192.188 37.8842 11.3597
207.809 43.2298 12.9013
168.994 37.5102 11.3781
168.575 35.7835 10.7813
193.867 36.131 10.864
184.595 38.4182 11.5876
195.856 41.5036 12.9263
161.257 35.5303 11.0354
184.189 39.9594 12.4947
190.044 42.3855 13.1911
185.715 39.7916 12.7156
171.078 37.4435 12.3854
165.546 36.1343 11.4812
169.425 37.2305 11.9718
176.967 37.5033 12.1361
174.941 38.5147 12.6012
162.145 35.2056 11.86
169.832 37.6334 12.6438
147.905 34.2261 11.9615
152.01 38.9342 13.315
148.982 33.9854 11.2707
163.788 35.7968 12.1968
153.665 34.2092 12.0226
158.807 37.9585 13.0729
149.651 36.8697 13.7277
148.957 35.3327 12.6485
150.549 37.4979 13.1224
156.293 37.9055 13.8553
137.825 34.0191 11.7854
138.497 34.0645 12.4626
132.438 33.0813 12.3069
146.831 35.696 12.8839
139.419 33.1675 12.28
136.612 37.112 13.9711
128.569 33.296 12.5977
135.44 35.8691 13.6691
146.023 37.8049 14.1503
133.528 33.1817 12.9211
137.516 33.0726 12.7461
122.522 31.4112 12.3356
125.401 31.938 12.4493
126.889 34.7699 13.8738
139.129 38.8445 15.744
121.354 33.3915 13.1045
130.594 35.4129 14.3379
127.187 36.2069 14.9094
135.996 35.4991 14.505
129.309 34.8838 14.5379
126.94 31.9978 12.6346
126.336 31.5776 13.463
123.862 33.0428 13.4962
108.713 31.8964 13.5503
122.58 32.9985 13.8861
117.187 32.5288 14.3752
110.308 30.4865 13.2258
111.557 32.1331 13.6371
104.07 29.1038 13.0569
117.194 33.1731 13.9129
106.016 32.4933 14.712
110.537 32.9579 14.5088
112.836 34.99 15.7071
110.949 33.5458 14.6714
102.925 30.3404 14.0396
99.2858 28.6436 12.8337
113.53 35.922 16.2941
101.454 30.3288 13.836
112.039 35.907 16.6338
105.793 30.1923 13.8993
106.717 32.9808 15.6295
108.554 31.2663 14.7269
91.0984 29.7377 13.8584
97.9885 30.9933 14.7415
101.351 29.4805 14.2204
104.505 32.4447 15.8203
98.6018 30.7798 15.0891
97.5216 34.2781 16.8783
101.842 31.0305 15.032
91.6991 30.2027 15.238
100.356 32.113 15.7932
96.9289 30.1559 15.0063
94.197 32.1663 16.0864
86.3805 28.2641 14.576
102.28 32.3725 16.1068
94.2814 32.3528 16.6045
89.6686 29.9709 14.9435
82.8792 27.5491 14.7515
94.4114 30.7925 16.1816
97.1573 32.5089 16.7007
91.8531 29.9245 15.2622
87.2921 29.4822 16.0483
86.6111 28.3279 15.0032
89.545 30.6372 16.0137
81.25 28.3141 15.5022
88.4546 27.7477 15.065
90.859 28.6316 15.8074
85.9949 35.4223 19.2115
84.5063 27.1451 14.6935
76.8783 26.0275 14.4677
93.0857 32.8424 18.0044
84.5565 29.5619 16.6931
82.2208 30.4766 17.5205
86.9265 31.8669 17.8978
80.7291 28.9534 16.1056
78.5931 30.8568 18.1357
75.0921 25.7911 14.9344
79.298 29.371 16.2822
73.0216 27.8487 16.4775
75.1092 27.8648 16.4869
75.1584 28.9292 17.2207
79.6847 26.7857 15.5876
75.2155 28.8142 16.8793
76.2251 27.2 16.5166
78.0414 27.2812 15.9747
80.371 29.7421 18.0315
80.7539 28.3507 16.9505
69.6703 26.4704 15.564
77.024 29.9229 18.4023
68.0206 27.0276 16.4259
77.5135 27.7611 17.4833
77.7564 28.3608 17.0488
67.5925 26.2203 16.3436
70.4507 29.5194 18.2401
74.4725 25.8785 16.0083
72.7869 24.5176 15.7081
66.4571 23.243 15.1073
68.81 25.7822 16.5776
69.952 28.065 17.7813
67.7179 25.2215 16.5615
69.9066 26.4572 16.7972
65.0097 26.3814 17.7692
69.6392 28.133 17.9411
58.3871 25.4794 16.6754
64.2266 25.6247 17.6508
68.8879 28.0983 18.0249
60.0778 25.9123 17.0907
63.9094 28.3107 19.0975
61.5296 24.9257 17.4367
66.1715 27.2753 18.5693
64.2556 25.4194 17.0964
61.0774 25.763 17.6484
60.7381 25.1912 17.5523
62.857 25.2159 17.4038
68.536 29.9432 20.4841
66.3651 28.4881 19.5303
56.2598 23.9165 16.8217
54.1958 23.476 16.922
62.0511 24.9032 17.3198
60.5381 26.4829 18.7527
56.1053 23.6202 17.7515
60.267 25.5301 18.2696
58.0059 25.7684 18.5885
58.6973 22.8017 15.6547
59.9485 26.0928 19.0246
61.6752 26.1101 18.7184
55.6964 24.61 17.8127
54.7647 22.7552 17.0912
56.7432 25.9168 19.6986
53.6803 24.3236 18.1546
55.905 24.6991 18.3966
55.0483 24.7007 19.1884
56.2664 25.5911 18.8358
49.8998 23.8339 17.8877
54.3362 23.7803 17.8809
51.7306 22.7023 17.5735
49.0544 21.2356 16.678
47.5862 21.2038 16.109
50.2098 23.2387 17.8125
55.2248 25.4287 20.0907
54.2044 25.2026 19.1878
56.2333 24.2602 19.3633
46.5465 23.3905 18.1544
49.8984 23.5599 18.6595
48.8801 23.0592 17.9885
49.2869 22.7512 18.4418
52.7564 25.8306 21.0432
52.4575 25.7685 20.7647
49.8762 24.5859 20.499
48.7324 22.517 18.228
48.2275 22.9325 18.2044
44.7612 24.3213 20.2417
45.9395 21.9348 18.4501
48.7852 23.446 19.1266
47.7238 23.1506 19.8095
49.3533 22.8511 18.6106
50.0642 20.839 17.6451
41.8021 20.4591 17.3059
42.1106 23.1161 19.169
46.2405 23.8725 20.2704
43.4678 20.796 18.0353
46.1113 22.0605 19.1282
47.4813 20.3637 17.5861
49.9336 24.0131 20.9772
44.673 21.7745 18.5588
41.5499 19.5065 17.0123
42.1577 21.1582 18.7785
45.5732 19.9014 17.2924
44.6819 23.0606 20.632
42.3063 22.2564 19.8827
42.988 21.1396 18.5608
44.8536 21.632 19.5073
44.4191 21.8279 19.4696
45.4093 22.5995 20.7176
42.5859 20.9278 18.0927
40.9717 20.4506 18.2775
41.729 21.5951 19.3182
43.4978 23.1011 21.5859
41.1289 19.5961 17.7559
44.4104 23.9026 21.7195
41.3518 23.525 21.655
40.3576 19.2501 17.4836
39.7432 22.4242 21.0614
39.8036 21.9265 20.493
40.0981 20.9241 19.3602
38.6485 20.3671 19.5637
39.8905 20.3099 19.8441
41.0517 21.2376 20.2023
39.7821 21.6251 20.4666
41.358 20.8895 20.2504
39.9193 21.1314 20.3166
38.2664 20.6181 19.3709
35.1591 18.0735 17.9531
38.3672 21.9528 20.7092
35.5476 18.4303 18.4247
38.8753 20.4432 19.8429
36.7821 21.2524 20.8376
36.0861 19.5988 19.3856
38.0404 19.3236 19.2742
38.6486 20.8958 20.2712
34.4136 18.8674 18.5702
38.2425 19.9057 19.9154
36.1568 20.1861 20.9163
38.7778 21.1787 20.7935
35.9919 19.5317 20.4431
37.4662 19.7065 20.3757
36.2284 18.3917 19.0812
35.7161 20.8306 21.1384
35.295 19.0891 19.8308
35.0824 18.2293 18.2295
32.0715 18.7101 20.0768
38.5782 20.0143 21.2419
36.2687 18.693 18.9123
34.6188 20.8259 22.1972
36.6693 20.7153 21.6779
34.7398 17.004 18.5473
32.1501 19.1881 20.096
34.0167 18.989 20.8916
36.9142 20.1262 20.6376
32.6488 17.7738 18.8806
30.7908 18.5454 20.5741
33.0115 19.4752 20.2662
31.2532 18.8896 21.2151
31.5027 16.6098 18.002
32.2865 17.1292 18.1854
31.2804 18.348 20.9303
33.4914 19.0215 20.582
30.6865 18.6238 20.2776
31.9722 17.7201 19.9019
29.956 16.1125 18.0493
31.4939 18.8351 21.0299
32.5369 19.3716 21.8417
30.8275 19.3674 21.3643
31.6376 19.8168 22.3765
34.8998 19.1533 19.8657
26.7614 16.3592 18.8184
30.2095 17.2679 19.4876
30.6688 18.0394 20.819
29.0305 17.4597 20.1448
28.869 18.1929 21.1635
29.018 18.5758 21.7379
29.606 16.8466 19.4077
28.894 18.9526 21.9653
32.7321 18.7727 22.0529
31.7874 16.9636 19.6332
29.2777 18.5358 22.0582
29.561 16.5688 20.201
29.8487 16.982 19.6814
26.0018 16.1475 19.6518
29.7451 17.5103 21.2437
28.917 18.0058 20.4968
28.0705 17.1932 19.4719
27.967 16.8034 20.7568
26.1332 16.0986 19.6281
29.1462 16.1189 19.6349
28.4346 16.3559 19.5805
28.5707 16.9538 20.9042
25.7027 15.2893 19.4719
28.5019 17.4758 21.7198
27.984 16.4038 19.5713
28.1293 17.3338 21.0229
26.826 16.3332 19.4526
25.954 14.8294 18.2294
25.4474 16.1192 21.1979
29.1403 17.2652 21.2033
25.9229 15.9567 20.2933
25.4998 15.5194 19.8808
26.9204 16.0065 19.6143
24.5916 15.9738 20.9732
27.011 18.3952 22.1027
24.4387 15.4828 20.8746
24.4195 15.0156 19.7525
25.262 15.6951 20.2745
27.5453 16.5472 19.7109
23.1142 15.6802 22.3242
24.9826 16.0962 19.5148
25.8798 17.1995 22.8413
27.8701 17.6443 21.6941
25.0227 15.7956 20.3151
27.4143 17.1536 21.7218
24.0838 16.3026 21.7846
24.9796 15.9322 20.3727
25.3178 16.0013 21.0496
23.7834 16.1243 22.4726
25.8751 15.6893 20.7299
24.9615 14.9245 19.6266
25.3699 15.9448 21.3401
23.9077 14.373 19.7476
26.4689 15.7363 20.37
24.5908 16.0896 21.9407
24.1923 16.1122 21.4667
24.1466 16.5623 22.2396
22.488 16.9844 23.1328
23.8623 14.4017 20.171
23.2433 16.6762 23.4928
25.6228 15.7536 21.2698
21.7615 15.1313 21.552
23.7386 14.4665 20.0208
22.9298 15.3667 20.9874
23.7759 15.779 21.8919
22.2372 14.3839 20.4019
21.3919 14.0319 19.7961
21.6235 16.5919 23.0659
23.1739 16.0654 22.8922
23.1771 14.807 20.7192
22.2503 14.9083 22.1058
23.286 14.6877 20.1182
20.6706 13.7075 20.7144
22.1581 14.4418 19.8936
20.8034 13.8669 20.2572
21.0584 13.3874 18.5893
21.5225 14.6121 22.1118
21.7549 14.53 20.5531
19.9316 13.6683 20.0766
21.4493 14.1853 20.5842
22.5175 15.4843 23.0704
20.7467 14.1649 21.5046
22.1853 14.0141 20.4803
21.7889 14.9943 21.7182
20.5728 14.0165 20.505
19.7483 13.5531 19.5921
20.4319 13.7463 20.8683
21.0472 14.043 20.7734
20.1695 12.4878 19.7394
20.0843 13.4186 19.3985
19.188 12.3213 19.6349
19.8227 13.3682 20.1384
21.2889 14.5913 21.5628
20.3805 14.2243 21.5142
18.8501 13.3617 20.9602
21.0282 14.1526 20.5195
20.1501 13.7142 20.4646
20.3223 14.2223 22.256
20.9428 14.6125 21.7575
18.4548 13.2833 21.8643
20.2691 14.0808 20.611
19.0978 13.1531 20.7562
19.0379 13.3472 20.5959
20.0477 14.7481 23.3664
19.5735 12.8786 20.0898
20.0921 13.2349 20.6981
18.9975 12.5251 20.3085
19.7778 13.3608 20.4713
19.5741 12.7402 20.1151
18.7598 11.9773 18.9478
18.3411 12.3121 19.2969
20.2469 12.6046 19.97
18.7545 13.005 20.95
20.1287 13.8716 22.4832
18.4331 13.2601 20.9628
18.1587 12.2306 20.0868
18.4568 13.2104 21.7725
18.292 13.7818 21.1625
17.7235 13.5369 21.7594
17.7695 13.2234 22.5841
18.109 13.2168 20.63
17.1706 12.446 19.3898
16.3394 11.9779 19.5548
15.935 11.8812 20.8562
18.9458 12.9171 20.6686
17.172 12.5256 20.4892
17.5584 12.7007 20.8146
18.6587 14.2799 25.2818
18.2253 12.7466 20.7776
17.7159 13.4866 22.0757
17.1675 12.5174 21.9908
18.1421 12.4199 21.0485
18.2125 13.2911 21.9374
18.0594 13.8399 22.311
17.9942 12.6719 21.2811
16.5551 12.1862 20.5302
16.3616 11.3435 19.3424
16.2829 11.2988 20.8575
17.7339 14.5755 24.2457
16.6152 11.4877 21.0715
17.1042 12.9294 21.0452
17.0864 13.9472 24.5306
17.4709 13.5342 22.8042
16.0323 11.2125 19.7583
16.2187 12.5803 21.0132
15.2791 11.9205 20.9386
16.3969 12.4261 21.0045
16.018 10.7484 19.2914
15.7865 12.1088 22.2083
16.3966 11.2194 19.1313
15.846 12.1312 21.5171
16.882 12.5716 21.7811
16.7748 11.7124 20.5375
14.3774 10.6052 19.088
14.7071 10.8735 18.8959
16.2287 11.5928 20.8669
15.698 11.897 21.5501
15.1258 11.9711 21.7863
15.2158 12.0087 21.1476
14.9149 11.9917 21.8196
16.036 11.8098 20.7562
16.1201 12.1129 22.3492
15.7123 12.0745 21.5568
14.4118 11.3403 19.5204
16.9434 11.5916 21.0537
15.4242 11.4356 20.4083
14.101 10.7704 21.43
15.5892 11.6471 21.3618
15.1916 12.6026 21.3564
14.8181 11.7444 21.7661
14.6673 10.4677 19.5826
15.9986 12.5724 23.275
15.5035 11.7681 21.9372
14.7738 10.947 21.5142
14.9125 11.3124 20.7014
15.3049 11.2347 20.0967
15.8045 11.3213 21.3547
15.1123 11.4576 21.1654
15.1283 11.9866 22.3933
15.4798 11.2148 21.5945
14.5258 11.1546 21.6562
14.8531 11.5348 21.311
14.8795 12.4284 24.6676
14.3196 11.2078 19.934
13.8891 10.4846 20.3116
15.3449 11.4974 21.7715
13.6832 10.6306 20.4634
13.9684 9.68885 19.391
14.7448 11.9489 22.802
14.0328 10.0186 18.7409
13.0895 10.59 21.1297
14.0947 11.2047 21.906
13.5457 10.6132 19.7405
13.6332 10.4645 20.2841
14.5479 11.9636 23.1042
14.1402 10.7798 20.7619
14.0479 10.6513 21.1672
13.8001 9.6559 19.9888
14.2844 10.2555 19.4515
13.7623 9.827 21.5082
15.7769 10.9084 21.1622
14.4186 10.1034 18.8902
14.2485 10.9814 22.2456
12.9465 9.9768 19.7982
13.2436 9.4515 18.7781
13.3279 10.2132 20.3876
13.6106 10.1665 20.3631
13.5852 9.70442 19.5543
13.0725 10.0698 20.4142
14.9154 11.0949 21.5194
13.3558 10.2132 20.9628
13.434 9.70714 20.1512
14.0414 11.1078 22.075
12.6845 9.79455 20.2947
14.1705 10.4727 20.4919
12.8007 10.1785 20.8641
12.2387 9.43212 20.0189
12.4895 9.77812 19.4673
12.7959 10.0641 19.5852
13.3357 9.72455 22.0781
13.9434 10.1147 19.3844
13.7469 10.4166 23.1656
13.395 11.4424 22.6457
13.7085 9.87273 20.4994
13.0763 9.74674 18.9764
13.3513 9.87036 21.1662
12.0545 9.18927 19.1488
13.0454 10.0722 21.6068
12.7319 9.70699 19.9815
12.3022 10.4554 22.69
11.9715 9.49651 20.9831
12.7415 9.60534 20.2785
12.9244 9.54266 18.3902
12.4815 10.2382 21.0362
12.7281 9.6711 20.7001
12.2641 9.58458 21.0218
12.977 9.34535 20.7129
11.7013 9.73146 21.3916
12.4354 10.7699 22.3214
11.7138 9.65832 19.484
12.7855 9.9794 21.6013
12.3362 10.8027 24.1273
13.0492 10.2189 22.5191
12.6808 10.0141 20.7817
11.7271 9.75313 21.8495
12.5249 9.3418 21.0269
12.1186 9.77443 21.2881
12.3031 10.1928 20.6153
12.6974 8.81444 18.956
11.6388 9.86232 21.9757
11.1085 9.35349 21.1558
12.1957 9.27778 19.336
11.2003 8.99238 20.6457
12.3598 9.97042 21.9485
12.6233 9.40424 21.1611
12.3788 9.33222 20.5673
11.5218 9.31404 20.2556
12.7624 8.85889 19.4776
11.7477 9.47946 20.8879
12.0118 9.8066 20.8365
11.6434 8.47361 19.6425
11.9084 9.16971 20.6632
12.2838 9.98601 23.1374
11.8812 9.50486 21.1
11.5094 8.95577 20.421
12.3643 9.632 22.1244
12.6068 9.88927 21.3305
11.0509 8.40833 19.7588
11.3781 8.31825 19.7433
11.1119 8.71217 19.4353
11.6521 8.87028 20.3403
10.908 9.17027 20.742
11.9924 9.20636 20.6171
10.3993 9.25487 21.8688
11.8512 9.43522 22.1545
11.9224 8.5623 19.214
12.0593 9.61751 20.9524
11.0737 8.8807 20.144
10.6323 8.43691 19.6203
11.606 9.72883 24.9678
11.4805 9.36081 20.7231
10.1513 8.32309 20.1612
11.0574 8.60572 19.687
10.576 8.21421 19.2754
11.6489 9.29138 20.943
10.4705 8.74139 21.4357
11.5533 8.25033 19.0148
10.5625 8.34692 19.8874
10.6069 9.02725 20.83
10.5828 9.17165 20.9259
10.6355 9.21462 21.6699
11.232 8.57107 20.716
10.6921 7.91391 19.5335
10.6928 8.1253 18.1384
11.122 9.40562 22.8444
10.9037 8.53861 19.6046
10.669 8.75311 22.2767
11.0997 9.44198 21.8752
11.103 8.71999 21.906
10.577 8.91925 20.7852
9.89498 7.86746 19.2085
9.71269 8.45815 21.102
10.3202 8.32666 20.0702
11.0893 7.74879 20.316
11.3652 9.50866 20.7995
10.1737 8.96314 20.8735
9.97817 8.08662 20.7921
10.5211 8.18994 20.1905
9.78266 8.13397 19.7221
9.33115 7.88276 18.8207
9.40526 8.63052 20.9226
9.7199 8.70084 20.6265
9.86264 7.58989 18.7398
9.69327 8.01025 20.3713
10.5194 8.23405 20.563
10.4498 7.81464 19.4085
10.7253 8.48902 20.2514
10.5913 8.1922 20.553
