# pn-170911/CsIIA-30-KOKB-1280-1959.psd
# Power spectrum* (dif=0,1,2) (really just |FT|^2)
# NOTE: only the first half! (symmetric)
# weeks: 1280-1959
# 2 clock-days, 2 excluded
# PSD: 1441
28697.5 0.815756 0.0093674
1.54599e+06 23.3152 0.0289978
7.47675e+06 113.985 0.0235925
1.52224e+06 73.9741 0.0471673
1.15797e+06 88.7606 0.0285858
739328 112.264 0.0243467
181492 17.8377 0.0215981
48706.9 8.47227 0.0173835
185248 41.4261 0.0476512
148871 38.2921 0.0263642
192223 64.0776 0.0811354
34417.8 5.37462 0.0244117
8528.7 16.0301 0.0455047
55973.8 48.386 0.114895
56010.1 56.3671 0.117328
26684 52.3125 0.106765
56888.6 41.8569 0.0608428
84861.5 160.427 0.210178
24661.5 67.1585 0.14317
32596.1 95.3287 0.153527
54594 133.364 0.221026
68823.8 116.862 0.374053
32200.8 93.8262 0.308238
20411.4 37.9843 0.193775
12567.1 37.3371 0.0847569
13739 40.8726 0.152101
5132.61 30.3059 0.193305
25772.3 58.691 0.173077
1300.46 1.18767 0.022485
11574.9 20.0663 0.158792
26644.9 81.7242 0.474929
9775.62 52.833 0.386805
2795.42 7.93329 0.0903835
7755.97 23.1201 0.252989
10007.4 87.2771 0.522367
3601.52 17.0068 0.144564
8542.3 31.5982 0.119816
4735.22 22.6229 0.106117
45390.9 341.887 2.39106
2870.77 21.6903 0.225608
6391.9 26.0534 0.274487
11936 59.1149 0.517096
14459.2 98.7519 0.70356
7734.16 45.2966 0.461935
10140.4 62.4903 0.633753
4523.23 42.1302 0.292533
23087 285.96 2.6553
282.073 13.9026 0.162888
3977.44 32.4937 0.266108
7165.85 81.6988 0.990996
697.4 20.6327 0.306104
2517.21 40.6392 0.572615
2707.99 55.7278 0.899778
11417.9 98.389 1.38298
13752.8 136.386 1.85839
5296.59 64.3885 0.608921
6057.46 88.5965 1.20999
7716.29 75.9248 1.1263
4129.11 45.877 0.733022
157.957 5.04279 0.177767
3084.23 59.0754 0.707344
2084.49 54.9234 0.841642
3480.66 31.8538 0.602686
641.623 27.8313 0.526281
4923.17 70.3251 1.33251
2813.78 47.6861 0.761469
5773.47 142.193 3.19412
962.48 34.4554 0.922945
4541.03 68.8149 1.88361
1574.87 19.8123 0.654853
231.362 11.0246 0.282097
1591.74 57.9356 1.57592
5870.61 90.4409 1.99992
1800.74 20.2888 0.425368
3692.18 71.2068 2.04538
537.817 6.42463 0.249267
7221.3 207.497 5.24875
3407.97 69.8301 1.95401
2908.35 82.3037 1.85236
1671.15 45.3251 1.09385
1269.42 76.1168 2.32009
2645.67 65.7801 2.42831
1546.62 21.4902 0.769786
1815.14 43.4858 1.09512
3334.56 73.9818 2.45045
590.406 20.591 0.697684
1239.61 61.0931 2.2017
1557.37 50.7308 1.66229
1765.3 63.5608 2.23915
2001.96 59.6511 2.4189
458.291 23.9774 0.810736
89.1511 7.65261 0.270922
2131.94 110.244 5.05623
2166.31 47.3588 1.63867
588.841 32.2702 1.61374
609.117 10.3507 0.319364
1246.86 35.5443 1.59749
337.56 10.4516 0.444344
1649.34 40.7196 1.9649
1041.14 30.2891 1.55167
275.907 11.2997 0.582195
644.738 56.7786 2.48611
540.86 43.1091 1.88025
3003.71 130.395 6.67616
93.1412 20.2198 1.00194
514.151 7.97964 0.387241
1087.51 31.5886 2.05411
834.971 29.1014 1.74886
774.825 39.5326 2.23035
767.538 41.7044 1.80099
437.956 49.1101 2.57009
1217 57.773 3.81006
2377.55 185.137 10.8392
1041.7 36.0962 1.8472
539.33 36.9589 2.50935
1734.62 109.314 6.56341
611.938 48.558 3.59972
451.49 16.0727 1.23431
1464.36 93.9442 6.38869
536.898 30.4231 2.58694
2138.56 95.9518 5.81167
858.014 66.4334 3.9358
521.053 22.4284 1.55997
911.664 60.6122 4.28762
1178.52 87.2736 6.75431
1381.98 74.8523 6.68978
497.089 44.4225 2.75776
1402.05 126.559 11.2845
1265.78 99.4481 6.46453
802.251 59.138 4.41937
96.9772 11.4893 1.47143
545.243 32.3183 2.03889
170.396 22.2915 1.62006
361.728 23.1963 1.68442
200.795 9.13422 0.821709
817.74 113.993 10.5674
989.94 69.906 4.97149
901.634 89.4428 6.9228
331.277 56.2541 4.67648
395.076 72.5518 6.83666
300.421 25.3457 2.3286
1477.38 148.526 13.952
491.876 21.7274 1.52659
381.587 66.4889 6.29831
755.552 62.7702 6.0622
520.307 33.8133 3.62215
293.502 28.0727 2.31705
342.243 20.6229 1.80475
255.133 11.5799 1.21831
444.817 44.4842 4.23027
826.289 110.336 12.6179
1077.42 69.9335 6.70285
553.2 41.8743 4.7304
261.932 23.3672 2.38359
35.8586 15.5947 1.91718
1034.6 102.109 12.1268
665.92 90.1064 9.9782
857.512 55.1688 5.96782
938.234 100.665 11.9608
202.047 45.3591 6.32312
150.139 15.5244 3.01095
402.94 66.5954 8.55251
1581.66 137.543 15.7439
147.639 22.877 2.54842
152.628 24.0854 3.1642
87.8933 4.11454 0.742658
362.477 55.5451 7.50405
316.004 36.4887 6.11153
990.999 78.2202 10.2947
606.075 64.5695 7.37039
561.044 45.4674 6.27996
578.094 58.7816 7.01888
367.958 47.0455 6.62019
131.893 29.3917 4.43824
260.294 41.4882 5.7696
263.552 26.4809 3.38435
514.747 62.2335 10.0557
474.663 33.3727 4.6448
209.831 25.7201 4.44398
524.122 61.0678 8.42819
335.761 37.4665 6.82331
303.634 39.0087 5.07833
795.627 105.84 18.7706
189.589 49.4609 6.58029
852.992 110.305 17.4355
303.115 30.2606 5.15392
117.897 12.3267 2.46757
648.379 90.2657 16.0023
676.076 100.107 16.3186
368.587 53.0222 9.3586
140.94 39.5126 4.91854
272.359 57.6713 9.43693
330.306 69.2879 13.2294
778.766 136.888 29.0632
217.726 21.505 3.02932
233.054 49.4043 7.63898
324.895 84.4394 16.1171
308.135 50.6442 11.9875
217.918 64.8486 9.92946
150.345 50.9629 11.4333
206.297 44.9573 9.71414
148.663 11.3264 1.07043
132.019 13.9104 2.02578
263.992 29.5322 4.78992
421.54 59.5928 15.2764
371.661 71.7936 10.8922
158.563 52.6423 9.54669
124.224 13.3467 2.68491
38.937 22.3039 5.67602
744.725 113.696 17.4285
648.704 171.802 36.6251
204.707 29.863 7.29735
254.871 29.3936 4.31065
1109.4 215.951 45.9832
61.8665 24.8871 8.08704
319.661 70.8846 11.0715
536.233 154.976 32.6884
62.8506 23.9323 5.24732
112.78 59.5541 15.2048
110.436 25.2762 7.89595
143.515 25.7775 5.74315
469.657 60.6068 13.9107
175.159 28.8374 6.77316
301.242 67.2978 15.4433
91.3349 15.845 6.4111
629.735 146.615 29.5983
197.744 53.4166 10.0915
211.865 74.3346 19.0738
25.7545 25.94 6.99304
336.967 89.8445 21.929
33.883 7.59683 2.69869
152.318 84.0238 25.4234
265.706 38.6937 9.64321
257.334 30.6812 7.00361
400.258 95.7481 25.99
338.858 99.6239 23.3405
337.92 53.5495 13.2324
207.053 46.5707 15.7609
53.2821 4.79475 2.15939
211.759 33.9483 7.62428
333.733 62.3485 14.4598
316.913 82.3341 19.7649
41.297 13.9016 4.36297
50.9759 13.8242 2.37537
112.295 64.3661 20.0185
205.82 61.6748 14.1803
481.589 123.258 32.5108
84.8891 26.1272 9.14725
344.354 60.296 16.8667
120.434 44.1303 13.2485
225.475 36.3155 9.63709
159.007 45.2925 16.4738
92.3519 36.9665 8.98675
133.535 27.5756 9.27299
80.6635 26.9261 8.43549
109.343 25.6309 10.6821
111.603 31.246 11.2814
281.669 118.328 33.5641
166.511 38.278 13.4106
192.407 25.2152 7.74935
202.915 72.7651 25.159
70.9968 11.4311 2.6822
143.028 37.0507 9.12
139.386 53.8214 21.7001
385.787 111.522 31.9385
69.1482 24.7874 5.52665
131.304 32.0877 7.99501
198.164 79.5134 26.994
256.319 91.7908 30.7186
88.2712 22.2364 7.96428
132.196 85.5727 29.9427
252.061 70.9047 17.6431
453.04 174.7 63.3159
310.488 99.2096 36.2541
102.542 16.068 8.94987
251.992 85.3812 28.4335
138.559 46.9176 14.3946
44.4657 19.7208 8.69799
256.887 54.4934 17.5067
54.3073 16.0661 4.82662
26.0462 17.9339 6.28533
9.36086 6.19567 3.08796
34.3423 3.33737 2.00384
89.2157 35.8845 13.5315
50.0059 46.8853 19.483
132.543 20.0407 7.25678
126.398 27.0949 7.15834
149.352 53.6151 22.408
59.5415 7.41001 2.17009
58.0449 43.4491 15.6942
120.746 43.9969 17.3729
83.8286 19.7907 9.50313
289.444 78.0691 31.5027
261.341 72.6604 29.4494
128.306 59.1223 25.825
73.446 47.5067 22.212
104.535 18.7126 3.11678
89.6742 24.6611 6.77205
132.059 80.6374 33.9585
110.748 46.7459 18.5527
137.705 87.1063 40.9417
66.0422 5.44866 3.46406
81.6484 72.5291 42.5524
472.206 117.65 38.8111
222.4 79.9058 34.2147
60.3023 8.6955 4.00322
371.191 151.25 53.3771
231.383 111.464 55.1147
84.3924 41.8489 28.8984
32.7432 14.9361 11.3413
61.2788 15.3517 14.3706
113.919 38.6424 14.2042
249.976 65.9858 26.9363
150.158 38.404 19.7038
66.8886 34.8554 15.0119
114.869 32.2105 15.3276
22.495 3.10647 1.08961
134.911 49.0208 14.7593
74.7885 49.6311 20.6562
126.053 32.8421 14.2771
137.28 57.478 24.1738
273.999 109.596 54.9773
111.026 46.9773 14.6718
65.3583 26.2518 15.2454
74.5951 37.1942 17.3265
93.2596 26.5741 19.4156
113.733 53.3361 19.2205
85.0317 41.1575 16.375
54.8603 15.662 3.66925
276.93 159.378 73.8735
67.8061 73.8269 39.4607
166.865 80.9516 44.2191
133.904 32.2746 13.885
55.5487 10.1801 5.36906
17.6811 2.26187 1.10798
104.208 78.7818 43.3347
72.5249 45.1005 20.4091
158.583 67.7664 38.9966
36.5215 16.4726 4.70343
70.8343 47.9061 29.1974
131.632 50.9295 22.298
26.0045 14.6878 11.9567
6.43699 22.3364 15.7296
67.4994 32.3863 21.0431
158.711 51.3212 19.6536
17.1829 37.0375 24.8733
169.345 46.6313 20.0685
56.0975 31.7036 24.7266
168.27 89.7929 44.1492
52.8829 33.0723 11.0244
75.0664 60.0152 28.9154
26.6242 19.3619 11.0684
87.5342 63.9591 43.6494
52.1511 61.1806 42.716
248.93 93.5187 44.5223
55.8048 38.8806 19.5373
16.277 34.4069 29.2046
133.284 74.3499 49.3042
148.47 79.9903 48.4449
83.1979 12.0881 5.15224
119.62 34.0309 15.4334
158.859 75.5091 57.3893
192.874 90.0937 48.7109
61.4252 15.9999 6.73682
71.9092 60.0586 37.0979
190.454 100.971 46.2821
54.9845 44.2321 35.7264
27.8742 8.69937 7.40239
62.8908 29.2291 13.75
37.3655 6.3556 3.2817
7.46648 7.3294 4.16394
26.0144 24.4497 17.0572
110.271 90.5075 59.3482
65.0616 9.12404 4.32394
109.752 52.4081 40.8011
194.731 87.7759 50.2152
102.557 45.4154 26.713
20.4231 14.9007 5.98358
80.2438 46.1834 31.3419
87.8239 50.3303 28.2915
10.2671 12.467 11.0245
123.23 44.2539 25.2323
60.1761 30.1888 26.3851
66.7221 30.0159 18.6822
49.6657 38.1884 28.0802
46.6242 49.0066 27.8329
57.6851 31.9839 27.8454
73.1091 46.2809 27.8894
92.6119 85.1014 57.3399
34.35 13.229 12.2546
26.0399 16.4511 15.1395
32.662 44.1579 44.3222
93.1412 30.0211 10.8708
61.7611 48.7531 40.3328
114.251 47.6313 22.6218
93.0071 30.7543 18.0302
16.804 43.178 40.0275
125.977 45.4136 26.1029
47.5603 31.3614 28.043
90.1453 52.9987 29.3982
110.352 48.43 35.238
80.3824 66.3038 44.016
59.2908 7.17665 1.93012
124.139 99.3091 78.3802
46.6675 6.12809 9.53255
248.271 115.171 68.0753
92.0712 41.987 33.0716
82.4569 43.7872 24.2169
20.2191 8.83251 7.91759
62.4619 29.9216 25.6432
77.3971 45.2557 33.3681
58.4467 48.2351 44.6508
16.5166 4.72686 9.32063
71.8085 85.9952 63.4643
141.529 58.9938 34.1501
44.6182 22.6173 19.9819
41.3493 20.941 17.6817
78.8405 52.6806 44.6966
51.9786 53.1268 31.4979
54.1886 35.1878 35.3779
81.8382 53.2002 35.5808
50.9409 92.708 95.4615
134.372 58.7854 25.9629
110.824 66.4724 49.1416
26.3752 17.1821 22.0085
67.6017 24.9143 17.7167
8.98773 10.0766 7.84979
21.6318 17.7875 11.1926
40.215 25.1749 15.1225
49.3843 31.1646 29.4276
13.7407 2.64977 5.77371
27.6925 20.8952 17.7157
54.6372 36.811 19.6061
42.5899 44.6762 40.635
20.4073 8.94331 10.6607
124.839 98.3026 90.6617
58.0737 70.896 63.9146
19.9265 2.22688 13.8867
122.94 64.6303 42.2506
3.35074 7.40186 19.0047
135.554 77.3242 43.021
59.5545 29.1801 23.8981
22.5218 12.4929 18.7325
32.8266 27.1239 21.754
17.049 10.0868 7.19498
1.66408 6.35728 7.22866
15.2743 11.9848 8.81154
41.3868 61.4884 47.6654
13.6758 29.6838 39.6633
81.9755 40.4526 22.717
24.843 9.02587 7.08697
54.4251 42.9705 35.7953
7.36879 36.0154 49.5948
44.4985 6.89291 4.38131
38.3436 27.0572 28.7474
77.8173 39.9818 37.3438
39.3243 44.013 33.6069
19.9566 0.754571 2.63154
52.5051 16.5396 11.304
25.2547 15.3173 13.3332
21.2899 17.3055 30.097
47.3095 32.1018 16.284
31.8858 47.4551 47.183
8.76087 13.7371 27.6663
71.6915 30.1514 21.3516
31.4943 9.73512 5.36156
20.058 23.6503 22.7888
41.7615 16.7025 17.3786
54.1125 28.1465 29.0479
122.251 93.9294 82.8303
22.7965 31.128 51.1326
19.2963 11.9486 21.2696
79.6456 53.4315 27.8452
23.5757 7.40381 3.21365
12.4501 6.80933 7.53894
95.7255 80.1079 67.781
69.9564 44.1168 44.3629
68.1753 51.7634 50.627
13.4534 23.2271 24.74
37.1545 15.7242 16.4613
37.8 31.3659 53.2247
16.5551 24.2439 15.1856
13.4701 15.7732 25.3873
44.8463 22.4306 9.54509
19.7552 16.0185 23.2235
45.749 27.7594 18.2957
1.90053 14.1337 20.6001
79.4537 48.1405 37.2675
2.19755 2.03389 2.02615
52.4093 99.3935 107.017
29.4896 7.62582 9.42209
31.7498 15.1447 15.9618
16.3189 15.3512 22.2889
17.3358 20.6415 41.392
51.4642 18.9646 15.0408
32.215 12.4578 5.19175
61.2354 40.2402 34.289
16.6381 21.5522 17.4662
42.0519 45.4526 51.0758
30.206 30.6955 34.7159
23.5951 4.54599 10.3155
36.9329 13.1826 2.67279
47.0086 47.5771 50.4522
58.0366 33.3012 28.5419
14.3111 23.3155 27.3952
96.4374 91.4803 109.628
37.2732 80.4649 91.7647
50.5448 29.5827 31.8178
30.4536 16.5648 18.5443
5.53995 20.8072 21.5127
40.9034 32.1157 44.7851
17.6878 5.71389 10.2523
81.9432 109.69 109.417
24.9434 5.20823 4.35749
45.0343 54.425 52.0333
14.3655 18.1891 35.0341
19.4176 20.2868 23.4305
39.663 37.3368 27.3664
78.9581 71.8952 80.8027
24.0203 38.6481 38.6435
25.6755 14.6643 12.0912
69.5601 83.5712 80.2125
13.3332 59.0364 94.2875
36.6278 40.9011 39.7606
11.9746 11.2335 21.5634
67.9576 58.3759 67.2502
61.6132 51.4573 84.4841
26.2109 26.977 15.6511
3.35408 5.36452 15.3747
42.8308 33.3448 27.1402
49.8872 48.2491 57.6213
14.8319 29.8646 33.5067
41.3943 33.3352 22.0186
25.3799 39.6271 62.2472
35.7067 47.8364 48.5379
55.5462 59.3293 75.3954
37.8797 33.2979 42.0178
39.9528 43.357 42.1851
19.252 11.2573 18.9802
13.5888 26.6847 30.2134
23.1068 16.1931 20.1502
12.9506 7.26975 14.6258
3.62706 17.1133 48.9247
57.1712 25.9854 23.347
53.9717 23.9611 17.4495
35.8903 29.0478 25.0036
32.7421 50.7881 70.1858
42.602 23.4618 31.6824
15.8518 30.277 28.6721
24.8368 14.7928 23.7324
17.9169 8.65256 12.6687
23.525 34.8473 46.8094
13.1409 35.7945 39.114
19.0363 9.57322 14.0767
2.69402 9.90387 9.39077
4.04866 25.5565 50.7487
45.7879 14.1228 8.99483
24.4497 13.4609 14.5963
12.5931 3.63022 6.16696
4.35351 14.0231 37.7442
59.0816 43.9957 42.0875
2.20884 7.25505 9.34998
18.1568 25.8517 29.2553
21.8844 14.4309 18.761
23.6589 24.7981 42.0201
23.5932 56.5008 79.437
42.9435 53.9953 60.4693
7.14311 28.8902 52.6384
26.2129 11.6619 18.8816
53.5624 43.3078 51.5206
23.8654 14.2527 13.4346
10.5044 5.6674 6.94187
14.7047 17.1634 23.7661
7.51595 39.8976 76.0317
48.9875 34.6153 51.0297
79.3908 82.8892 99.9709
41.0836 28.2829 20.4489
18.3333 22.8785 49.6847
23.6851 31.2981 31.3228
6.68269 12.9149 39.9406
85.8235 80.7649 94.8948
23.897 37.4673 56.1465
28.1806 33.7929 44.436
14.8657 30.4937 46.824
16.4666 11.2935 29.1216
34.1122 40.7142 35.5196
11.1767 7.51334 21.2571
13.7549 31.3201 40.5139
30.2325 30.5165 46.8837
8.63312 9.56333 17.289
19.0104 4.61218 1.09117
9.03753 3.16994 6.60562
48.8792 46.6902 54.8857
9.11005 22.3719 33.6851
22.4531 33.9583 42.1133
7.26652 9.43556 20.949
33.3214 35.5906 42.6679
32.495 27.3262 40.072
1.09935 5.99178 17.4807
48.851 63.9099 81.8911
25.1875 45.7786 65.8714
1.89156 10.3306 29.8792
13.8684 2.79218 16.3528
33.3932 20.4574 24.5296
40.983 42.5386 65.2818
2.12645 3.43946 15.118
17.4744 24.1854 33.5427
14.9298 27.6068 26.3328
7.08006 22.4078 61.1349
46.9025 25.0858 15.6509
35.659 61.6896 78.9439
26.1376 25.7396 43.2557
14.3349 12.8102 23.9512
6.70949 26.6581 51.3747
18.1687 21.2864 30.9725
20.6838 3.92455 2.77764
16.5431 14.343 14.258
2.4927 14.4291 27.6752
31.4926 44.1998 74.7271
12.1209 5.84462 25.3346
37.8576 32.8924 40.6316
14.3062 7.46795 20.124
18.2831 22.5557 53.5475
43.5358 46.0377 81.2846
32.5805 53.1934 42.5834
8.63907 38.7804 71.8401
28.1677 20.9123 48.7865
23.8694 69.7596 119.823
31.2769 13.3381 23.56
48.1455 50.3439 69.0246
11.9321 4.2676 12.2357
17.8337 32.3037 60.6875
40.5429 17.1711 12.0165
16.2286 9.98692 12.4548
29.4938 37.1611 38.1901
21.7287 41.722 96.7232
23.1097 34.6246 72.3767
14.9433 11.1745 28.8217
37.0956 24.8494 21.6338
4.4562 5.87601 5.49437
5.99385 8.5195 21.0858
21.6309 28.4217 59.8202
17.7475 18.281 20.9316
13.2792 7.69738 29.8332
43.6429 64.9624 89.9175
18.848 29.3481 57.3195
36.9856 32.3077 44.5782
32.0781 28.3667 59.047
18.7466 20.4026 20.653
7.63729 8.23727 14.7604
33.263 35.3193 53.8255
12.9813 4.37561 20.2945
26.5936 16.3117 15.1279
24.9467 37.8697 43.9462
19.1922 24.2868 50.1843
15.5171 23.8687 30.7193
5.8238 4.60341 14.7612
24.8181 21.6331 40.2183
11.9317 8.17658 6.09145
4.43051 5.56576 27.199
28.9686 32.2444 26.2907
9.46861 13.1778 24.4291
5.21234 8.05812 20.8257
14.0509 9.35274 9.44908
3.77318 6.29485 16.3659
24.4426 25.6599 34.0952
10.11 12.0599 30.5022
8.25786 11.0489 21.4346
6.96052 14.4203 19.0142
14.09 12.2367 35.1232
11.189 20.8785 28.2661
8.95434 20.1948 37.648
24.0149 21.6182 26.5679
6.69274 19.1363 60.5534
24.2909 37.234 70.3841
29.4282 24.2871 30.6826
12.5669 7.58359 20.9545
22.3816 42.2413 110.657
33.5377 53.7055 91.4001
32.4923 13.3444 11.6748
6.91737 10.0607 23.8234
28.7295 11.2864 5.86611
33.5472 36.9041 47.1925
7.33264 19.9746 43.5571
10.1899 8.46002 27.0886
5.73556 13.5892 31.1377
19.9039 24 33.7144
15.6928 7.83795 19.7576
11.7955 9.86486 6.06641
16.7884 29.7377 57.1026
11.5955 4.60022 18.3407
20.8738 8.33957 7.32134
24.7459 15.928 13.112
4.79461 3.67257 16.9189
37.7574 34.7159 40.9849
14.0952 24.9615 74.9102
36.1982 49.9011 47.7356
26.4841 60.7361 90.0567
8.09385 40.8204 151.937
41.9571 24.8754 26.4422
27.2052 34.8625 65.0488
3.12094 13.2322 76.9426
37.047 52.2173 53.0813
11.9609 26.1557 37.6681
3.60555 5.36445 9.48023
7.90464 16.5543 69.6097
47.7603 53.2525 47.3013
13.6456 37.3557 119.18
18.0221 25.2661 25.1497
10.9355 4.47778 6.64859
6.3948 6.4025 9.05284
4.57238 2.14546 8.06694
2.65421 1.28627 8.32509
23.5497 26.2552 52.4964
8.30484 31.0662 75.903
24.1648 31.2601 54.0113
12.0686 10.3463 16.8975
7.44394 7.6848 21.8307
28.302 37.4477 83.2924
11.5835 19.9138 18.5945
14.3193 45.9672 86.896
4.70349 39.9827 94.5018
12.7704 2.19614 30.2129
19.5677 13.4854 31.211
19.6369 24.8575 23.5137
3.36957 17.3047 33.2125
19.2297 14.1798 21.0736
16.5472 12.1882 13.6315
13.7509 22.8967 32.2584
6.79056 11.7269 24.1004
10.7761 19.4295 50.1002
2.4617 15.0407 101.989
27.314 56.5867 86.922
12.078 6.71193 3.10484
14.2367 43.8018 66.4835
2.12695 19.6913 74.5047
32.6627 16.5493 12.8462
13.8612 14.8812 19.5825
3.45219 7.56986 20.4273
15.7646 17.2884 32.8754
3.94599 15.5747 34.6379
5.59858 22.3321 58.541
20.4915 20.6834 25.8282
6.04372 7.11094 12.9727
16.1708 20.6423 53.4059
3.98578 17.2755 38.3943
20.107 24.5667 67.4546
8.13126 8.21619 32.7758
15.8694 12.4811 23.43
9.2453 21.9838 21.5229
7.80787 7.41194 19.1381
7.8312 12.1334 28.4885
8.92278 11.4582 32.7871
4.24908 7.24737 18.7054
2.78079 2.81463 8.18414
2.33312 3.13149 27.5618
5.06472 27.216 74.5851
22.2165 39.4177 88.0771
6.73313 6.50005 18.7458
11.9511 43.4005 53.3986
12.5014 32.1952 88.7537
13.2127 21.9677 13.3837
5.60057 19.9551 26.7347
3.32783 8.67191 32.5197
11.246 38.548 92.4489
23.4801 29.4651 62.7241
10.309 5.29846 24.028
26.0012 21.4059 26.5533
10.1986 17.4933 66.1817
15.6185 35.0291 47.3123
5.81509 6.51506 16.9253
5.79418 11.9496 37.086
9.18617 5.24543 6.04585
4.21559 13.2812 26.9044
5.79791 8.70483 17.2076
8.6096 6.32841 19.8165
9.73134 48.3312 107.419
12.8421 28.1108 68.9787
16.0094 5.45604 6.86019
2.17942 5.68208 42.9254
22.9299 30.6484 43.1597
8.42439 9.82219 34.6473
10.1327 12.0703 18.9306
15.9438 19.0651 54.5568
14.0701 19.1384 22.1359
3.35983 18.9537 56.5467
13.3219 11.4993 26.9084
6.68046 16.4381 19.3289
11.4465 28.7872 91.5943
16.3238 17.5721 33.4134
13.4622 12.9636 22.3681
13.502 20.0092 51.5596
6.3717 8.64645 8.62717
4.82421 2.33932 5.06012
5.16784 7.95121 35.9371
7.2854 15.1621 26.1622
10.9176 8.51908 23.2124
0.884836 5.16746 13.313
13.3829 13.8223 40.8259
4.36544 13.9451 67.6869
14.0756 24.4093 39.1503
13.8428 28.5604 48.3555
6.50241 14.3133 39.7732
5.57034 18.0561 28.1155
10.7671 21.6917 42.8631
8.83924 11.1921 54.2027
7.19433 24.9106 30.0994
6.04119 3.56635 11.5199
0.544149 5.47869 11.0507
4.57461 12.8111 24.9615
9.47245 7.14653 18.3714
5.19195 16.0892 23.1306
1.24368 13.4718 62.6558
29.5143 39.8297 64.6119
2.40796 5.04564 30.0263
4.90199 28.7298 66.1633
7.59911 19.7719 48.563
10.0501 2.87747 20.9055
13.0196 17.8327 25.2797
2.26482 19.0341 52.307
7.55789 6.98322 31.7987
12.2983 21.9073 22.8166
2.48264 10.5209 27.3005
4.96658 6.29539 13.4501
5.52974 15.4247 61.0916
11.619 11.7549 30.5755
10.0364 5.66908 26.9402
10.21 8.51962 49.1087
24.93 27.8682 36.7431
9.11686 4.55455 33.0322
18.9656 18.3948 8.07498
8.11472 10.1653 16.2987
