# pn-170911/CsIIA-30-USN3-1280-1959.psd
# Power spectrum* (dif=0,1,2) (really just |FT|^2)
# NOTE: only the first half! (symmetric)
# weeks: 1280-1959
# 1369 clock-days, 420 excluded
# PSD: 1441
25151 0.901895 0.0377876
1.65623e+06 32.6666 0.0283475
5.62488e+06 113.614 0.031263
1.83652e+06 70.4932 0.0325021
1.42057e+06 99.6107 0.0376465
732690 72.9428 0.0370695
503914 72.5825 0.0411252
335621 66.306 0.0428051
289944 75.8113 0.0519276
225460 74.3994 0.0547485
179665 74.1614 0.0616451
154669 78.6196 0.0734296
134701 80.0454 0.0823651
108958 73.5084 0.0847391
96489.6 77.5038 0.0958538
86490.9 77.2454 0.103381
65896.5 66.9103 0.106364
58895.7 69.413 0.121814
58855.7 76.3204 0.141642
48843.3 70.9942 0.148408
44649.5 72.4596 0.161802
39879.7 70.7108 0.175057
37198.6 72.9336 0.191228
35327.8 76.0645 0.214817
30230.8 69.4648 0.214199
29511 73.7175 0.23819
26864.2 71.6871 0.254488
24100.6 69.4106 0.263868
21995.9 67.4686 0.275149
20818.2 70.5457 0.307997
19395.7 71.2425 0.328093
17827.8 68.4754 0.347542
16031.8 66.41 0.347619
15964.8 68.5452 0.376069
14831.8 66.4274 0.386151
13735.7 68.06 0.417979
13023.3 67.1267 0.442307
12577.7 68.36 0.474318
11811.9 67.201 0.483869
11856.7 72.3682 0.553776
10600.3 66.4801 0.520161
9912.17 64.3274 0.524924
10266.9 71.494 0.618141
8870.8 64.1799 0.583828
8673 66.0731 0.631373
8575.12 67.912 0.680782
7800.63 64.9053 0.662928
7789.3 68.7941 0.741149
7093.93 64.0236 0.723317
6495.17 63.7649 0.758445
6915.78 67.8746 0.838377
6421.59 66.4156 0.847245
6510.83 67.6093 0.895918
5918.46 64.4032 0.888087
5589.05 63.6753 0.905249
5504.69 66.6206 0.975223
5419.43 67.8591 1.04364
5014.61 64.4604 1.00628
4796.93 63.3009 1.03179
4838.21 65.025 1.10134
4764.73 66.7781 1.17627
4311.26 63.7831 1.14943
4387.34 67.2229 1.24228
4068.69 64.7914 1.23484
3774.75 60.93 1.19662
3855.85 64.1597 1.30753
3631.46 60.7545 1.27772
3629.88 63.8505 1.36652
3551.73 63.1181 1.41062
3407.58 63.2524 1.44592
3343.4 63.9492 1.51757
3286.28 64.3449 1.5631
3166.06 64.4948 1.62797
3006.6 62.3877 1.59079
2996.23 65.3622 1.71521
2798.87 62.6594 1.692
2780.39 63.6482 1.74894
2600.49 60.6871 1.74145
2713.57 64.1759 1.86739
2615.58 64.3023 1.91997
2540.35 64.281 1.96314
2328.24 60.4362 1.90989
2390.9 62.1025 1.98917
2235.77 61.1429 2.02592
2321.92 63.5761 2.14737
2184.94 63.4909 2.18239
2191.88 63.9483 2.25116
2119.18 63.032 2.27717
1994.19 59.1329 2.21396
2099.06 64.1558 2.43151
2009.6 64.2897 2.47917
1843.25 59.2816 2.34443
1941.69 63.5341 2.56293
1811.55 60.3 2.48594
1809.19 62.3291 2.64371
1746.84 60.4395 2.57932
1738.27 62.3434 2.7444
1710.5 63.9696 2.85847
1661.54 63.5723 2.90278
1650.41 63.331 2.9671
1577.99 60.216 2.86395
1532.95 61.2838 2.95997
1448.82 59.2338 2.92022
1403.25 59.379 3.00633
1444.67 59.9145 3.0999
1452.68 61.2133 3.19276
1365.43 60.7455 3.24963
1380.44 58.5758 3.17798
1340.59 60.669 3.39231
1299.01 60.2781 3.38964
1313.41 63.0513 3.60725
1238.68 58.6457 3.43113
1291.59 62.3967 3.76733
1214.62 60.4635 3.6652
1230.53 62.0136 3.81413
1169.52 59.1831 3.73715
1138.01 60.8674 3.91531
1097.03 57.2068 3.70288
1138.37 62.5054 4.12225
1033.95 55.8234 3.78107
1042.43 59.8351 4.0921
1057.5 61.4244 4.2581
1033.33 59.9741 4.26199
1026 59.7122 4.28952
956.046 57.0725 4.1771
995.718 59.146 4.38151
933.717 56.9419 4.30572
927.487 59.371 4.55523
953.854 61.9091 4.82422
864.49 56.5138 4.4094
905.966 60.0318 4.84568
904.182 58.4596 4.75371
833.885 56.4819 4.63475
872.036 58.6749 4.9064
851.68 59.3994 5.07714
878.658 60.2995 5.20512
810.916 57.9938 5.1098
849.165 61.6011 5.43717
765.841 56.7126 5.16717
799.028 59.4032 5.45525
797.282 58.855 5.45813
793.446 60.6405 5.71294
768.438 59.691 5.71102
717.025 56.673 5.46761
738.039 58.153 5.68404
712.487 56.7076 5.63854
746.068 58.9453 5.9487
702.475 58.3077 5.93576
683.337 57.5421 5.99621
681.587 57.4644 5.99846
662.174 56.5143 6.01362
657.388 56.9721 6.19205
617.413 55.2756 6.06913
637.34 57.3456 6.35801
602.769 53.8267 6.0239
627.286 59.3392 6.72755
602.219 56.5574 6.47564
598.97 57.3616 6.67059
574.563 55.021 6.55384
565.079 54.1683 6.42847
590.128 56.8473 6.83112
559.264 53.5356 6.54552
549.493 54.7812 6.75446
551.777 56.8812 7.13243
535.478 54.465 6.94928
550.779 56.5779 7.19498
529.273 55.4816 7.21695
511.859 55.5366 7.26445
517.13 54.2112 7.21573
520.368 56.0591 7.54895
496.537 53.3722 7.2688
502.289 56.4097 7.77438
498.293 57.3429 7.95382
476.377 55.3512 7.81648
491.655 55.6658 7.91269
478.568 55.5598 8.02181
472.772 55.6383 8.11962
454.433 53.8756 7.97301
491.099 59.2738 8.78488
462.722 55.4261 8.34155
450.302 53.9056 8.27725
434.388 54.3172 8.3589
425.444 52.1421 8.13367
431.321 54.416 8.56109
407.849 51.8541 8.27894
417.337 53.881 8.65717
430.84 55.5651 9.02477
408.135 53.6409 8.85968
398.333 53.0854 8.78147
392.695 52.6715 8.80382
400.174 54.1069 9.23824
387.673 50.81 8.72719
390.717 55.236 9.46962
364.314 51.8989 8.92434
372.501 53.7289 9.58086
392.021 56.4442 10.0183
379.848 55.074 9.94232
349.123 51.408 9.39074
372.961 55.3844 10.2192
368.265 53.1663 9.86642
362.083 53.6052 10.088
341.131 52.2008 9.89532
342.297 52.4424 10.0001
337.953 51.6277 10.0114
331.538 50.6106 9.909
336.566 53.0219 10.3276
334.551 52.0831 10.3873
336.094 52.4762 10.4988
324.527 50.8216 10.2643
336.054 53.6942 10.9279
327.131 54.6535 11.2499
312.369 50.7228 10.6606
302.207 50.7985 10.7453
309.25 52.0166 11.0032
293.003 50.0067 10.7385
296.824 51.8167 11.1946
300.202 51.1968 11.2274
302.507 52.2127 11.3918
303.585 52.6775 11.7504
298.825 52.3007 11.8149
288.096 50.3902 11.2979
276.661 49.7943 11.3877
289.914 51.5253 11.8426
273.121 52.1226 12.0656
279.713 51.5655 12.0777
278.831 52.8007 12.4806
268.712 51.2044 12.2667
253.878 48.1089 11.4254
276.049 52.3912 12.7771
258.414 51.1839 12.6715
249.883 48.6478 11.9871
244.955 47.8131 11.8487
255.006 50.7978 12.6357
255.844 50.4472 12.7495
250.957 50.24 12.8924
246.774 49.7264 12.7418
242.801 49.3028 12.7734
236.869 47.9811 12.4818
249.865 50.5304 13.2737
241.887 49.7859 13.2163
232.144 48.5256 13.0342
232.112 48.7481 13.2436
230.338 48.7725 13.3295
238.521 51.4733 14.0654
220.632 47.928 13.3313
224.217 49.2438 13.8042
225.438 49.0282 13.6613
227.83 49.4733 13.8906
227.348 51.9962 14.8694
217.257 49.5608 14.3307
208.454 47.9221 13.9262
199.824 45.5555 13.4209
212.604 48.6057 14.2412
208.399 48.2873 14.2918
201.239 45.5835 13.7484
204.922 47.1727 13.9808
194.972 47.2268 14.516
199.017 48.4108 14.7647
193.989 47.0365 14.5709
207.858 51.9833 16.3827
199.846 48.1155 14.9756
186.206 47.0201 14.8936
197.661 49.1991 15.4863
185.496 48.5237 15.493
189.342 47.9594 15.5014
185.904 46.5956 15.33
187.034 48.1902 15.7197
191.364 47.1662 15.4126
183.027 46.5962 15.4185
179.094 46.0694 15.5647
178.974 45.6827 15.3691
180.505 47.7537 16.2737
177.167 45.9453 15.7268
174.828 46.0458 15.7489
173.485 45.3632 15.8209
173.337 44.9531 15.7963
171.944 46.7543 16.4337
170.668 47.4122 16.6529
171.829 47.2032 16.93
162.775 45.3618 16.1869
167.278 46.158 16.7007
170.818 47.3626 17.1466
162.741 46.8536 17.348
171.928 47.6496 17.6895
161.242 45.0822 16.648
159.446 45.3588 17.023
149.081 44.8161 17.0269
158.276 46.2171 17.6207
156.427 46.5696 17.6589
155.358 46.8576 18.063
163.049 49.0366 19.0487
153.846 45.891 17.7551
154.997 47.2097 18.6243
155.023 45.8815 18.1804
150.579 44.4307 17.5182
146.057 45.255 18.3053
155.508 44.9835 17.9486
146.794 44.3552 17.8768
144.627 44.5968 18.3404
140.927 44.6325 18.2505
138.253 43.2481 17.8979
137.97 43.9712 18.2123
146.344 47.1715 19.8701
137.838 44.7948 18.8747
138.37 43.4359 18.4407
133.994 45.0094 19.4292
134.922 44.4523 18.9177
133.159 42.7445 18.4691
134.557 43.8642 19.0683
132.187 44.9363 19.6136
130.133 43.4901 18.9991
130.217 43.4498 19.3643
130.602 42.616 18.8166
121.206 41.2605 18.5428
124.979 42.8599 19.3811
126.263 43.4648 19.4916
126.816 43.6638 20.0626
124.776 43.3128 19.7251
121.331 42.0716 19.693
120.847 43.6201 20.1789
124.669 42.5515 19.8491
121.512 42.6555 19.9666
115.212 42.8592 20.399
117.378 42.2033 20.1437
117.943 42.3128 20.0731
116.139 43.2903 21.0524
120.531 44.0106 21.5247
111.709 41.1068 20.0417
114.358 42.939 21.3569
112.792 41.9535 20.3878
112.1 41.55 20.7803
110.458 40.6777 20.4659
113.769 43.0172 21.3879
112.191 42.2888 21.1594
109.106 41.5194 20.983
107.739 40.3247 20.5538
104.245 40.8774 21.1824
102.378 40.5875 21.1932
107.499 41.4927 21.5307
104.673 40.801 21.3731
105.702 40.8831 21.2165
102.114 40.3393 21.4185
99.3838 40.9818 21.941
104.734 42.0381 22.2687
102.428 40.4885 21.7631
97.9137 39.6966 21.3783
102.45 41.3055 22.5032
101.329 42.3022 23.1563
99.8087 40.5428 22.1669
96.8035 40.0763 22.2289
93.5252 38.296 21.3928
93.2446 38.6945 21.5461
100.912 41.3381 23.0862
95.8089 38.5609 21.7172
96.1707 40.0816 22.6136
91.7008 39.1384 22.4401
93.1521 40.0349 22.9203
92.2378 38.7456 22.4571
98.8774 42.4596 24.5248
91.7424 39.0261 22.7943
92.2091 39.905 23.2913
91.5385 39.0922 22.9169
87.2249 38.0441 22.4947
89.6036 39.1086 23.1348
89.731 39.4596 23.45
90.1109 39.8443 23.9193
85.5763 38.9669 23.829
87.2279 39.988 24.52
86.0932 38.6695 23.5873
88.3323 40.3937 24.6631
89.157 40.0331 24.387
83.068 38.6997 24.3654
82.1904 37.3864 23.2373
80.9388 37.8738 23.712
82.7733 37.7347 23.3665
78.7292 37.7081 24.0022
83.0034 39.3991 25.2173
78.8312 37.7115 24.1859
84.6329 39.8196 25.4843
77.9544 37.586 24.0441
78.5342 38.5694 25.1746
80.1158 37.8615 24.6633
78.615 37.9423 24.8924
75.8021 37.2158 24.6169
74.8538 36.2086 24.0661
80.6611 39.162 25.6631
76.7368 36.5334 24.9212
77.0225 37.2427 24.7326
77.292 38.1358 26.3709
77.9666 38.8641 25.8594
74.4037 36.326 24.5399
72.2961 36.0418 25.1271
72.8248 36.2261 24.9315
73.5885 35.8536 24.6142
72.4308 35.3852 24.5235
71.4504 37.795 26.6125
72.312 36.5902 25.5336
70.5248 35.8023 25.4746
71.8128 36.3952 25.6197
71.2008 37.6015 26.7017
69.4234 37.0052 26.649
69.855 37.1214 26.5788
69.1238 35.4251 25.8862
71.3073 36.8639 26.6291
67.8416 35.8334 25.8489
69.0665 37.5655 27.6797
65.5008 34.6029 25.114
68.3823 36.7515 26.9923
66.8389 35.7964 26.6752
66.1791 36.1659 27.2771
66.4723 34.6093 25.5668
63.5903 36.0731 27.0148
67.3741 36.8731 27.902
65.0093 35.1854 26.8406
63.9249 34.7836 26.3332
62.464 34.0205 26.324
65.6386 35.2539 27.1052
65.4355 34.3628 26.4229
65.6817 35.3261 27.448
64.4002 34.9215 26.7694
64.1172 35.8947 28.1868
61.0989 34.5688 26.9206
59.331 33.2012 26.3915
60.6968 33.8309 27.0035
62.3374 35.039 27.9762
61.8121 35.495 28.7098
61.9174 34.2837 27.5245
59.7678 34.4329 27.95
64.5614 35.6513 29.0529
59.5955 34.4859 27.7418
57.6677 32.8444 26.9921
57.4946 33.3639 27.6098
58.0026 34.3043 28.0915
57.225 33.3712 27.7265
58.6627 35.2488 29.1754
57.1263 33.0267 27.736
57.9003 33.0872 27.8466
56.7759 34.8394 29.822
58.4793 34.4615 29.1816
57.1963 34.0945 28.4375
54.233 33.3897 28.5598
57.11 34.8219 29.7303
58.1951 35.7245 30.9651
56.8206 34.2944 29.3253
52.9995 31.6963 27.7596
55.1523 33.8541 29.2895
51.2825 31.7085 27.652
53.7026 33.9366 29.7857
53.1579 32.8192 28.8099
51.8584 31.7634 28.191
52.81 32.6898 29.1268
50.5716 32.1211 27.9413
53.7928 34.4991 31.2622
52.0077 31.8404 28.8414
50.123 30.8865 28.0973
54.2148 33.5782 30.2159
48.4451 31.5754 29.2253
51.7798 32.3026 29.0355
52.542 32.9921 30.2308
51.4866 32.8728 30.0663
48.4859 32.3505 30.3768
49.5139 31.173 28.9899
48.9822 31.3359 29.0867
48.1885 31.1756 29.4814
49.7457 32.4412 30.4842
48.2908 30.8353 29.0644
49.1251 32.7018 30.5721
47.0118 31.1543 30.5548
49.0318 32.6859 30.9626
49.0395 31.3222 29.9981
48.5786 32.6793 31.8432
46.4841 30.6908 29.56
47.2078 31.9852 30.9911
47.2622 31.791 30.6406
46.8304 31.9417 31.2384
46.6337 31.7154 31.0908
46.0701 30.7539 30.6275
47.9571 31.3752 30.4858
45.9199 30.8332 30.2759
46.2322 31.9225 31.8066
43.8912 30.2015 30.1396
45.7405 30.7475 30.9484
44.6555 31.8835 32.1319
44.1177 30.9044 31.012
44.1541 30.1777 30.7955
45.1944 31.2002 31.6816
42.1345 29.8078 30.3953
41.5119 30.1148 31.5063
45.0044 31.822 32.1899
41.6918 30.2971 31.4099
44.48 30.923 31.9414
43.3573 31.554 32.7629
42.5264 29.684 31.3736
43.6294 30.6095 31.619
43.4011 31.0039 33.0091
42.2619 29.8159 31.1781
40.9802 28.9768 31.3112
42.8509 29.3845 30.4548
41.5084 29.6323 32.2804
40.4848 29.9522 32.4951
41.7777 29.6087 31.6592
41.2584 30.9477 33.419
38.0017 28.4133 30.5846
40.2514 29.8586 32.7043
39.8202 29.3557 31.8791
39.1177 29.6078 32.0427
40.0581 28.7678 31.9698
38.825 29.4138 32.1918
38.2645 28.5104 31.9628
38.1806 27.0794 29.8383
39.961 29.4893 33.4547
39.4608 30.5004 33.9475
39.4537 29.6453 32.7433
37.2419 28.0928 31.9818
36.312 28.3394 32.8572
39.342 30.1568 33.9244
37.6252 27.9989 32.0821
37.9937 29.5277 33.2626
38.0824 28.6011 32.4237
35.9386 28.4855 33.6421
37.4202 28.3113 32.2193
36.1888 28.3348 32.6601
34.6771 27.1878 31.8299
37.2671 28.5099 33.6065
35.942 26.8584 31.8205
37.2335 30.3985 35.3946
37.1508 29.294 33.9435
36.0396 28.5258 33.1991
34.8227 27.7838 33.7208
35.1904 26.6507 31.8193
35.802 27.9494 33.2009
35.3433 26.3806 31.8651
35.2322 27.7946 33.1502
35.28 29.165 35.4636
35.1832 28.5067 34.2412
34.8044 27.8908 34.0929
35.5778 27.654 33.2635
32.9394 27.1919 33.8949
34.3103 28.2786 34.9082
34.7037 28.0757 34.1325
34.4804 27.266 34.121
32.8078 27.2477 33.1422
33.3649 26.553 32.7974
31.842 26.5344 33.4713
33.153 26.577 33.5913
33.4322 28.1173 34.5623
33.5316 27.0706 33.5387
32.3761 27.0666 34.5223
32.3195 27.3822 34.4922
32.9723 26.8236 34.5654
31.809 26.8791 34.1424
32.1229 26.3786 33.8488
31.2729 25.5541 32.9572
32.1924 26.9295 35.23
32.7061 28.1366 36.9299
32.241 27.0998 34.451
31.3332 26.5676 34.9264
32.3768 27.0877 34.7396
32.4738 27.1175 35.7338
33.0636 27.6503 35.3936
31.8461 27.5562 35.8544
30.7495 26.8782 35.8971
30.9836 26.1389 35.217
30.2002 26.7798 35.9019
31.0121 25.7821 33.471
30.4151 26.3011 34.8442
29.6252 25.9743 35.0693
29.5199 25.5882 35.2396
30.6489 26.6041 34.6831
28.5628 24.7988 34.1155
29.788 26.5662 35.7533
28.9187 25.7839 35.2392
28.958 25.9159 35.2867
29.2402 25.4483 35.2024
29.1889 25.5239 35.2599
29.554 26.8967 36.8751
29.3525 25.3639 34.9489
29.8037 25.829 35.6948
28.0225 25.1943 34.778
29.3395 26.0757 35.6748
27.3897 25.0146 35.0972
27.8722 25.0407 35.7991
27.5012 24.909 34.8161
26.7048 24.7391 35.5458
26.8313 24.4791 34.5068
27.8403 24.8992 35.047
27.2932 24.7774 35.3234
27.3729 25.0051 35.401
27.0191 24.7484 35.8869
27.6915 24.844 35.0955
27.0718 24.9532 36.2716
26.583 23.766 34.3117
26.8679 24.714 35.3342
25.4103 24.529 35.5359
26.2891 24.0241 35.0258
26.068 24.6922 36.1286
25.2671 24.9909 36.8004
25.3629 23.5372 35.2202
26.3607 24.0987 35.6242
25.9047 23.8949 36.1256
26.7271 25.029 36.6114
25.6668 23.1458 34.0236
25.0904 23.9438 35.4897
25.1665 24.1036 35.7824
25.1114 23.8896 36.2281
26.2581 24.1222 36.4544
26.3383 23.915 34.6993
24.8454 23.3242 35.744
25.5175 24.6616 37.0644
24.8872 24.0028 36.3671
24.7516 22.7487 34.4356
24.3213 23.0845 35.8437
24.6231 23.2408 36.1049
25.7958 23.5149 35.9619
25.056 23.1614 35.6411
24.6649 22.9941 35.085
24.6848 23.7265 37.2924
23.5138 23.5519 37.1071
24.3138 22.9231 35.3071
24.3285 23.9709 37.2175
24.4614 23.799 37.4242
24.0739 24.6565 38.5125
25.3087 23.9435 37.8128
23.1122 23.5304 37.7956
24.1861 23.4595 36.5636
23.0364 22.7445 35.6576
24.0407 23.8949 38.7227
24.7944 23.4922 37.5637
23.6935 22.6018 36.1502
24.7348 24.0632 38.1633
22.5676 22.9885 37.1288
23.5082 23.5161 38.1952
23.8318 23.7508 38.3139
24.2297 23.748 37.7465
24.1901 24.1313 39.3984
23.0452 21.9692 35.7378
21.9737 22.3121 37.973
23.5498 22.5853 36.5236
22.2084 21.9997 35.5057
22.1568 21.7281 35.7538
22.0465 23.1081 38.0456
21.5704 22.3972 37.643
22.5014 22.4482 37.3728
21.881 21.8902 36.5297
22.7139 22.5601 37.5358
23.0731 23.2632 37.4981
21.2348 21.8044 38.889
23.3532 22.6377 37.0636
23.5924 23.4648 39.0391
20.7432 21.5979 36.5073
21.512 22.2453 37.9454
21.3771 22.4482 38.4162
21.5612 23.1767 38.4176
21.4001 21.8828 37.8553
21.1489 22.3696 38.6721
21.3597 21.4028 36.2854
21.0061 21.8865 37.8336
20.588 22.2656 37.6914
21.2549 21.6817 37.7955
21.0798 21.7189 38.5922
22.1096 22.3093 36.9355
20.4396 21.7277 39.1564
20.7036 21.93 38.0196
20.4637 22.1614 39.0628
20.9406 21.6312 37.5963
20.3539 21.0658 37.9351
20.3408 22.3827 39.4404
19.9182 21.7296 38.8592
20.9731 22.103 38.5923
19.9834 21.8234 39.3083
20.1252 21.2259 37.8726
20.4706 23.0065 39.6346
19.3539 20.1433 37.4378
20.3731 21.5558 37.67
19.8044 21.3887 38.3966
19.327 20.5019 36.5501
19.1547 20.0078 36.1858
19.2074 20.6948 38.3663
19.1153 20.8242 38.9102
19.8087 21.292 37.4336
18.9233 21.1359 39.3327
19.8981 21.6784 38.6395
18.593 19.8796 37.7272
19.4492 21.1921 37.8575
18.2573 19.8711 37.0368
19.647 20.1219 36.5565
18.5565 20.6203 37.4976
19.033 21.2013 39.6787
19.1955 21.0041 38.4922
18.2839 19.7952 37.9687
18.6925 20.4223 37.4955
18.6842 20.4873 38.0367
18.5005 20.6526 37.0199
17.4306 19.7259 38.7644
18.6399 19.9648 38.0225
18.5609 20.155 38.0717
19.0308 20.3427 38.7395
18.0272 20.188 37.8456
18.7377 19.7398 37.1605
17.6307 19.2455 37.0893
17.7159 19.5046 37.5984
18.1093 19.7639 37.2767
16.7042 19.6259 37.7181
17.5296 19.9969 38.4585
17.4126 19.1622 38.1719
18.5707 20.3571 38.7528
17.7902 20.1852 38.4678
17.6493 20.4337 39.8021
17.8062 19.843 38.2085
17.1942 19.4771 37.4027
17.0807 20.0402 39.2332
17.3719 18.9521 36.8594
16.9877 19.9445 39.8125
17.5424 20.2474 40.0379
17.7414 20.3881 39.6543
17.2397 19.8565 40.1445
18.029 19.7952 39.115
16.9172 18.8902 38.1077
17.1 19.2197 37.6706
16.9314 19.137 37.442
17.0437 19.9332 39.6003
16.6085 19.1597 38.1575
16.038 18.7333 38.3087
16.263 18.4613 36.9524
16.2902 19.9647 40.2327
16.7606 19.9492 41.2028
16.3019 19.6359 39.921
16.629 18.2143 36.2577
16.6929 19.3446 40.0289
16.7601 19.0322 39.2243
16.674 18.5992 38.3784
16.5003 19.5119 40.3339
16.9951 19.1352 38.4994
15.9929 18.2333 37.0157
16.2305 18.6748 38.5877
16.6289 19.2731 38.9483
15.3842 17.9476 37.5678
16.0976 18.9195 38.2758
15.7896 19.1041 39.9773
16.3367 19.5585 40.4696
16.6868 18.4346 38.8144
15.9179 19.7247 40.6062
15.4311 18.1904 37.892
15.9388 18.2907 39.5677
15.671 18.4651 38.5784
15.358 18.6466 39.5456
15.1714 18.245 38.2347
15.7741 18.556 39.4092
15.2372 19.0738 40.2
15.9621 19.4897 40.8403
15.1259 18.7182 40.2781
15.3506 17.9715 38.6755
15.1915 17.9003 38.7674
15.0317 17.5284 37.9242
15.4431 19.1525 40.6745
15.5035 17.9218 38.6329
15.9585 19.2786 41.6407
15.1408 18.0206 39.2794
15.4978 18.6756 39.8447
14.325 17.0884 37.9744
15.1615 17.9417 37.4244
14.8562 17.3407 38.1802
13.9992 17.3246 37.6114
14.681 18.1607 39.8651
15.1793 17.4711 38.2299
14.1776 17.7801 38.5308
14.5616 17.6859 38.8045
14.9081 17.7205 38.7988
14.585 18.2377 40.9175
14.6567 17.4779 39.0128
14.5864 17.9389 40.1077
14.9811 17.484 38.1673
15.1914 18.9991 42.0652
14.2221 16.8777 37.7837
14.0819 17.0402 38.9662
14.0004 17.5878 38.438
14.0103 17.4369 39.0377
14.4821 17.0961 38.8353
13.5517 16.9803 38.1517
13.8036 17.6146 40.1569
14.3346 17.0241 38.5416
14.8513 18.1025 39.5968
14.0843 17.0768 39.4187
14.099 17.9459 39.6495
14.0334 17.5442 40.3753
13.6467 17.1548 39.2588
13.762 17.1956 38.6903
13.1723 16.8446 39.6065
13.5623 17.0291 39.3797
13.3418 16.7905 38.8802
13.5208 16.6934 38.532
13.2828 17.7927 40.9634
13.908 16.9305 38.3817
13.9604 17.2397 41.0063
13.9017 16.5895 37.3136
13.536 16.6303 39.0049
13.3717 17.8573 41.6207
14.0689 16.8743 38.842
12.9612 16.3715 39.4229
13.4427 17.5101 40.3445
13.7794 17.202 39.9104
13.5106 16.5122 38.7369
12.8456 16.3814 39.3309
13.7021 16.4507 37.5611
13.2141 16.3012 38.8389
13.1131 15.8451 37.3196
12.7976 16.5221 39.6685
13.3147 16.9051 40.7938
13.7717 17.3091 40.1287
13.5136 16.3854 39.2195
12.6559 16.178 39.4503
13.6729 16.5856 39.4326
13.7156 17.0764 40.2107
12.9761 16.5456 40.7302
13.3489 16.1773 38.8313
13.0485 15.6957 37.3282
11.9747 15.3259 38.7104
12.5818 16.8904 41.129
12.929 16.4785 39.1326
12.8911 16.3807 38.8198
12.719 15.8374 38.9608
12.408 16.1537 40.4379
12.9189 14.9424 36.7466
12.5581 16.1719 39.2953
12.5123 16.3583 39.3958
12.3684 15.6374 37.9838
12.261 16.6469 41.0644
12.6784 15.6488 38.2992
12.3784 16.297 40.049
12.6419 15.6233 38.4065
12.0968 15.3491 38.5828
12.5868 16.1384 38.6762
12.3806 16.0508 40.1879
