# pn-170911/CsIIA-40-USNO-1280-1959.psd
# Power spectrum* (dif=0,1,2) (really just |FT|^2)
# NOTE: only the first half! (symmetric)
# weeks: 1280-1959
# 8 clock-days, 3 excluded
# PSD: 1441
63746.5 5.21653 0.0126992
2.02735e+06 33.357 0.0331712
1.26552e+07 262.645 0.0326431
939700 54.0354 0.0213431
1.34061e+06 78.3801 0.0118172
336694 30.1523 0.023853
291357 38.3552 0.0372974
298973 72.1066 0.045407
82320.3 20.2622 0.0289715
162702 53.1533 0.0449133
73826.1 31.4574 0.0534913
79142.4 43.4173 0.0479526
112214 45.0797 0.0398165
45250.1 37.3652 0.0357439
63603.4 36.5614 0.0629434
73422.2 57.8665 0.0587343
80735 84.0215 0.0898156
49904.6 51.3333 0.0829172
45341.5 56.7734 0.144293
38618.2 34.3114 0.0646517
34698.9 56.6664 0.097439
27799.7 52.2514 0.101335
18246.8 38.7617 0.0716901
18566.2 33.0285 0.108671
36063.9 72.5513 0.280801
22876.7 39.3982 0.115222
14316.6 49.5028 0.191377
8656.76 32.1395 0.134258
10316.7 34.504 0.154917
15800.2 48.6275 0.264851
7636.95 22.9084 0.119824
20397 76.8495 0.384222
9418.41 54.1521 0.26069
8759.78 26.3108 0.198819
17111.2 65.7208 0.29506
5487.46 39.6507 0.266356
9542.6 72.596 0.469296
8218.34 33.7778 0.136971
10054.7 55.4926 0.441464
8161.65 69.5826 0.488258
12961.7 57.5781 0.413439
7018.22 49.7204 0.455134
4413.24 31.7945 0.224071
7017.02 59.3373 0.639452
5422.6 22.4348 0.29708
5472.39 29.5982 0.322674
5969.96 40.5823 0.431732
5562.14 53.7322 0.576774
4871.41 47.7735 0.546067
5574.86 52.3937 0.500467
2553.69 45.0585 0.570903
4194.13 31.7315 0.434631
3134.08 30.4309 0.390438
6716.06 71.0612 0.993398
5390.53 59.9048 0.676827
2974.54 30.3219 0.389153
4714.21 62.9574 0.853311
3892.26 54.2878 0.981033
4669.31 50.912 0.882921
7166.42 86.7073 1.39949
4070.79 63.5887 1.22669
2692.56 50.8607 0.878616
6142.84 85.4491 1.40146
2716.35 40.5135 0.87602
3399.45 48.7608 0.968606
4295.76 65.2769 1.40651
1855.13 36.3273 0.78392
4068.5 58.6672 1.2137
1577.92 18.6293 0.424012
4860 64.7111 1.42357
2541.37 58.327 1.38257
2600.11 39.6179 0.930471
1339.93 53.5924 1.3796
2283.59 45.2663 1.10896
754.047 22.5931 0.664938
1892.29 39.777 0.999358
2665.17 60.3539 1.73362
2079.18 40.991 1.25121
4302.24 69.3519 1.96542
2171.42 44.0292 1.44003
2381.24 73.8101 2.16903
2625.43 60.9848 1.95658
979.783 31.9339 1.01932
1322.27 41.9971 1.39214
1976.38 48.8406 1.68276
1354.13 51.5158 1.79873
1139.34 37.6667 1.38344
1179.84 26.5248 1.00876
2339.08 41.3371 1.5981
1182.13 35.6941 1.44633
3150.08 74.736 2.85734
912.696 35.7479 1.48371
1235.23 31.228 1.33552
1980.55 61.1952 2.63637
949.581 62.5663 2.49775
1725.66 69.0888 3.1847
1596.42 54.5786 2.30322
1823.59 61.4218 2.88725
1632.94 67.5769 2.86342
1082.5 37.4298 1.91886
1249.92 53.445 2.78342
1645.73 49.7824 2.27937
1694.6 75.7671 3.91694
780.757 16.6572 0.720354
2046.98 62.0586 3.28237
836.464 36.4291 1.99462
1256.58 27.7024 1.38767
2348.7 80.219 4.04338
913.281 35.8156 2.00385
779.595 45.4519 2.66758
1383.84 65.7515 4.01546
933.83 28.1139 1.6695
1319.2 69.6532 4.49389
1385.36 72.0558 4.08827
1750.69 69.9314 4.29512
762.442 16.2098 0.941605
1346.68 44.3389 2.73272
884.282 46.4365 3.18846
773.052 50.8071 3.29696
914.949 30.9557 2.326
654.769 37.1554 2.48952
1260.32 56.573 3.77705
803.982 52.9694 4.05393
897.741 27.784 2.09566
686.823 33.8997 2.65163
807.333 55.6154 3.97116
478.673 38.0627 3.03175
787.283 47.7315 3.55373
1552.95 76.1236 6.01061
788.833 38.9512 3.62477
452.052 27.2851 1.8073
699.141 30.7901 2.31008
745.702 30.3426 2.47197
463.476 42.9064 3.56533
557.782 38.496 3.18968
518.469 45.4163 4.03229
1132.38 90.6884 7.76331
393.294 47.2885 4.22155
463.754 41.6101 3.73819
313.769 29.6252 3.00658
1287.46 54.3132 4.61405
679.433 31.2065 3.11957
842.253 47.7719 4.74335
306.799 21.5586 2.27356
564.463 43.3259 4.14714
1097.71 79.3335 7.74075
431.121 19.1496 1.74631
622.539 58.4454 5.92934
626.386 43.7984 5.06324
365.513 35.233 3.3951
452.038 44.9779 4.7189
569.012 45.7333 4.81103
420.883 41.4377 4.57814
341.438 29.2962 3.27246
615.709 58.5833 6.61013
357.246 43.9554 5.20371
559.819 24.6002 2.85726
502.381 32.5726 3.3232
245.341 39.2289 4.77383
451.927 36.8342 4.73136
543.092 59.1879 7.52518
369.638 22.8284 2.68093
611.073 81.8429 10.415
752.006 75.3175 10.1443
374.474 26.2667 3.76645
610.601 71.4571 8.85571
689.594 45.3242 5.69788
662.411 86.6193 10.6463
371.034 33.5081 4.27049
437.477 53.1426 7.42135
741.919 47.3792 5.82633
455.975 41.6818 5.38207
449.68 31.7342 4.81345
486.471 40.1051 5.50326
203.334 25.8945 4.06616
631.81 61.6865 9.27451
442.371 34.927 5.16866
346.45 29.9506 3.93919
251.057 40.4208 5.98147
364.019 28.9405 4.25992
588.076 62.0372 9.58005
406.09 53.2239 7.77198
319.454 34.2338 5.66408
407.79 39.2944 6.24204
304.298 18.7019 2.82402
673.443 83.2664 14.3194
611.955 50.4807 7.44695
236.344 16.6549 3.08395
230.113 37.2561 6.35848
512.895 40.2473 6.2714
381.139 34.9914 5.8961
561.411 65.8345 10.7042
307.741 29.9719 5.14934
168.185 30.9175 5.22903
150.285 34.7573 6.38588
516.722 60.1097 9.9759
293.392 44.7015 8.23232
329.254 38.8469 8.13722
486.595 39.6734 6.73432
211.684 30.3386 5.59866
264.306 19.9979 3.32049
418.743 36.641 6.92916
302.973 61.0284 10.4662
349.302 42.7161 8.42925
376.302 54.1719 10.3761
426.667 66.0678 13.6744
148.208 13.7007 3.08421
231.022 34.0574 6.84169
305.195 20.6565 4.18186
237.839 52.0186 10.1471
353.525 66.3074 13.4196
293.617 51.1808 10.277
254.475 31.6023 7.49387
384.881 47.4281 8.9272
371.827 53.2067 11.3754
95.9345 20.0278 4.70392
197.642 38.24 8.4445
428.458 48.9482 10.5575
220.239 42.0287 9.63907
239.157 33.9435 7.06508
299.828 45.6506 12.1572
113.59 30.4195 6.99555
433.554 53.9557 11.8626
412.68 53.1263 12.273
162.118 41.8183 9.48437
235.249 30.5493 8.36203
342.132 43.8427 9.87952
235.265 40.9052 10.6467
237.321 31.6649 7.67024
198.827 35.2633 9.56899
324.53 60.459 14.1258
183.523 24.2758 6.3819
184.961 32.324 8.04409
264.957 55.8562 15.1357
273.602 35.1944 9.38271
289.121 44.3757 10.7598
210.862 25.7661 6.56075
139.612 38.4362 10.0242
130.908 29.0644 9.09601
280.235 45.3976 11.8617
179.166 20.7078 5.82157
192.632 49.4494 13.1358
147.998 25.1399 6.63305
280.758 44.7182 13.5233
315.136 44.2536 11.6411
179.244 44.0227 12.754
85.0993 17.4078 4.29864
80.6834 16.2186 4.75463
248.638 41.9504 11.6691
206.805 41.924 13.6653
167.487 20.3238 5.63385
153.603 25.4845 6.86287
211.524 49.4349 12.7338
197.699 51.7915 16.2097
143.631 25.3089 7.48244
386.399 73.1478 22.5416
132.442 34.4704 11.0434
350.124 57.4974 17.4325
121.876 21.0328 5.30849
220.041 48.8067 14.0902
152.315 31.2378 10.306
141.226 19.4249 5.95542
195.837 29.8937 9.63698
143.055 36.2917 10.6869
116.1 30.687 11.3152
93.4483 35.37 11.6762
181.99 29.3773 9.88871
181.249 33.3295 11.2139
136.239 30.0645 10.3753
220.618 32.2924 10.0105
175.25 46.6425 17.6731
115.809 29.8982 7.71277
184.412 57.9089 19.3175
123.133 28.9868 10.0633
214.768 39.1422 14.1037
56.9602 31.2653 12.1396
165.474 29.7479 10.6941
151.066 33.4125 11.166
108.411 29.9182 9.2615
169.079 29.2735 11.8581
79.0976 30.2307 11.135
181.127 45.2859 17.1891
153.589 37.8046 15.0083
183.561 44.8489 17.4871
183.678 36.1165 10.9752
164.936 31.9938 11.3173
92.4064 28.1584 8.55271
43.5581 35.4854 15.8518
117.449 16.4043 6.93671
180.648 39.6407 15.2094
149.786 31.4023 12.2854
168.382 39.3647 14.353
117.962 18.5826 6.97418
59.1991 31.9426 12.9494
163.699 28.0007 11.347
217.751 63.0226 26.4178
213.954 48.0712 16.863
117.671 24.7086 10.1487
120.649 21.1695 9.23707
210.582 63.2611 28.1773
144.28 35.3298 11.6732
222.116 47.1168 17.6868
151.176 61.3697 29.7103
124.944 28.25 12.6403
290.569 64.8462 23.3452
124.76 31.4546 14.3301
134.069 30.2489 13.5304
259.144 80.2054 33.8509
39.9893 22.7566 10.6891
43.7924 29.4742 13.1736
99.2144 42.0834 19.5223
73.7528 9.87844 6.35216
137.271 28.4405 12.5437
89.5361 33.4834 13.0474
135.395 27.7892 12.9852
79 32.3006 13.9598
180.508 52.1759 23.6359
163.269 44.3546 21.2177
112.285 35.8426 14.9685
77.0817 23.5655 12.4515
81.7234 21.0226 9.56125
148.494 40.493 16.9468
75.1788 30.3563 16.711
95.79 42.0686 20.1496
58.5998 14.7331 7.0125
91.8194 17.0111 8.54634
89.8881 24.135 10.4794
87.9935 23.469 11.694
165.027 46.7291 21.6163
179.243 57.2601 29.9465
79.5763 25.7942 15.1232
60.3189 18.6302 7.49695
60.2594 25.4244 12.9312
146.916 41.3397 19.1005
162.664 74.8282 38.0986
96.1239 28.4448 13.3844
108.57 37.3961 20.5375
55.0808 13.6507 7.67661
68.4896 29.0957 16.2641
108.004 20.7557 9.18018
79.0053 26.864 16.0993
89.2595 20.3137 9.81516
124.509 30.7216 16.5896
83.325 16.1275 8.49146
94.1854 31.5614 15.4381
79.6281 27.9608 15.4232
59.4464 19.7989 9.90019
93.39 30.7749 16.9574
71.2641 17.5797 8.13718
110.763 38.066 18.8081
66.5739 27.3452 16.3319
71.9803 27.8996 16.9162
55.9103 25.1942 13.9519
74.9661 26.24 15.8391
49.9328 12.5642 6.68706
87.6995 21.8306 12.4968
73.9266 19.9305 11.8721
57.5919 26.0237 12.2369
83.2438 26.7841 16.8302
52.6262 21.2672 13.1458
97.3693 53.1428 29.2992
51.6942 22.8383 13.0702
122.86 35.5786 21.9711
68.7651 38.3363 21.5838
85.1269 36.7124 18.2245
61.3408 47.3938 29.7985
57.7766 24.3275 12.6668
58.653 34.1991 21.8296
80.0674 31.6499 18.9085
63.7092 33.7721 21.4893
102.715 29.6544 18.6996
98.8308 41.5105 23.2567
64.1395 18.4435 10.1033
94.8689 52.5348 31.3402
93.526 38.8138 26.6588
39.9845 9.61211 8.64491
67.2048 22.3071 13.0005
51.8346 14.4989 8.43851
83.0479 40.2485 25.5459
44.4479 12.6662 10.9974
32.3983 11.4055 7.39658
53.7378 26.4153 19.0209
91.0034 25.093 15.0941
39.8763 18.4787 9.77638
71.1558 34.145 23.1509
62.7383 17.1543 10.7342
65.048 24.0611 19.8615
76.7024 32.8853 20.9747
52.7012 31.2216 24.1501
59.4717 14.9668 7.64549
103.694 33.9099 19.9682
40.4082 20.0964 14.3926
56.3461 16.5935 11.6225
67.61 25.6607 18.0873
52.3335 24.6011 15.145
60.4141 28.1908 18.4919
79.9056 28.3951 20.5621
66.1836 35.7142 28.7213
39.849 25.0134 15.6759
32.8508 18.1375 14.202
53.0787 25.0414 14.4123
24.4609 20.8414 16.0458
30.0241 15.0796 13.1405
48.088 21.482 14.4094
65.4244 22.028 17.5173
69.4701 27.7294 17.1951
58.0189 25.2681 21.8041
71.6402 39.8422 33.3967
34.7432 20.9682 14.2408
57.1895 21.186 12.4799
74.093 46.0589 35.7714
69.3274 34.6138 24.0007
45.8896 22.7423 20.3993
34.5651 22.5293 17.0443
76.855 27.2273 20.4804
41.5213 15.0564 14.9797
100.878 59.2813 40.5302
52.7771 19.9816 17.2529
40.6814 30.58 22.6393
68.9319 38.7632 29.2947
60.5377 25.0777 16.2283
51.668 23.7739 20.1944
50.9571 18.4182 14.795
52.3554 31.9676 25.0746
34.8579 15.09 13.7122
52.6239 32.8454 36.8908
61.3092 35.6705 22.6071
78.5225 42.9099 30.1971
52.0277 22.9692 20.4533
60.0904 33.3 27.4462
52.2543 24.7544 15.3877
82.1204 48.3989 40.308
38.7041 14.352 16.6119
76.4238 35.487 28.3369
42.7881 23.3485 18.6324
65.6139 35.5795 29.2914
37.1004 20.9626 21.7301
52.7424 28.847 19.275
20.0175 17.8528 13.866
21.3063 17.382 15.9954
42.4793 31.1977 28.8963
54.1278 33.4606 36.1696
36.8055 22.4165 21.7986
70.9017 47.0903 33.5029
41.9048 18.7884 16.3676
50.1684 27.5741 19.7593
56.8557 20.6172 18.6381
55.98 20.9654 16.6188
32.6339 16.1043 13.4667
58.5641 24.2901 20.6556
30.3507 23.7066 20.4319
31.2925 13.1696 9.70109
27.0203 17.2602 15.9221
55.842 25.8424 20.8653
53.4491 35.9982 40.436
30.6235 20.9313 22.5434
76.5737 34.6343 28.2116
76.8719 36.4748 29.2295
34.2377 18.6508 19.6541
49.4585 30.0016 30.9854
52.2137 34.4526 29.153
60.9401 32.2737 25.0892
22.5964 12.8832 12.2986
37.8694 22.3997 22.7077
28.8918 15.7962 19.3289
43.4276 20.194 18.3131
53.14 24.0769 18.9234
19.9123 15.8134 18.4053
57.6626 23.4339 16.7225
50.3285 35.1744 39.9467
41.2491 18.2267 17.636
42.4797 16.8933 16.0489
34.382 27.6743 26.7758
19.4778 11.9828 10.4418
29.013 22.894 22.5399
49.8626 35.7775 30.4108
23.9688 10.2312 9.3031
78.8987 71.3523 70.0093
53.2486 40.6139 48.4563
36.834 17.848 15.0593
48.6628 34.5852 30.5929
24.3987 11.3484 15.8565
48.9427 20.7885 18.962
25.4613 25.6227 23.6254
26.3594 13.6906 19.4055
27.6856 24.1563 26.8984
45.088 28.5352 26.3771
41.7478 28.634 38.4606
48.3606 30.6042 23.3506
22.532 6.83962 8.52003
23.7372 11.9735 8.84321
31.9559 15.0794 17.4539
49.7965 28.7721 30.8897
33.8966 16.544 14.4831
25.1217 18.5501 21.5139
32.9021 13.8575 14.7427
20.1335 14.2026 15.1804
28.1484 21.1911 20.4573
15.8387 7.12668 6.89155
14.2534 13.7083 15.9013
29.4417 11.9328 12.848
43.1909 25.3516 27.7446
38.9761 26.2666 29.3616
33.9276 24.763 30.6537
54.9357 39.7756 34.6138
28.3819 23.5404 29.0878
40.6588 30.4308 34.2182
41.3495 21.4724 28.802
47.7976 16.4002 15.1259
14.9343 17.7953 23.4265
18.7634 13.8783 20.3309
46.6833 40.5541 36.7063
27.5041 13.8649 15.007
31.3933 26.0168 43.0139
55.9046 33.1609 27.8268
29.4867 12.5669 19.0513
39.4099 30.8491 29.0272
47.3501 23.3644 23.0914
33.8145 18.2632 24.8605
51.2373 32.5164 29.9115
21.9008 14.5196 14.5843
27.8857 26.6269 27.4294
37.1349 21.6716 35.2903
40.0644 24.3759 21.6369
29.5355 29.2945 26.4518
22.4607 12.9985 15.8667
38.5629 23.8161 26.668
41.678 35.1445 47.4023
25.9316 10.6923 10.6943
20.8102 15.6469 19.7463
23.1142 16.6703 31.9314
60.5283 31.7975 26.2734
27.8427 20.9895 33.803
34.7204 13.9923 23.0026
49.9388 20.9322 21.9958
25.7673 22.7767 25.4895
43.3969 33.8282 39.7308
32.0996 17.7459 20.4591
26.2954 15.2191 18.5708
26.8213 18.7408 23.6094
21.73 11.033 10.9081
24.3505 14.6657 23.9762
23.5492 21.856 21.4528
29.1587 10.3056 13.5096
36.6805 14.1431 11.5394
15.874 21.5817 24.602
27.1147 27.2981 48.8626
31.7962 23.1172 20.0847
24.0111 12.2005 18.7203
31.1324 18.662 18.5275
32.1858 28.1225 33.4311
29.0642 23.7037 35.062
28.5712 10.4966 16.213
29.912 17.2514 19.8319
19.8582 15.7658 21.7283
27.9572 6.65821 11.9939
26.0408 24.4692 36.5395
36.2801 23.6217 25.7526
32.8586 19.2797 21.5277
25.4126 9.03591 13.2479
17.7597 10.5584 15.9583
17.995 12.04 18.6915
28.9003 18.7309 30.8459
18.0214 16.285 18.911
28.7962 28.0198 40.1646
39.8855 21.7827 27.3594
30.7929 18.7497 23.568
23.6836 29.7492 42.582
13.1748 5.82213 6.33886
33.541 21.4035 25.6033
33.971 28.7439 43.3474
36.6712 20.1196 20.4558
13.934 13.3116 18.3653
24.6623 19.0669 34.7556
20.3068 21.7008 32.0175
35.1166 17.9069 15.875
32.152 23.947 36.7747
31.342 24.1045 41.869
44.6516 26.1197 31.2799
42.3973 19.3857 23.8804
35.7514 22.439 22.5469
20.257 13.9948 17.9826
15.5833 15.5463 23.0045
37.5225 15.1391 15.7441
12.3383 15.9796 29.975
35.9011 24.1959 40.8925
31.565 13.668 16.8359
17.6522 10.7934 17.2
33.9702 22.7243 29.2866
29.6836 20.2263 26.3786
28.6522 18.3673 29.3751
22.7957 19.7156 28.4055
30.0043 22.5393 28.4492
13.2106 5.33591 13.1917
23.8743 23.383 23.6012
28.1619 15.7946 21.8627
24.3577 18.5739 31.2702
30.8948 18.1264 26.013
30.1868 17.6337 21.5604
16.9774 18.825 32.429
13.4571 19.157 30.9531
37.2759 55.2799 79.241
31.3606 23.3885 34
25.207 17.3364 22.5866
21.9744 12.9456 18.5678
20.3887 22.591 32.1042
8.42242 11.3573 36.5378
34.3752 30.1816 40.6282
12.0403 10.5983 22.1319
31.4743 22.3466 25.2849
24.6506 21.2051 37.165
40.6051 32.082 36.3098
21.667 22.3056 33.9758
16.0133 10.2431 23.5939
24.6563 28.9122 37.1357
14.2966 14.4576 28.9037
19.5829 7.26429 12.3312
16.799 12.0531 22.2035
27.3696 20.4279 35.9997
20.0458 13.2812 15.7324
21.1675 14.6483 19.3326
34.7597 23.3204 44.0734
21.0375 18.052 21.8571
31.8882 14.5846 27.0401
16.4069 15.8463 20.8156
20.7608 16.8202 31.3194
36.1983 26.5341 38.8479
19.0895 9.57704 13.9224
18.3586 8.24772 17.7914
16.5352 11.183 27.9388
18.4801 18.3065 30.073
22.7682 30.1307 37.7473
23.6627 10.8604 22.7407
21.9288 18.2231 20.8116
16.6808 17.9541 45.3997
35.8921 24.2253 38.1259
22.0589 21.9796 27.7188
22.3683 14.1251 21.3566
21.3595 8.46058 17.326
16.8554 26.4216 49.7211
32.2236 27.1126 40.1554
25.3995 18.8721 24.4915
39.2076 18.3009 29.7217
18.8743 23.3615 39.8146
26.1957 33.8586 44.1986
11.5467 22.5494 40.3743
14.6291 9.70675 26.8627
31.2179 17.5619 24.7134
15.768 10.4773 15.9695
17.0693 18.4591 34.8166
19.8207 13.3768 26.6508
18.9548 15.9452 21.423
14.9732 27.4917 42.0453
14.4043 19.3221 49.4738
26.8943 11.8939 27.3355
9.52548 18.2208 20.034
24.7784 14.4296 28.3745
21.5961 17.3527 30.0245
29.6709 26.2891 38.7419
20.4564 19.5591 33.0171
23.0923 15.3022 22.826
19.1322 11.8124 25.3474
22.6373 27.3036 48.8104
17.7906 16.7138 28.412
12.8803 13.1708 22.1844
17.9661 29.363 44.748
10.1842 15.9992 35.7099
19.9591 11.0766 22.802
21.6308 10.3002 25.9822
28.8324 19.2342 27.0282
29.7961 13.6642 18.3736
11.7776 12.828 28.7503
11.073 11.353 14.1868
27.0492 23.3193 41.3722
24.8691 25.6211 39.4212
25.1609 15.3362 24.8008
19.4267 25.7558 49.5957
18.9703 14.7348 38.0923
18.3061 19.736 28.4739
17.3394 32.9524 62.9438
29.7691 24.7081 45.5461
12.2767 8.58253 16.8245
10.3507 11.6362 29.8405
9.81916 6.57437 15.3657
17.9283 10.5521 12.9498
13.741 6.43352 17.021
17.8384 8.5534 12.7561
19.531 24.5674 40.8559
11.1885 11.6228 19.9013
22.3907 26.7656 67.4219
25.3914 21.519 26.8941
19.5604 17.3492 25.0752
12.0365 9.68884 13.6836
6.39419 9.09815 19.7173
19.9583 20.2494 58.4431
25.8436 19.0208 22.1607
16.1593 13.2456 24.5801
11.7938 12.3984 29.972
20.7579 8.90955 12.2994
17.4989 15.4561 19.5013
14.7852 23.9913 53.2254
30.9809 18.7378 28.99
13.2564 13.3109 20.1533
9.52346 18.7792 47.7885
13.6186 11.1567 20.4331
18.6073 10.2551 18.1901
17.1628 14.3622 30.5313
10.7979 11.2132 16.8779
16.9669 10.8756 29.8216
10.7333 13.9763 33.0934
19.6102 15.5218 37.9167
29.317 18.2991 22.4855
12.1182 19.0277 38.197
17.9497 11.5255 17.85
7.4773 9.87306 24.3212
14.2496 7.00298 24.1009
18.6746 12.8878 15.2601
19.6932 24.342 66.7052
20.596 12.3532 11.1887
12.4654 9.90164 21.4905
19.802 17.158 23.3295
14.3596 14.9639 36.7686
12.8105 17.1377 43.9021
27.8746 29.6801 49.7534
20.6496 10.0417 20.1925
21.0261 11.7921 16.953
9.22754 19.4731 39.9455
11.6867 18.877 29.2249
13.9316 12.8398 29.8612
17.012 6.10124 14.628
12.175 21.0017 37.3577
20.6467 7.54827 13.1653
11.9465 8.36166 21.0515
16.9281 20.3735 36.3564
14.7054 7.6663 10.0623
6.41101 5.46078 17.4242
16.0158 13.7405 14.615
7.62334 15.2636 34.1886
15.0532 9.47166 21.7256
18.7919 26.5996 58.2636
13.4015 13.3033 32.0033
12.6472 16.1942 25.5964
10.3265 7.44077 25.1191
14.5622 15.4983 43.1518
14.3073 25.1601 60.8646
14.9134 11.6129 18.1632
11.3202 9.63816 16.9884
11.8129 7.80506 17.4914
15.3019 13.8085 32.823
10.4823 7.28927 22.5412
15.2865 15.9268 24.4421
4.53466 16.0199 41.5597
16.5366 18.1095 37.9077
27.4397 28.5837 62.0764
10.5747 8.08707 11.9419
14.9529 12.0569 36.6093
15.3321 13.0867 32.4866
19.3675 27.5714 38.3753
10.8766 7.32552 18.9003
14.1055 10.187 27.9296
14.6393 14.9288 25.6871
9.03488 10.9375 29.797
21.9472 23.7358 54.288
13.0968 15.5633 46.594
21.412 26.9912 43.642
10.2945 18.522 48.1359
12.5356 10.8656 18.1939
10.9519 11.9924 22.8423
6.14813 8.90889 34.7338
11.9156 10.5656 18.7947
8.15027 11.3127 27.926
19.8275 16.4855 41.0563
13.6373 15.3076 32.9522
13.9411 13.8749 22.8595
19.909 36.5668 62.2636
6.53286 16.6436 59.3502
7.62765 14.2332 52.3506
9.57629 12.9068 17.4004
11.5094 19.4703 32.1477
10.5806 13.4941 23.5107
11.1209 14.8179 25.4208
9.22135 8.16366 26.1039
12.6084 19.7214 30.6312
6.9343 8.52332 23.2366
8.50437 7.89571 16.7673
7.18761 18.2834 37.3263
16.5432 14.6847 44.2286
13.3494 16.0303 34.1845
10.9477 14.4465 45.4424
17.6882 12.8358 23.2666
9.73985 15.1446 43.9666
9.09116 8.47642 9.83451
8.24525 14.2931 43.2942
15.6332 7.01179 15.14
10.1573 9.90241 12.3517
7.05233 9.51733 28.927
10.5355 10.4892 16.0324
10.6788 9.41586 28.312
9.45516 14.2688 40.7473
13.7028 26.3355 50.5101
16.3699 15.3098 36.2069
10.6146 7.05294 19.394
10.9945 6.32512 22.0198
6.61641 20.7497 40.4117
15.9825 18.9639 50.6196
14.938 14.5636 30.9969
10.9074 18.4638 44.6621
12.74 12.2055 28.2008
8.57589 9.0183 18.2106
19.0338 23.236 63.1383
13.4722 15.2694 38.1736
13.0257 16.3108 38.7755
12.598 15.97 36.0163
5.67598 11.4614 16.5987
9.01815 9.16036 23.742
10.9337 12.6985 30.0719
7.89864 9.46318 17.2762
10.3017 8.4467 21.6808
9.03086 8.25712 29.0205
11.3485 11.2063 16.0322
8.5764 13.4892 43.2556
12.2476 9.73786 28.6314
15.0091 15.7561 38.592
16.9348 16.9742 34.005
8.58049 8.13706 17.2052
9.4803 11.8093 33.4157
11.0748 8.2683 17.7836
4.22784 4.82654 11.8995
9.46446 5.43338 11.6389
5.90941 7.3975 10.5559
4.81517 9.69054 35.688
16.0025 19.2944 43.6552
9.17096 5.82138 19.6607
