# pn-170911/CsIIA-32-AMC2-1280-1959.psd
# Power spectrum* (dif=0,1,2) (really just |FT|^2)
# NOTE: only the first half! (symmetric)
# weeks: 1280-1959
# 42 clock-days, 14 excluded
# PSD: 1441
215732 6.80174 0.0241331
5.94802e+06 53.1706 0.0484729
5.19508e+07 1174.34 0.0667676
4.00474e+06 125.224 0.0517783
1.46347e+07 1055.86 0.129794
1.54636e+06 143.133 0.0570009
924846 122.099 0.0670193
634919 90.4386 0.0660296
437026 121.532 0.0963353
346724 108.768 0.0883245
310116 88.7397 0.0849946
229630 105.105 0.104787
270214 123.784 0.134251
262961 120.814 0.136221
139970 89.4826 0.150544
154149 118.906 0.183619
104370 91.1672 0.155069
126304 129.851 0.236122
111269 107.386 0.23734
88766.7 119.776 0.281516
69434.7 98.5225 0.232805
76558.9 125.923 0.269674
43859.9 86.7608 0.239969
53844.7 100.458 0.300635
46653.2 101.66 0.335029
44489.6 99.5405 0.332446
43902.8 98.1744 0.324568
48483.4 145.703 0.513129
32539.7 84.8271 0.356521
33285.7 90.3261 0.422885
37671.9 107.786 0.489106
23354.9 99.8998 0.438788
24035.5 104.721 0.574996
34657.4 141.375 0.84193
29678.4 115.531 0.675255
22268.3 118.08 0.795813
18697.1 91.0136 0.642328
23537 102.196 0.733026
24785.5 116.757 0.87617
19103.8 103.62 0.730446
21206.3 129.409 1.02008
15634.2 76.8887 0.71232
13348.1 92.0465 0.768909
15667.2 122.494 1.16849
15980.2 108.248 1.00484
15744.6 104.675 1.04936
14523.7 108.442 1.16093
14517.1 105.733 1.09875
13146.6 105.924 1.19688
10370.3 90.7615 1.10328
10486.3 92.5102 1.19195
9114.64 91.2699 1.17419
10349.5 103.701 1.33833
12986.7 116.119 1.56739
9667.12 110.202 1.65361
10675.2 112.018 1.63885
11203.4 119.043 1.73264
9268.51 110.194 1.7099
9696.02 128.868 1.93949
6819.38 79.9091 1.34437
7342.03 88.5026 1.50489
8418.69 96.5743 1.78252
7616.77 123.434 2.27103
6339.44 91.7414 1.75523
6690 105.838 2.03042
6998.18 115.64 2.34735
6399.47 86.6211 1.83953
5271.35 89.9981 1.9267
6357.93 106.689 2.35132
5178.9 99.6067 2.13144
5156.41 90.1213 2.06418
5985.41 87.6337 2.16756
5502.81 85.8138 2.11186
4692.39 87.1798 2.15855
5453.46 98.3331 2.49295
6544.82 114.514 3.09433
5423.88 118.369 3.26544
4800.49 106.264 3.05039
4363.84 127.192 3.73658
3708.81 80.1651 2.36898
5541.75 116.715 3.51539
3071.95 67.2251 2.0846
3579.44 93.7091 2.93106
3749.58 74.8064 2.36986
4475.02 87.8956 2.99318
3312.02 81.8088 2.74036
3500.37 93.9128 3.35849
2824.81 69.1748 2.4451
4063.97 97.1615 3.60757
3033.53 96.7348 3.59838
3122.3 76.9596 2.82779
2810.68 81.3424 3.16223
3097.17 85.3075 3.46643
3050.15 70.9913 2.89538
2727.7 67.9788 2.89404
2907.12 77.1667 3.16887
2880.39 100.361 4.20813
3222.83 112.327 4.89725
2365.49 76.3119 3.5584
2945.1 83.9423 4.06604
2712.87 87.7948 4.18428
2520.73 88.2064 4.17055
2150.92 76.7484 3.79204
2608.47 71.0294 3.41677
2003.15 77.5206 3.92022
1831.39 57.9377 3.06317
2364.05 66.0207 3.56929
2477.47 86.873 4.79284
2034.1 74.5678 4.03597
2115.93 79.0083 4.52916
2225 68.8295 4.0568
2335.36 81.9455 4.70958
1497.33 47.1192 2.74758
1391.95 64.2191 3.93115
1921.26 70.3416 4.47848
1864.16 76.405 4.65031
1540.23 59.8184 3.85843
1669.94 65.5368 4.23717
1809.24 77.1663 5.02519
1184.48 48.926 3.35296
1198.69 48.1886 3.22494
1253.79 53.3649 3.84675
1491.88 65.5965 4.77417
1686.62 74.1276 5.1765
1481.41 55.7665 3.89456
1638.4 74.2419 5.26385
1624.32 81.8993 6.41288
1284.08 69.9874 5.3333
1626 70.1967 5.56053
1268.68 66.0284 4.76967
1220.8 65.1302 5.04304
1203.87 59.0961 4.8019
1265.47 59.2533 4.88203
1056.56 59.7587 5.13153
900.433 44.7767 3.73049
911.7 56.0712 4.83736
1160.91 63.0312 5.48874
967.711 65.0641 5.46903
1146.16 62.61 5.87739
949.191 51.8198 4.70499
908.534 52.3692 4.97087
752.495 51.0145 4.85391
845.29 38.9464 3.55326
807.084 58.662 5.69398
972.902 61.549 5.91297
716.381 41.6137 4.20474
1069.54 57.3215 5.66317
809.38 45.1162 4.63386
837.765 55.8847 5.72024
736.285 55.0406 5.92395
689.061 42.3302 4.45749
704.369 40.695 4.42816
927.945 53.3143 5.83701
663.155 36.0361 3.89863
832.217 50.4403 5.50202
745.293 53.3479 5.99014
642.772 37.0877 4.22928
753.857 46.9234 5.25835
786.625 46.809 5.62937
765.56 52.9193 6.04865
830.598 42.9835 5.20362
687.722 35.3912 4.38849
633.858 38.8112 4.51232
471.077 31.1706 4.08161
633.833 43.2155 5.52036
657.926 43.4951 5.79563
530.815 32.4738 4.03064
548.978 36.0475 4.87261
495.897 36.1011 4.67949
527.096 33.7681 4.45568
634.501 40.7883 5.17991
550.798 49.1313 6.68838
526.142 31.8227 4.37813
496.495 39.4755 5.60853
444.504 34.424 4.92651
590.281 38.2179 5.52724
463.126 26.7317 3.84963
463.436 41.9849 6.38017
571.231 31.5538 4.60506
550.87 34.7234 5.48634
501.349 38.1568 5.78724
453.913 41.875 6.36095
586.572 42.2155 6.50132
464.516 42.6893 6.62617
447.035 34.2377 5.43181
434.8 32.538 5.45589
433.103 35.2087 5.69629
426.664 35.7253 5.659
371.589 21.1581 3.70632
539.531 38.9743 6.56046
445.631 37.1699 6.37828
538.494 36.417 6.31036
420.631 29.6564 5.12578
410.025 26.8054 4.51495
408.835 30.3886 5.32565
364.962 34.6466 6.18569
503.365 30.1839 5.75131
349.828 26.0071 4.60705
335.814 25.6656 4.44669
388.957 34.4908 6.46135
395.946 32.2624 6.25889
407.944 27.0444 4.85732
375.536 33.4503 6.47803
309.222 28.8135 5.76292
414.464 26.6943 5.00611
364.353 28.0884 5.46381
320.607 25.5526 5.42407
397.041 28.5872 5.42175
309.098 23.6199 5.02055
284.324 28.1799 5.50242
343.316 33.254 6.96005
367.087 24.3862 5.14263
239.594 23.914 4.98531
363.037 25.4725 5.25849
287.272 28.8907 6.37234
295.374 26.4319 6.0303
290.207 26.654 5.68654
370.544 31.2181 6.87934
360.036 35.6366 7.74536
284.178 25.8253 5.69581
277.517 25.0774 5.58353
279.784 25.0009 5.88095
237.122 25.4616 5.77243
262.837 20.8861 4.9382
329.596 27.0734 6.40392
259.6 26.115 6.02337
227.417 23.0959 5.9351
268.411 27.0044 6.24766
329.105 32.2139 7.97266
255.257 27.1781 6.45709
271.62 24.7405 6.14484
241.731 24.2944 5.71346
257.804 19.8805 4.87011
228.362 25.3523 6.66056
269.181 24.8515 6.66968
290.935 21.511 5.29609
286.895 27.7339 6.99753
204.876 27.0623 7.28934
251.136 25.3443 6.56208
281.893 22.5044 5.59448
251.365 27.6292 7.67384
269.826 18.9414 5.08184
233.595 22.0635 5.93267
250.409 24.7641 6.95781
212.339 28.3259 8.11155
188.044 23.4448 6.49491
253.098 16.3129 4.55162
239.782 26.3147 7.55807
197.32 27.3345 8.0915
173.413 19.0638 5.66889
204.278 21.1191 5.85063
167.367 15.0234 4.29593
197.334 23.9154 7.18919
220.627 23.713 6.86362
229.247 21.575 6.53847
191.018 21.4849 6.69057
203.938 16.3161 4.67531
199.887 18.9617 5.7141
210.039 22.6394 7.0329
233.314 24.7696 7.54787
236.052 23.4675 7.10167
174.53 21.3544 6.61189
133.873 21.2941 6.86526
181.934 20.2695 6.58382
194.268 14.8491 4.58868
175.924 23.1947 7.27879
190.296 21.8864 7.25066
166.319 18.0861 6.06296
147.417 19.1877 6.431
162.802 15.5264 5.27791
179.695 18.5377 6.18186
181.707 21.7209 7.59558
168.198 18.7055 6.55571
164.759 17.7009 5.97333
174.918 18.8864 6.27718
170.931 19.6205 7.19495
152.105 17.9664 6.27331
157.808 18.1246 6.53787
155.73 17.404 6.2525
157.077 16.8397 5.78436
143.468 16.4642 6.01891
164.199 22.3809 7.98607
159.264 17.6093 6.73852
134.122 18.7979 7.00724
183.415 18.8179 7.06009
145.623 15.3554 5.75274
126.834 14.5073 5.56068
132.965 14.3634 5.67744
158.283 16.202 5.96319
161.925 16.7089 6.33294
137.475 13.2408 5.4267
132.216 16.9786 6.12731
151.857 14.2212 5.99027
130.756 15.2908 6.03974
113.956 16.7633 6.79506
145.155 16.9689 7.26758
141.905 17.3851 7.24869
131.511 19.7495 7.94444
134.432 14.936 5.88987
162.423 20.0491 8.28796
148.978 20.1213 7.91579
116.789 12.9462 5.32892
126.468 14.3313 6.23339
144.303 18.4375 7.22939
120.692 15.5367 7.01983
125.264 18.7601 7.84482
115.813 11.7588 5.12379
125.959 16.0585 7.1611
151.233 20.6244 8.60139
117.37 14.667 6.26616
119.492 9.9183 4.4802
110.643 11.9662 5.05376
109.27 15.0882 6.86912
114.916 11.5556 5.2731
121.458 12.9325 5.99157
120.712 13.455 5.9972
112.451 12.3782 5.23597
123.634 9.92826 4.78253
131.002 17.8845 8.18433
105.87 15.7046 7.38978
113.973 16.31 7.31389
123.691 16.2009 7.76269
94.4403 12.8844 5.98382
104.737 12.7285 6.36873
105.796 11.3034 4.92046
109.561 11.9988 5.9756
106.657 14.6459 7.09992
102.078 13.5002 7.11719
94.0582 12.8627 5.64596
94.245 11.8923 5.66485
102.148 15.1497 7.37439
97.252 12.5327 6.45203
110.633 13.4334 6.91587
111.17 15.8595 7.91209
85.0884 11.2405 5.77073
102.109 13.1681 6.50113
89.0153 11.1797 5.43653
88.1127 10.4138 5.20258
94.8622 7.37817 3.87444
97.4453 11.5727 5.78432
95.635 15.0446 7.93254
98.077 11.425 6.26393
95.3254 13.544 7.27114
106.368 14.284 7.49134
83.5472 11.2462 6.34331
89.653 11.4383 6.22582
97.4691 13.5961 7.06026
86.3548 8.77712 4.79003
83.4373 13.3486 7.69432
94.941 10.2046 5.49694
91.5915 10.9035 6.03381
96.5067 10.5245 5.64263
92.0026 9.55091 5.8619
79.4086 9.98304 5.35218
83.2674 11.4981 6.54181
75.5943 9.90148 5.32563
88.6719 11.5858 6.78742
98.7573 13.0836 7.76706
74.2579 11.0681 6.19586
61.1438 10.9644 6.38103
84.4889 9.4365 5.45599
73.75 10.9824 6.63193
80.2187 8.60546 4.77194
88.5251 11.6523 7.55385
80.3145 10.3312 6.4069
73.153 12.9791 7.78845
73.909 8.27413 4.86859
88.6424 12.1043 7.29322
78.0827 8.40977 5.55779
74.6738 12.91 7.56628
83.5461 11.1876 6.83235
72.2961 7.75906 4.78714
79.8173 7.04975 4.05535
82.3598 13.308 7.76952
83.2441 10.0668 6.62971
68.9438 9.22212 5.67548
75.1687 12.9291 7.66133
68.4459 7.92429 4.95886
74.6418 7.71943 5.23044
77.1838 11.036 7.89069
64.1466 10.0877 6.19932
65.5264 8.45186 5.26817
86.1097 10.7788 7.68262
73.8223 12.1075 7.32434
68.8947 11.5102 7.43213
72.1142 10.1288 7.06281
59.099 7.38921 5.27015
66.21 10.905 6.45237
59.9692 8.90695 6.28615
78.7947 9.54054 6.87755
65.9943 10.6024 7.05275
64.8861 11.2933 7.82687
72.9913 10.0011 6.90065
75.9557 8.10834 6.6545
65.2996 8.27976 5.38222
61.9584 11.1613 7.30168
70.8599 8.16702 5.86459
60.4506 8.08609 5.56084
71.3536 10.1351 7.33357
66.8045 8.74869 6.11454
71.1407 8.10431 5.49346
53.3572 8.78974 6.08302
63.4352 9.81794 7.18385
76.8337 9.14893 6.42128
61.4905 10.4933 6.96621
52.2285 5.42795 3.9124
56.471 8.30202 6.1098
64.5677 6.3857 5.16149
53.2182 7.11611 5.20104
61.8607 8.37665 6.68195
64.9528 7.96331 5.70595
61.0556 10.136 7.62621
62.1534 10.8863 8.22964
59.1111 7.83814 5.58651
65.0721 6.40085 5.07365
55.4174 8.01566 5.71876
53.6958 9.42775 7.37393
67.257 9.38102 7.41243
65.8486 9.04193 7.33211
61.4615 7.1664 5.35314
58.663 8.72649 7.14451
61.4463 10.1219 7.0031
64.2216 8.07313 6.23213
47.1486 7.25406 5.98581
60.5925 7.56014 5.60884
55.5563 8.48397 7.30818
57.0433 11.4324 9.44672
53.5427 7.73039 5.81229
54.5192 6.05211 4.51738
58.4061 8.16828 6.91749
48.1752 6.64311 5.65082
57.9889 9.65766 7.49779
56.8933 8.20292 6.77259
48.7762 8.30591 7.05065
48.8618 5.59042 4.75412
55.8705 9.18937 7.70847
53.9895 6.21909 4.96064
52.1175 5.6038 4.23483
57.2859 9.34852 8.0215
59.2153 8.02159 7.20003
45.3591 8.31424 6.55204
48.3946 8.15009 7.37187
62.6385 8.59072 6.90864
51.342 7.347 6.48075
52.3137 6.77813 5.73471
50.4021 7.76568 6.58606
52.8647 7.00082 6.41337
54.1229 7.32028 5.68113
44.5514 7.41386 6.62199
45.2154 6.00621 5.65281
51.8256 7.32646 6.50714
41.8304 6.38498 5.23446
46.7095 6.87154 6.52522
50.1362 6.80604 6.42337
43.4063 6.15505 4.82932
43.7882 6.87356 5.95459
53.9058 7.85953 7.02714
43.1733 5.19372 5.2484
54.4264 6.65113 6.34037
40.252 6.41101 6.09506
45.6794 6.92074 6.85678
48.747 8.1134 6.94781
41.2044 7.16956 6.05946
44.6306 6.67849 5.59141
47.8244 5.3576 5.41715
42.1984 6.11777 6.52397
43.9601 7.96067 6.939
54.2772 7.7963 6.97868
43.9196 6.47638 6.07423
43.0556 6.56696 6.18553
44.2363 6.82871 6.51599
52.0057 7.30434 6.92059
42.501 6.0118 5.59536
44.8028 5.74151 5.41522
48.5112 6.54067 7.38771
50.4015 7.31572 5.8205
43.9072 6.62441 6.44945
36.6532 6.25595 6.45888
47.6511 6.81148 6.39872
38.8254 5.91788 5.84454
38.6809 7.18728 7.51437
41.4403 6.49892 6.64172
46.9287 6.30541 5.8786
42.7547 5.73278 6.47887
37.3403 6.35668 5.74335
40.9225 6.25631 6.31869
38.2199 4.86615 5.79111
39.3021 8.76753 9.16428
45.0713 6.78643 6.98442
40.6805 5.30893 5.77248
39.35 6.35739 5.92033
37.237 6.25803 7.12917
36.3519 6.20886 7.00875
45.3684 7.85994 8.37938
43.9133 7.333 6.31636
39.7919 5.35214 5.68564
43.4516 5.19254 5.96338
39.7979 6.0343 5.76242
37.833 6.10337 6.92163
39.7764 4.97999 5.07622
36.9683 5.39144 5.50149
36.7063 5.06525 5.64512
40.3297 5.27298 5.81516
39.648 6.29695 6.72427
39.0405 5.66718 5.98227
34.8971 5.1958 6.10894
36.9613 5.04424 5.74467
35.9603 6.03068 6.49978
37.6257 5.38047 5.28145
38.3464 4.18622 4.56458
36.1379 5.20014 5.65548
34.0789 5.55655 6.42462
37.7064 4.59091 5.51056
44.8099 8.63296 8.80895
34.1049 3.76033 3.91152
33.562 6.50521 7.94757
36.0348 4.07093 4.84127
33.8582 5.3565 5.83802
36.8969 5.42279 6.31733
36.6637 6.90078 7.30381
35.2348 5.86329 6.56049
34.8985 5.73534 6.89818
37.6355 5.37188 5.82916
34.8478 4.59207 5.5376
36.0745 4.96039 6.26881
34.4087 5.12556 6.41499
36.9397 6.75725 7.41763
35.5758 4.89773 6.06007
37.3519 5.74297 6.29073
30.2947 6.63328 7.56132
34.5392 4.89858 7.00157
35.5704 5.81664 7.36141
35.1573 5.9272 6.2072
32.4117 5.59 7.79453
35.1802 6.18473 6.1103
37.2763 6.31306 7.5713
33.9933 4.97985 5.8632
32.5714 5.22755 6.21954
29.7183 4.23257 6.01151
35.3308 4.42845 5.17882
32.1123 5.52748 6.04599
28.9825 4.04141 5.43637
31.5442 3.77916 4.92952
28.5679 5.02767 5.87604
32.3174 5.37577 6.48337
29.944 5.11888 6.92485
34.0319 5.27794 6.12527
32.0943 6.15387 7.19706
32.3898 4.52113 6.43455
33.4541 5.21354 7.31746
29.0526 4.36464 4.92867
29.9419 4.16987 5.46474
32.9965 3.58441 4.833
31.37 4.08477 4.92317
31.8963 5.01696 5.87214
30.9354 4.77363 5.78739
31.6309 4.3888 4.75791
31.0084 5.43999 7.40817
31.6415 3.49481 5.06142
32.4107 4.08306 5.4318
31.6838 2.90775 4.07094
28.9578 5.99638 6.5821
27.6462 3.87327 5.91758
30.3652 5.8246 8.5251
27.658 3.4126 4.29079
31.7397 5.00524 6.42512
28.9442 3.97054 5.33044
28.8885 4.87846 6.64242
33.5689 4.96664 6.20082
27.0231 4.89446 6.99784
31.5489 5.36016 6.86859
27.8386 4.05525 5.49443
30.52 4.16793 4.84895
30.9815 6.55738 9.60333
27.4786 5.06825 6.69045
29.2147 4.79178 7.47913
33.5187 5.28831 7.34046
29.0949 4.08635 6.05901
28.5795 4.48377 5.54864
30.5632 5.38743 7.28992
28.6966 4.54555 6.0107
27.7628 3.83397 6.02512
28.6936 3.814 4.49206
25.8307 3.3494 4.80524
28.585 4.68948 7.03544
27.9632 3.39609 4.99883
30.0996 4.38841 6.92771
31.702 4.99017 5.71842
30.929 4.10305 6.34204
31.159 3.23946 4.62502
30.3562 4.11896 6.56151
28.9555 5.47543 7.78115
27.2386 3.97087 5.52707
27.8661 3.63336 5.36293
30.7923 4.90489 7.55366
29.9844 4.4865 6.01877
25.0082 4.43546 6.31599
28.5517 3.75612 5.6369
30.2879 4.30076 5.61451
28.0486 4.42411 6.92505
28.0564 5.06417 6.92479
26.9814 3.53064 5.1048
27.9504 5.04748 7.59615
28.6378 4.51703 6.02026
24.7873 4.01065 6.18722
27.1154 4.35472 6.524
26.2378 4.56839 6.74803
26.6937 3.10519 5.42436
23.2345 3.44304 4.51561
27.1695 3.79288 6.42144
29.5534 3.39258 5.11107
26.2582 3.71612 6.20413
25.6126 4.52918 6.97894
26.9728 4.5909 6.95689
23.6145 3.8035 5.6652
26.797 3.79969 6.47284
26.2389 5.09768 7.22499
29.0861 4.53063 6.52911
21.1992 4.05893 6.81338
28.1427 4.11588 6.37718
27.4717 4.44177 6.75827
26.0992 4.4444 7.15263
25.9546 4.11367 6.40635
26.1512 4.99124 7.56318
25.8468 4.47141 6.42237
26.3794 3.88298 5.86043
27.933 3.52612 5.85506
26.8413 4.1907 6.86675
29.8225 4.38966 7.71705
27.0057 4.14213 5.96077
26.22 3.08204 5.52374
23.9221 3.49726 4.89534
24.9901 3.48267 5.71673
26.0689 3.85334 6.0097
29.0823 3.94304 6.3264
24.2054 4.00022 6.91079
22.9753 2.83926 5.29053
28.0714 3.92919 5.62399
23.9633 2.83836 5.01372
25.6559 4.37345 7.37754
22.819 3.51097 5.67245
25.0464 3.26943 5.61353
22.0369 3.51675 6.52123
27.7759 5.09037 9.68661
24.9928 3.93334 5.71839
26.687 4.24075 6.60677
24.9164 3.27079 5.17481
25.2287 2.90201 4.91776
23.0153 3.31275 4.71248
24.4179 3.49032 6.51097
25.1455 3.21283 5.46615
25.3882 3.95118 6.08728
27.1056 3.33086 5.59706
23.5278 2.65765 4.07733
23.2007 2.33351 3.90829
23.8397 2.80787 4.72628
24.7427 3.26665 5.38094
24.682 4.10119 6.96663
24.9299 2.52886 4.46663
24.2822 3.04161 6.54602
23.5352 3.15401 5.51741
23.6795 3.80509 6.0091
22.4804 3.09161 5.4614
25.2174 3.02119 5.48985
21.299 3.53154 6.47919
23.3109 3.585 5.90991
25.7049 3.86313 6.65283
21.4661 3.59556 7.07682
23.8518 3.97206 6.87756
24.1951 2.93827 4.91547
22.9891 3.47426 6.09195
22.9962 3.53512 7.0681
24.8874 4.3147 6.7285
25.4201 3.1357 5.8153
22.1003 3.04608 5.55547
23.6412 3.87359 6.83249
22.5302 2.68413 5.67584
23.0574 3.15812 5.27557
23.03 2.86689 5.232
23.2416 2.83645 4.92018
23.2337 2.96455 6.29432
22.9813 3.11612 4.89062
22.1387 2.64321 5.2479
21.4066 2.87058 5.80212
22.9731 2.96434 4.63845
20.3381 2.28086 3.08454
22.1295 3.27449 7.69011
23.8594 3.353 5.68541
23.2133 3.91555 6.62521
21.2728 2.83819 5.01534
19.9872 3.2778 6.65791
23.9395 2.78165 4.94436
21.2098 2.80401 5.50886
19.4066 3.37237 6.18834
24.2847 3.75644 6.81365
23.6217 3.31172 6.4897
18.4647 2.53856 4.97184
22.0546 2.70918 5.45082
21.0053 2.97294 6.16075
21.5614 3.53299 6.94235
19.6168 3.66133 6.9011
22.7257 2.71832 4.73346
24.4478 4.46969 8.76262
22.4383 4.04209 8.17151
19.9745 2.7033 4.83628
21.8211 2.18559 4.22707
22.391 3.07978 5.33798
20.3556 3.44679 6.16681
19.7396 2.70278 6.28381
21.0654 2.36115 4.22822
19.4088 3.37021 6.10332
21.6692 3.68355 8.32014
22.7669 3.19516 5.47544
21.6482 3.68013 6.67568
19.4625 3.17001 6.96118
21.1296 3.34229 6.09929
21.6541 2.33055 4.90063
21.9743 2.82368 4.86855
22.0625 2.95999 5.14886
20.0642 2.30856 5.15633
21.9575 2.83174 5.70142
17.3347 3.81355 7.09576
22.0217 2.47887 5.29643
21.3847 2.5851 5.30787
19.8866 3.06845 4.89526
18.0141 2.90103 6.48596
23.7122 2.35484 5.39042
21.4316 3.45652 7.81673
19.5786 3.39185 6.26302
19.3444 3.6025 6.71394
22.8988 3.22488 7.56506
20.1231 3.40894 6.09389
20.5619 2.51391 5.65604
20.4614 2.62031 5.1886
20.6874 3.37606 6.93563
19.745 3.14798 7.36801
16.5238 3.28299 6.4896
20.9944 2.69943 5.55263
20.5023 2.68296 5.39772
18.9532 3.02269 6.03532
19.5856 2.4851 5.23849
20.6748 2.6803 6.03965
19.1373 3.30859 6.64986
19.9186 3.05688 6.40576
20.5107 3.18534 6.04616
21.6748 2.90137 5.68003
19.1558 1.69135 4.07216
19.2755 2.78034 6.61455
21.9957 2.78379 5.08773
19.9404 2.68058 6.21004
18.1978 2.59841 5.67121
18.7788 3.13284 7.37259
18.1412 3.07441 4.93355
17.5136 2.88079 5.88325
19.7342 2.19546 4.49409
21.546 2.70321 6.62962
19.743 2.91557 5.76215
18.0889 2.88501 7.19331
20.8751 4.35516 8.44869
20.2125 2.41751 5.36752
18.4827 3.37443 7.70665
19.2614 3.18072 6.65956
17.8498 2.86678 6.32658
19.7614 2.22243 5.02514
18.3491 3.1614 6.09711
17.838 2.6565 5.74734
19.1927 2.12323 5.54298
20.175 2.6347 5.24185
16.6555 2.16532 5.2903
17.271 2.42376 4.71648
19.0066 2.66998 6.4222
17.8247 2.96002 6.05791
18.1552 2.43098 5.63001
18.6354 2.57753 5.45671
19.065 2.75642 5.79053
17.5622 2.18858 5.44519
17.9427 2.56657 5.47367
22.0472 2.47585 5.9412
17.1285 1.71669 3.98727
19.0285 2.11478 5.55729
18.5332 3.15845 8.28248
17.5887 3.61747 7.05051
16.9845 3.08098 6.05333
17.2529 2.28992 5.43276
19.4911 2.33909 5.8104
18.3758 2.67544 5.53364
15.4573 2.47273 6.11301
19.8745 2.72078 5.31909
18.0932 2.25249 5.83987
16.479 3.92972 8.4739
17.9759 1.88931 4.18873
19.9154 2.19413 6.04014
17.1792 2.38131 4.98972
17.6515 3.55822 7.66916
18.5439 2.85618 6.82416
18.4154 2.25126 5.67953
16.571 3.29117 6.81181
16.0466 2.61652 6.04032
19.2977 2.93288 6.5277
17.7313 1.80398 4.28814
15.1104 2.70785 6.52704
18.7818 2.81413 6.36071
18.3848 2.42906 5.1894
17.074 2.69397 6.39023
15.2078 2.8589 7.3639
17.6673 2.12762 5.01755
17.7833 2.65261 5.98325
15.3857 2.53589 5.33066
15.2143 1.93361 5.39693
17.998 1.61131 3.49404
17.0748 2.24263 4.43511
14.7454 2.45346 6.00873
17.8116 2.18391 6.15233
17.9472 2.29271 4.42492
14.2207 2.00109 4.2697
17.1159 2.18524 5.49399
19.1284 2.01493 6.15341
17.6537 1.97046 3.77602
16.2295 2.88518 7.36112
16.7508 1.79049 4.07396
17.9917 2.36192 6.05298
15.4461 2.48369 5.08715
15.6336 3.01819 6.99204
17.5402 2.24624 5.55231
17.9145 2.86391 6.04572
15.4845 2.55328 6.86624
17.3706 2.45656 6.95948
17.8141 2.1432 4.50646
15.029 2.35663 6.1606
15.3438 2.83656 6.74057
18.8816 2.87473 6.51241
18.021 2.52201 5.66885
14.3735 2.47264 6.51821
16.8501 2.06706 5.27649
