# pn-170911/CsIIA-31-AMC2-1280-1959.psd
# Power spectrum* (dif=0,1,2) (really just |FT|^2)
# NOTE: only the first half! (symmetric)
# weeks: 1280-1959
# 3 clock-days, 3 excluded
# PSD: 1441
221307 4.47837 0.0114896
8.09278e+06 76.9499 0.00889885
3.31314e+07 596.272 0.016928
5.90074e+06 184.245 0.0044267
1.62903e+06 97.9019 0.0106527
3.61033e+06 398.47 0.0521907
1.54654e+06 331.164 0.056864
223426 75.8975 0.0183201
382098 105.598 0.0361797
250483 89.3877 0.0617304
219913 97.1718 0.0538231
330285 150.332 0.0924577
32586 74.9329 0.0592214
368028 196.298 0.157173
300365 370.054 0.327546
142680 135.265 0.175569
120831 125.073 0.140403
119103 121.214 0.135504
89753.1 156.165 0.263684
151131 324.263 0.552794
159793 264.932 0.55178
77403.5 179.966 0.48507
24953 49.2912 0.12351
138790 429.717 1.00084
84456.2 241.378 0.610619
76949.3 263.651 0.727198
78971.5 252.938 0.842824
69625.3 270.15 0.930231
20145.2 129.458 0.514457
110567 355.544 1.50801
58914.8 166.218 0.685157
112664 461.467 1.92886
56039.2 229.602 1.1811
30077.3 94.653 0.433987
31863.1 168.644 0.929758
26366.5 113.119 0.611114
20088.7 86.2928 0.546355
27813.9 151.2 1.05093
44769.5 232.473 1.65259
31819.8 245.56 1.90196
13215.8 76.5518 0.528524
23326.1 171.11 1.49296
37269.8 244.695 2.27761
8103.79 77.6713 0.600146
19609.4 207.208 1.84662
16455.1 166.513 1.83244
54874.2 452.387 4.30465
11877.1 115.766 1.17206
39854.6 384.05 4.3863
9738.48 122.299 1.17594
32042 375.448 4.26851
5982.32 58.8278 0.782359
44973.7 409.709 5.19162
28619.4 276.01 3.85774
14459.5 274.925 3.73192
8867.7 74.9445 1.21865
7839.97 114.06 1.51387
7712.74 205.333 3.13974
3028.69 72.6923 1.02972
3010.43 16.9828 0.2891
22713.1 414.033 7.04259
24490.8 341.54 6.01551
12489.3 238.235 4.07725
10336.1 192.55 3.57272
2608.29 105.743 2.22478
6420.4 128.549 2.43775
3867.56 100.257 2.25196
16277.5 234.977 5.02907
14979.9 222.53 5.02027
6994.54 210.46 4.29399
10192.1 223.345 5.13261
4091.88 136.502 3.25917
8898.07 173.083 4.44994
7932.69 132.277 3.45751
7011.14 185.115 4.58136
1688.06 49.6564 1.35743
6506.33 172.089 4.78537
7410.74 160.671 4.61006
2765.35 86.8382 2.29472
7974.39 302.299 9.49369
16022.9 328.183 10.0802
2938.62 31.3682 1.08125
2355.12 49.6245 1.65411
5116.95 142.065 4.68354
2403.04 58.4066 2.08175
3013.22 127.103 4.44157
2649.54 57.5523 2.08546
4737.34 101.951 3.6925
3873.8 74.8088 3.28095
5309.43 259.213 9.22344
8167.97 275.999 9.79553
3251.15 116.411 4.51064
2768.01 105.3 4.28764
3484.08 93.9252 3.78481
1549.4 42.6425 1.78656
1399.73 33.8809 1.49918
3176.74 93.3927 3.96603
4767.95 147.053 6.83408
4927.64 158.393 6.83719
13473.4 539.534 25.7569
2167.22 78.1271 3.4209
1467.7 37.3913 1.5973
2647.79 128.478 6.48202
5219.41 252.868 12.9109
1926.12 89.6921 4.59559
6827.08 363.646 19.2258
2895.57 98.3313 4.0158
8622.67 351.478 18.4876
3283.2 144.956 7.86074
2118.41 149.828 8.44946
1446.9 121.71 7.24967
1734.3 75.8983 4.17269
2826.54 79.6171 4.72475
1933.29 80.0968 4.8016
1783.68 50.1343 3.03481
2714.75 119.813 8.10756
650.374 23.2353 1.80376
2473.86 216.56 13.0514
896.455 98.7541 7.21742
692.873 20.168 1.3483
1245.82 35.2215 2.72514
2420.13 97.9848 6.54072
759.59 16.1678 1.47525
617.377 44.9044 3.13242
1768.09 182.512 13.8046
4776.66 244.576 17.3215
2716.11 174.59 14.6178
3154.79 298.217 21.6511
375.437 83.8527 7.01028
1837.05 95.5877 6.98562
1156.9 76.6121 6.26653
1235.98 30.6208 2.31472
2022.14 86.9487 6.52815
2324.34 125.088 11.7119
3496.68 256.629 21.9327
1364.15 111.484 9.10011
2392.96 129.451 11.4263
2036.74 111.095 11.0247
1752.99 155.785 12.5373
2005.53 148.616 14.9931
1566.83 158.789 14.4634
662.405 21.9513 2.48672
864.522 88.9436 7.96989
857.856 127.742 12.72
1517.36 154.927 14.8265
1497.88 174.389 17.2743
415.394 44.2217 4.74655
579.406 84.1613 8.47694
561.869 52.1888 5.5063
857.31 72.0431 7.33238
2688.25 261.273 28.9919
1347.64 104.863 13.7033
652.201 21.9252 2.96405
626.167 72.0772 5.62928
1124.82 97.5959 10.616
362.279 70.688 6.6385
2031.3 186.274 19.9544
401.8 35.3387 4.06867
544.167 44.9898 4.95075
306.956 95.8366 12.1166
2243.09 198.737 23.3769
1087.32 92.1892 12.1615
451.203 56.4372 6.47483
221.034 13.6178 1.44929
390.23 48.1408 6.75003
480.841 32.0863 4.41966
436.8 79.4077 9.96215
786.02 90.0098 11.6504
1335.41 124.977 18.0057
968.01 54.2286 7.74729
1109.59 97.7623 12.019
562.553 53.5609 6.87268
634.408 108.384 14.2009
378.445 88.4782 12.6284
192.635 33.8274 5.50639
633.014 65.3432 8.41248
388.745 26.1317 4.70698
488.523 112.343 16.3822
141.466 28.7876 5.03818
1492.26 123.419 17.4345
397.86 36.5898 5.71656
757.407 55.1067 10.6837
421.366 107.41 14.2257
286.25 29.2815 4.13481
553.795 107.876 16.875
551.866 103.477 17.8316
779.503 72.442 13.0745
630.141 118.457 20.2276
315.371 84.8133 14.2635
665.866 79.2378 13.1835
442.205 35.4311 6.01906
612.127 82.2156 12.6343
211.188 44.0643 7.66394
455.8 78.0822 15.9333
493.917 73.876 12.9349
938.178 155.878 25.9819
572.978 41.3913 6.77558
414.447 88.7241 18.7971
609.084 76.74 12.2815
407.399 22.0678 3.46608
896.285 141.71 24.9628
227.862 82.9644 16.7904
855.252 89.4259 17.5163
617.712 118.83 24.6495
1527.23 208.996 38.3947
264.131 33.3317 8.30181
266.265 49.5079 13.3244
811.3 146.591 25.4502
563.401 40.2042 8.17943
305.571 29.5275 5.77246
600.445 108.011 23.104
220.969 25.5799 5.04469
444.36 33.1671 8.06857
1122.86 234.642 49.9402
728.204 80.0475 16.4178
296.642 49.791 9.86524
445.345 59.3106 14.2234
325.965 61.5216 14.2691
155.586 45.2204 8.91637
436.276 49.6321 12.0782
108.837 26.9496 7.23889
530.476 72.6657 14.0468
236.959 40.2286 11.8253
233.88 59.4486 11.0495
157.958 39.0655 9.74386
223.116 56.6371 13.3959
228.848 49.9892 14.4409
306.154 61.3877 12.7515
113.91 22.2066 6.25106
266.49 34.0315 8.62146
310.032 73.1887 21.8766
242.131 42.8958 12.7242
109.864 11.6007 3.70348
586.857 95.8588 21.959
93.701 13.7526 5.46167
512.229 75.6745 16.7753
394.98 90.9189 24.2158
158.406 45.2777 12.0408
131.703 42.0142 9.2334
133.041 28.2563 6.9747
146.209 27.0686 8.56178
450.123 58.3852 14.4142
406.135 84.7014 25.4597
279.504 92.2094 21.5233
284.578 56.1031 18.8171
263.482 34.4536 7.20605
63.2696 12.292 2.79584
111.082 45.503 12.1921
349.013 52.7037 16.0073
296.276 52.631 13.6937
120.8 12.5862 4.53136
135.611 12.016 3.65327
196.069 52.3435 16.7536
277.84 56.6635 15.9908
85.7548 40.917 13.4293
28.4605 20.607 7.88182
362.332 53.3712 16.7184
188.461 69.5409 20.1931
352.925 70.0924 20.0409
241.309 44.8804 15.1482
83.1473 50.4834 15.4721
213.076 57.3856 19.3259
208.371 45.7524 11.7186
133.526 54.3557 18.133
283.28 27.9644 7.49972
143.744 9.38821 3.34683
153.376 9.85164 2.59613
110.568 38.2312 17.3357
436.694 63.6655 15.1858
273.4 58.2056 18.9887
340.055 65.9246 23.3541
176.107 45.3489 15.0019
79.2013 18.3435 5.97784
365.857 91.5829 36.4493
64.0301 30.1105 8.30027
36.4606 38.9237 10.789
50.3661 31.9387 12.405
130.067 28.0465 11.1242
163.394 22.6259 7.50464
139.837 37.8516 13.3026
164.409 25.0604 9.37505
118.138 12.1742 5.85799
140.821 40.9322 13.2417
136.287 36.3371 16.1097
86.0481 46.2633 16.0016
164.15 56.5265 19.8088
195.223 40.9619 14.83
152.902 20.496 8.31803
83.1365 24.5763 8.83919
280.697 44.8318 19.8914
161 78.3986 27.8234
165.936 45.4588 17.3867
48.4763 31.5648 14.9047
65.1278 32.8613 14.6185
348.214 62.2864 25.5654
179.368 30.1455 8.84391
195.562 59.1252 25.7877
241.583 39.9599 15.5548
208.397 43.8516 15.6276
182.452 46.9397 19.7928
71.3941 23.6475 9.88836
137.25 25.2238 10.2268
76.6804 28.7884 10.1896
162.282 42.8215 19.7604
118.782 25.5076 8.60114
137.218 26.8944 13.2522
150.948 95.3065 43.8184
148.329 27.553 10.1741
42.7219 41.1638 16.2683
19.831 18.0977 10.7578
208.792 35.6361 12.6391
73.8525 6.28589 2.89996
109.045 21.258 7.84502
180.205 73.4641 33.8852
65.7074 49.1144 29.3795
255.163 50.7603 18.4998
82.2011 16.3793 9.14091
166.674 37.6003 14.3867
97.8947 33.5671 12.741
111.815 23.5138 13.0019
84.839 32.6393 15.8317
68.0279 11.0018 4.58289
7.15723 21.7276 11.2164
160.903 33.6892 17.9848
109.504 45.6551 19.9516
96.7589 13.1835 8.93116
117.634 28.7715 13.0482
194.186 35.2475 15.715
178.284 31.1507 16.8069
172.174 56.1473 26.6535
137.327 33.3382 18.8447
112.187 62.9675 27.6712
44.6185 2.6974 1.92165
119.785 46.2802 22.8589
110.037 18.1086 10.4231
148.84 42.6348 22.4175
65.2325 15.6649 8.85394
159.238 78.4164 37.3785
192.442 77.2363 42.3155
75.1272 40.2237 16.4355
45.9234 3.34369 2.72562
67.7533 9.24553 9.13051
170.201 73.3815 33.2769
160.669 44.6166 19.2628
310.175 89.7909 48.442
39.3506 5.90296 7.58274
115.768 24.6693 10.997
43.7159 10.7093 5.86703
43.0496 12.5 7.65421
43.4319 41.5792 24.9585
222.097 66.1119 36.0268
73.3689 15.135 11.4836
133.84 43.7286 20.1461
52.1407 18.8499 12.8828
80.798 26.2782 13.2365
89.6806 12.0507 7.38489
72.1547 12.8989 6.50377
98.889 25.9729 16.18
40.858 2.25117 0.731635
78.4796 13.2809 7.00429
58.1907 27.0048 14.0011
109.698 40.6968 29.8324
115.361 22.0971 13.6065
81.5578 17.6733 11.9377
79.7552 29.4923 16.9598
67.3331 36.48 25.3207
118.597 30.3246 17.8195
23.3799 22.791 16.067
100.886 23.5572 13.3737
29.5348 24.212 15.385
41.862 35.4847 18.049
98.0381 17.195 8.78282
72.5647 22.1393 17.6932
42.6066 11.8421 5.94763
21.0632 17.5055 10.5604
54.1173 4.34699 2.85354
126.58 55.5985 37.1843
21.7141 8.03591 3.30081
70.1859 28.1229 21.8431
44.9116 24.004 9.88257
39.9987 26.5218 18.0213
31.531 2.85213 3.00082
69.3727 8.27484 5.15856
29.4921 21.0767 12.755
51.9288 15.853 11.0154
50.5412 24.2153 11.2346
26.7023 53.8612 40.5387
88.0963 18.8502 12.282
84.2548 26.6446 16.2369
106.508 27.2757 18.2949
44.9279 18.1671 10.7747
46.8811 19.2401 14.2957
22.2292 24.8433 17.6246
58.6343 6.4371 7.47738
68.4183 14.8748 6.99033
61.7123 20.3536 15.5277
40.8392 7.61767 5.97824
51.2488 9.72658 8.7019
65.4368 19.5365 14.0534
29.2735 13.9202 7.40846
67.2872 18.5489 14.7507
70.7299 19.6763 17.9549
12.2048 11.8446 4.24385
19.6846 21.5098 17.0249
57.6654 18.512 10.1979
43.882 15.4652 15.4234
27.0872 20.3117 12.0622
108.841 56.9855 36.7391
21.2231 32.8751 28.227
21.4429 29.8149 22.1305
52.752 13.385 8.96156
34.5185 3.80748 1.13576
64.6533 25.3869 18.7115
41.7507 22.2494 15.6256
26.5477 6.88981 4.4635
10.9505 34.6859 31.8701
87.8839 28.6929 16.8797
24.286 9.0762 10.8061
91.5167 30.7526 21.224
56.3354 18.8344 16.3682
29.4733 24.269 25.6062
80.134 18.3489 13.9726
77.6304 23.3718 14.9336
60.458 28.6466 23.6234
81.1256 27.9237 26.1687
40.1256 5.31802 4.77869
69.9771 11.2789 8.73435
66.003 10.5999 8.63772
76.589 29.8714 23.2964
52.4389 12.9425 14.5794
36.3176 16.8496 8.88035
50.7805 9.02407 7.94994
59.6126 14.1695 12.3794
24.4936 17.7457 19.8854
50.9122 14.9211 10.0969
23.284 8.17009 7.52045
37.5826 4.41478 3.92316
75.7742 30.9185 24.613
15.6175 9.26285 6.20492
48.0347 20.7087 22.3386
17.2713 10.3574 7.94626
66.5114 25.6615 14.38
56.9568 28.2656 23.7698
98.4712 34.6776 23.8891
48.5652 16.6972 18.1828
29.284 25.4417 25.8629
46.1831 25.893 26.0911
25.3918 6.62431 3.80061
11.9199 14.0333 11.3574
36.9432 10.8475 7.71399
25.5365 8.74649 12.3198
19.9757 19.0348 14.0821
24.9137 16.4732 16.3441
21.2599 11.6758 10.3376
27.4572 14.3006 14.7368
32.0457 8.53857 5.06431
24.3624 4.91884 6.85873
23.7945 23.7848 18.2672
37.1959 9.38825 7.60444
16.2507 10.1379 10.1483
45.04 15.7911 13.4733
11.6773 4.64543 4.13432
28.945 6.14894 6.04645
8.80232 15.217 19.1036
42.5587 11.2913 7.89054
32.9999 5.40529 4.62999
66.0676 25.3049 20.5953
49.2317 19.0186 22.6107
64.7748 11.3548 7.24152
62.6404 18.5809 21.6075
48.5173 14.0767 18.1212
13.4327 4.23218 1.24798
24.2823 25.893 23.4646
21.2136 7.85014 5.75127
28.8101 34.5674 31.4485
31.9814 22.5018 17.9902
12.2448 13.4895 15.4641
40.4295 14.081 11.4707
2.34097 24.7412 28.8397
56.692 8.40022 7.02409
30.2117 13.2895 13.9118
58.3466 16.7343 16.5396
31.197 19.707 28.4495
35.7087 17.7031 19.8223
68.5676 30.1765 21.8081
57.4993 13.5819 14.6189
8.3475 13.6957 14.399
52.9769 9.44757 10.8605
42.9187 17.8947 16.2923
8.58936 17.7367 18.5557
28.4952 7.06436 9.26171
62.338 27.9215 24.3479
57.1601 20.6502 24.6409
23.884 5.22478 9.53087
50.1389 13.7049 13.4381
22.4492 9.36869 7.29053
20.581 11.9091 10.4759
26.0146 8.82675 8.26634
38.0782 10.7885 15.2549
42.7067 17.4152 10.3003
30.3808 32.3808 40.8123
32.1516 8.15304 13.9302
61.8005 18.0433 25.6008
37.3002 12.2183 7.24448
56.618 28.5317 29.7871
25.5576 12.0192 23.4235
26.0196 5.14645 4.67433
31.741 16.119 12.208
10.0614 27.886 26.7819
25.1706 15.6682 16.2985
22.4403 4.9617 9.211
29.3176 18.1702 13.7893
67.5112 36.7329 36.9938
15.1914 11.4665 14.4319
24.989 6.18416 6.4758
42.4124 19.5576 25.6448
27.8652 10.7011 14.6805
21.9988 5.12098 4.65496
10.7084 5.3303 6.28729
26.8753 22.759 19.5601
14.8161 8.11528 12.0233
12.9501 10.5921 14.9532
39.8653 16.0857 18.2132
25.8632 13.3456 12.5881
18.5524 10.8981 16.8999
21.9652 6.72732 7.68858
41.7293 10.1616 15.9464
42.5813 32.4242 37.505
33.7803 13.6411 20.0909
19.4193 10.4809 5.57971
11.1436 7.7333 8.38369
12.0093 19.9184 16.9146
15.9517 11.5587 13.4489
23.8492 5.26387 8.01548
20.289 12.5205 20.1013
22.3686 9.44994 12.9647
27.3594 4.30111 2.93246
33.6447 9.56245 18.5069
32.7943 28.1725 26.4485
28.1156 5.63056 7.56807
21.4708 2.40128 5.83207
25.3469 17.2104 25.7879
44.5787 20.2414 23.7929
23.8239 7.78694 8.67549
17.4681 9.54623 10.0325
25.0725 5.73748 5.99102
20.1164 5.98232 7.94044
27.0591 9.38951 13.6627
24.5488 2.84998 6.90279
33.1841 10.0768 12.401
25.6472 12.3934 14.6714
22.0712 11.2145 15.9816
31.7828 7.46463 8.42875
7.18298 4.63562 5.61352
9.28064 7.37821 11.3828
32.1223 10.1836 13.0386
58.8231 25.7219 29.634
11.6951 12.5669 19.3
12.5129 6.89561 4.77034
11.6759 17.2763 23.2802
6.91276 15.7717 30.5205
33.7419 20.9294 20.8386
31.3646 5.60412 10.1182
14.7718 4.86193 7.83018
23.2843 16.957 29.1571
41.8486 16.1877 22.076
28.2979 3.79778 3.39936
30.4312 17.3334 14.3945
19.9952 13.3449 17.0839
13.6321 2.7016 6.66856
12.7028 19.9191 29.4315
39.0988 14.101 15.3939
27.1896 9.61685 9.2023
14.8266 10.2785 16.7494
24.9527 6.99846 11.7876
12.6681 7.26163 7.32146
23.0044 16.6689 20.9631
15.4429 12.6436 20.0674
20.2213 1.50441 2.65528
23.5599 5.93767 12.1074
11.4208 9.0941 13.2471
34.5074 7.10816 9.17403
34.2609 9.36721 11.8482
14.9644 14.1217 14.7863
26.005 6.69033 14.2135
8.28807 12.8709 22.7783
25.7063 4.78838 1.88182
17.3762 11.8518 20.9274
42.316 15.9653 13.9945
23.3852 6.15315 12.4186
22.8303 2.27354 4.14386
31.9741 20.5811 34.5128
11.5671 8.36944 21.4109
16.2996 10.0925 6.09886
34.9482 14.6885 18.0276
6.2732 3.8787 9.23057
26.2534 9.0072 12.1226
16.1848 21.0422 29.8243
16.1849 21.9635 29.2382
29.1202 10.7699 10.2196
17.7465 3.47311 6.66295
19.433 3.97645 6.89026
30.5472 14.8853 20.6449
18.2585 17.8471 34.1163
30.3339 16.6082 22.1444
24.2707 14.9402 21.2308
14.1486 10.0162 14.2976
24.9727 5.86509 4.71571
16.708 9.72215 17.2812
30.2368 14.4385 20.7086
12.0006 4.92602 15.7048
14.0259 22.8794 29.4481
14.8169 18.443 36.6179
29.7849 11.6242 14.8639
25.3683 5.78103 7.41576
19.4556 15.1088 25.5569
17.8895 6.57853 8.16506
25.7081 13.9025 13.2807
20.7749 5.85903 9.9098
24.0294 12.2013 14.6868
25.6788 16.6348 24.0788
31.2577 17.1461 22.9356
23.2023 14.9953 24.0505
19.9784 6.29245 13.748
6.71789 10.2327 19.9106
22.9824 5.59788 7.08848
18.5566 3.4729 10.4867
22.7481 8.57807 18.3188
28.7566 19.1911 30.6667
13.1815 3.77822 14.4114
17.3625 23.5942 23.6423
29.131 15.8364 29.7777
17.6894 13.8114 18.2465
14.0739 2.59667 5.42066
15.0123 7.73686 12.3988
15.0732 7.19587 22.0489
25.7006 13.6579 16.9389
28.0627 25.858 42.1707
6.67259 0.671328 3.39321
3.26351 3.9351 2.17014
5.93628 4.02448 3.12992
8.819 7.84324 12.7594
7.0035 9.67921 16.9171
24.2316 8.08512 16.1838
9.64783 6.51976 12.4104
19.5382 6.55334 12.5892
8.93965 14.3816 20.2611
18.8631 0.793658 3.59805
22.4553 7.3145 13.6153
21.149 5.858 6.81966
9.18921 1.63244 2.96994
19.2103 2.09496 5.80001
20.4534 8.99373 12.082
29.0168 12.0006 21.7589
12.1596 10.1388 16.0385
14.8806 15.7454 30.9562
20.9661 2.24424 4.01863
24.5556 21.0887 35.1533
10.0991 5.56742 10.0243
18.8549 4.55107 4.74469
14.6743 5.22499 8.21623
15.5811 5.32343 21.5526
7.49948 16.0424 20.6753
16.9508 5.79352 9.84845
16.6357 2.80922 1.61634
9.24972 7.46133 10.7687
13.91 6.20779 12.2546
13.1774 13.5091 23.9413
16.7851 7.7513 17.6679
18.8924 12.1387 18.4141
28.2668 9.60009 14.1883
26.4974 14.7344 38.5546
10.1017 1.86572 1.19401
19.317 11.635 15.4551
8.03533 5.75575 13.5383
7.89377 5.17939 17.1285
31.5913 18.5809 29.6387
12.5203 10.764 13.0844
13.6016 8.86504 12.5775
13.3188 8.24759 13.7294
6.50863 14.4866 22.5671
11.1926 7.21555 18.5986
15.0186 2.47558 5.56625
10.8852 6.10139 15.4427
5.27492 7.26561 6.85366
9.42053 3.41417 9.19905
5.66213 5.72064 6.28372
13.2071 20.6409 34.6908
5.6415 8.12382 15.8698
11.5284 10.8154 29.2348
26.3459 5.64322 4.70719
13.5194 17.4499 50.75
27.579 15.2244 13.7899
13.5178 4.60166 5.45978
8.73133 6.10263 7.35377
8.59704 12.0037 29.5284
22.1143 3.80545 7.13179
15.8238 6.45776 10.9394
18.1851 5.17518 8.16359
12.1714 2.14644 7.54248
4.14246 22.1865 41.8734
22.2294 9.3378 22.8466
25.6444 13.8944 24.6936
19.2993 9.2625 15.6846
11.8676 7.73156 18.6936
14.7979 9.44203 20.9157
11.7928 4.86311 6.6544
9.0078 3.65544 19.7224
23.3422 3.94049 2.20127
16.2768 6.8319 9.82856
18.4749 5.33687 9.28758
17.7217 9.08328 19.0238
16.9602 5.89332 8.92728
15.5502 4.67602 8.2842
15.5571 10.9342 23.4931
15.8381 6.59882 12.6314
19.4498 4.66915 12.818
20.0505 9.11249 17.1955
30.1397 14.7956 25.8349
10.6987 4.75886 6.26456
21.6496 24.0216 66.2461
6.85176 9.13903 10.2864
7.89661 2.88256 8.09781
10.3061 6.38985 10.0132
13.1771 15.4917 19.3901
10.6251 3.16544 9.32654
17.3651 5.02854 11.5432
13.0202 2.00701 2.86396
9.31632 0.894059 1.87772
10.6004 9.75072 23.3885
18.2607 7.81448 23.1317
11.8595 3.03617 4.81999
13.499 8.62897 8.29746
7.87863 4.95139 7.22202
10.7314 9.31566 19.8759
12.9982 7.93125 15.7619
18.8495 3.80465 9.28265
13.0766 8.31157 12.6144
8.14435 3.79138 9.83875
7.74679 13.6275 32.3296
17.3508 1.63488 7.16032
15.118 5.35888 12.0215
16.1955 14.1862 24.3807
10.8178 6.27274 22.1911
16.1669 4.93666 9.10737
19.0443 13.1881 33.731
12.5029 7.36767 5.67072
9.65337 9.25468 21.4798
10.8248 14.9043 27.4692
14.5374 7.29807 23.7239
22.5309 7.52574 11.1443
20.4127 10.4978 28.2532
11.7773 3.00586 17.312
10.5608 11.1378 13.3067
11.8912 8.32474 10.3005
7.07913 12.9974 26.1812
7.72457 3.319 5.06417
6.89322 1.92184 8.1437
7.04322 8.59921 25.4122
14.4558 5.30098 11.6442
17.0674 7.33931 14.13
5.18838 10.1223 12.2067
12.6811 7.24474 17.7474
17.4967 9.64485 14.8261
6.62198 6.60493 8.79742
9.56585 6.86804 19.5448
10.118 4.06113 9.17544
11.0677 0.758927 3.16656
16.0124 3.87444 11.6058
8.1103 1.97693 0.944558
10.7746 3.714 12.8263
3.65286 13.1462 24.1638
10.8186 7.91715 12.859
10.3182 2.09181 7.77101
10.1166 1.02738 2.73184
12.1292 6.05076 10.4212
13.6976 7.41763 20.0304
19.8895 6.54428 14.9103
8.08393 1.51954 5.26695
10.2901 0.293402 1.38315
14.3301 3.88797 14.2455
8.27006 5.21072 11.9562
14.0886 9.87814 18.7857
8.89542 2.15095 9.17469
8.51363 6.74556 15.8408
10.6763 9.0821 21.3038
20.1322 12.8686 26.1934
9.96001 12.3932 35.7445
16.5758 4.24671 16.625
17.9829 11.2754 11.944
17.9821 9.99135 16.279
10.6944 2.33567 6.67735
12.1865 6.79586 21.4939
4.93838 6.38385 19.0042
11.3445 7.66506 10.2648
9.13424 1.21708 5.58726
6.89909 6.13119 19.8927
12.8623 6.52479 13.8654
11.615 7.02176 14.0635
12.8132 4.35977 15.7983
5.52071 7.88267 11.4557
7.6324 5.75822 13.5263
9.55538 7.59047 10.9446
13.9879 2.48596 8.02856
6.89794 0.673319 2.53705
11.121 7.28856 15.347
4.20348 7.85998 9.20009
7.12771 8.33585 25.2294
10.0303 2.70983 4.51632
7.48058 3.50936 7.01363
7.07488 4.10139 12.5214
15.9911 7.16397 22.6069
6.85973 6.80203 18.9009
12.7396 6.26229 21.0158
13.8881 12.7716 24.6829
13.4519 7.93868 10.2316
10.3284 3.12492 13.2845
18.1136 10.9411 25.3755
11.7708 3.94351 7.35879
9.39839 4.03747 10.1538
4.41925 4.56998 13.6363
5.08559 4.16651 11.4487
9.70346 8.92005 20.0763
11.0262 2.08672 5.53738
11.627 6.60627 17.1198
13.1409 2.61834 4.59619
7.50146 4.00597 18.1348
14.1771 1.66326 1.52429
9.58875 3.14288 11.8972
16.1213 10.0573 15.3702
4.78665 5.16593 11.3965
5.66646 6.48852 12.7864
9.99362 3.71554 9.83574
9.0966 2.28419 7.51858
