# pn-170911/CsIIA-30-CsIIA-1280-1959.psd
# Power spectrum* (dif=0,1,2) (really just |FT|^2)
# NOTE: only the first half! (symmetric)
# weeks: 1280-1959
# 1428 clock-days, 436 excluded
# PSD: 1441
41065.9 1.68804 0.0722789
3.35062e+06 59.46 0.0472173
1.36211e+07 282.774 0.0531814
3.27487e+06 124.935 0.0544139
2.91958e+06 204.068 0.0655903
1.2931e+06 127.308 0.0616931
903874 129.051 0.0692326
603614 120.455 0.07386
488412 127.844 0.0875392
389011 125.882 0.0910758
308504 122.794 0.105921
272954 133.005 0.122456
234753 135.698 0.13829
188768 125.949 0.147133
167438 131.939 0.167157
151320 134.954 0.18583
119501 123.788 0.194613
108390 124.404 0.217309
98219.8 126.16 0.237642
85266.6 120.94 0.256096
76738.7 123.849 0.278995
70152.5 124.859 0.30374
68772.2 131.219 0.352676
59713.3 126.944 0.351322
54343.6 125.637 0.388362
50993 124.889 0.412777
47593.2 126.076 0.446931
42141.4 122.817 0.462481
39293.5 119.323 0.488168
37555.2 124.813 0.538786
34414.9 120.586 0.550099
32492 123.438 0.612486
29026.8 117.24 0.610809
28045.8 119.317 0.666835
27132.8 120.788 0.696769
24886.1 121.528 0.747073
23257.7 116.952 0.764771
22408.3 118.877 0.813941
21848.7 124.731 0.890122
20411.1 123.634 0.941908
19701.3 124.486 0.976328
18135.9 119.06 0.98902
17304.4 120.229 1.05008
15873.7 117.311 1.06866
15931.5 118.67 1.13844
14832.8 116.682 1.16184
14250.1 116.08 1.20062
13727.4 118.845 1.27384
13109.6 118.184 1.34455
12231 115.559 1.36619
12486.4 122.059 1.50176
11848.6 121.681 1.55204
11270.8 118.532 1.56923
10687.2 118.08 1.62354
10314 117.977 1.6749
9869.89 117.288 1.71906
9759.56 119.998 1.82195
9419.07 118.532 1.85779
9047.89 118.598 1.93967
8570.46 118.757 2.00592
8688.88 120.838 2.12768
7978.11 118.055 2.13787
8025.45 120.255 2.23321
7334.11 114.681 2.19892
7236.78 116.044 2.29285
7123.43 119.025 2.44317
6617.04 112.785 2.36953
6528.71 114.281 2.44847
6268.63 111.756 2.51705
5939.96 109.398 2.50298
5976.57 116.484 2.75497
5773.47 113.549 2.75481
5733.06 116.653 2.94117
5459.65 114.682 2.92271
5353.15 115.209 3.04028
5228.11 115.927 3.12246
5081.31 114.466 3.17763
4836.13 112.908 3.22752
4813.19 113.553 3.32496
4608.28 110.511 3.29501
4691.33 115.549 3.51849
4384.92 111.798 3.53442
4365.25 114.446 3.68167
4116.73 112.968 3.73994
4065.11 110.716 3.75084
3995.81 115.002 3.96239
3966.38 113.469 3.99641
3837.12 110.231 3.98604
3734.74 109.867 4.1306
3807.99 114.136 4.32193
3671.45 115.175 4.44266
3401.93 109.528 4.34451
3594.45 116.644 4.71814
3467.27 114.941 4.73451
3373.91 115.602 4.9178
3232.34 110.858 4.77688
3199.71 115 5.04295
3055.77 113.67 5.1235
3154.71 117.365 5.39712
3008.08 115.736 5.4111
2946.83 114.864 5.44376
2721.44 109.377 5.31044
2729.18 108.579 5.36806
2709.1 113.894 5.80865
2734.31 112.42 5.82426
2644.4 111.049 5.76726
2468.97 111.178 5.92383
2567.8 112.313 6.1072
2429.41 109.002 6.09416
2466.32 112.759 6.38859
2358.68 111.214 6.33888
2307.53 109.712 6.44073
2307.65 112.878 6.76874
2261.05 112.364 6.84425
2304.41 116.497 7.13383
2234.5 112.358 7.09909
2065.03 108.625 6.99596
1946.18 105.765 6.88069
2059.28 112.006 7.42606
1978.7 110.843 7.4931
1932.34 106.26 7.27078
1987 111.637 7.7633
1885.4 107.049 7.59745
1874.49 110.116 7.9088
1692.02 100.739 7.4176
1794.88 107.392 7.99547
1741.96 105.624 7.95939
1768.93 109.422 8.36954
1765.13 112.974 8.81879
1618.49 104.599 8.20156
1662.65 108.903 8.76809
1691.82 108.95 8.8483
1537.72 102.25 8.4343
1601.25 110.271 9.24021
1585.77 108.786 9.3358
1580.44 109.34 9.44542
1497.36 107.82 9.45882
1522.15 109.132 9.62568
1408.43 103.295 9.35406
1406.63 103.589 9.51369
1475.82 108.406 10.0863
1480.58 113.486 10.6847
1430.9 108.985 10.4496
1394.27 106.568 10.2268
1384.09 110.5 10.8394
1355.52 108.905 10.818
1312.65 105.078 10.5808
1269.33 105.977 10.8093
1252.35 105.52 11.0453
1265.15 106.775 11.2691
1244.82 106.055 11.3012
1215.82 105.7 11.4086
1174.53 102.052 11.1498
1199.12 102.005 11.3175
1104.12 97.2077 10.8433
1112.85 102.353 11.6858
1108.51 100.966 11.5609
1090.51 100.851 11.8378
1058.75 100.912 11.9594
1050.01 98.3071 11.6781
1087.45 103.107 12.4215
1069.05 104.242 12.7442
1046.08 101.793 12.5041
1051.19 105.618 13.2508
1017.56 104.393 13.2824
978.574 102.296 13.0076
1014.38 104.729 13.7139
954.524 102.304 13.2964
979.023 105.447 14.0307
937.757 99.8638 13.542
971.628 102.812 13.9579
948.957 106.28 14.6153
924.562 105.979 14.7573
906.354 106.865 15.1906
947.398 106.019 14.9741
888.203 101.354 14.5194
883.455 102.736 15.1031
872.892 102.142 15.1473
874.509 106.464 15.7455
856.699 104.169 15.7435
833.682 101.973 15.5923
814.054 101.306 15.566
831.543 103.536 16.0285
801.495 101.549 15.9761
778.413 99.7613 15.891
792.761 101.838 16.4877
812.233 103.903 16.8171
774.666 103.421 17.1059
785.238 105.196 17.4251
759.484 99.6391 16.731
761.247 99.8822 17.0176
723.011 96.2242 16.655
747.15 102.784 17.6989
718.762 100.291 17.5239
686.623 100.575 17.826
746.603 107.091 19.0662
681.44 99.1519 18.007
678.934 97.6405 17.8331
683.562 98.0137 18.1297
682.746 98.7602 18.2116
660.12 97.4233 18.3764
669.609 101.789 19.1495
658.608 99.3561 18.9923
630.106 95.6208 18.4859
635.317 96.232 18.868
608.567 97.1378 19.0604
632.563 98.9657 19.452
616.619 95.5117 19.3504
627.244 99.52 20.0642
617.179 100.61 20.5876
588.942 97.4736 20.0867
608.977 98.0429 20.3796
568.188 96.5808 20.2879
598.905 99.5809 21.0985
548.869 93.8007 20.2418
550.7 95.7116 20.7646
543.132 94.1839 20.625
569.16 98.357 21.5745
592.203 101.355 22.4672
557.989 95.6653 21.4409
542.838 95.817 21.5184
514.148 94.1477 21.5759
520.445 93.3761 21.6762
523.517 97.5253 22.3875
540.449 97.1221 22.7519
518.634 98.6693 23.0556
504.518 94.5357 22.9975
508.361 95.294 22.7741
502.648 94.716 23.0796
477.206 93.9657 23.1627
481.004 91.0558 22.4374
470.218 90.9817 22.49
450.002 93.3072 23.4149
480.934 95.0496 23.9447
476.181 96.086 24.6116
463.306 90.6154 23.3021
465.409 95.1661 24.7367
438.406 90.4567 23.55
475.28 98.4464 26.088
461.587 96.6113 25.4357
439.781 92.1436 24.6875
435.148 91.6425 24.737
422.045 89.8314 24.5562
430.622 93.4034 25.7871
425.668 93.5585 26.0992
425.877 94.4513 26.3716
417.398 90.4815 25.4263
429.566 97.2539 27.4553
427.067 96.2526 27.5752
404.052 91.4608 26.4686
398.642 90.3917 26.4016
373.072 87.3255 25.6891
392.569 89.5019 26.3486
380.23 88.0629 25.849
373.17 85.3676 25.938
387.904 90.1518 26.8885
380.625 90.5542 27.4753
378.91 91.8288 28.1435
364.749 87.2532 26.9164
379.264 96.3553 30.2349
373.99 90.4844 28.4624
374.559 92.6945 29.1929
378.03 91.2366 28.631
352.688 91.9606 29.5808
355.837 89.8935 29.1884
348.348 89.4993 29.6276
364.998 92.2638 29.5962
359.442 89.5804 29.342
346.53 88.659 29.6239
343.12 91.9317 30.6892
348.119 89.0346 30.2325
344.791 92.5434 31.0887
346.543 91.5464 31.3709
325.109 86.2651 29.8161
323.603 87.5372 30.3151
322.863 87.387 30.964
330.252 89.2657 31.1402
318.12 87.3457 30.5974
316.444 85.1158 30.5972
302.393 84.9094 30.6974
327.353 92.3392 33.3566
316.562 89.1225 32.3578
317.718 92.5576 33.9627
304.652 85.0312 31.4788
303.233 87.664 32.4903
296.706 87.0425 32.6821
290.418 85.3599 32.3724
299.809 90.9296 34.8095
313.191 91.1173 34.2357
293.736 87.6001 33.7129
295.035 91.5673 35.6704
293.437 87.9598 34.246
286.82 86.6513 33.9219
294.413 90.8195 36.2249
279.093 82.8903 32.8448
279.498 85.1318 33.9918
294.218 88.5598 35.7249
286.567 87.1613 34.7373
278.624 86.8866 35.6148
269.971 84.7281 34.5989
278.005 86.8726 36.0139
271.742 86.6153 36.0858
279.384 89.4299 37.0986
252.25 82.647 34.9168
257.212 84.0984 35.6358
253.528 84.9134 36.4904
260.173 84.5967 36.3039
255.951 83.9853 36.3201
252.95 85.2551 37.3397
253.328 84.8065 37.1967
248.846 84.0935 36.8
249.694 81.5179 36.1512
241.367 80.938 35.91
241.789 82.5841 37.1452
246.02 83.3926 37.6508
246.89 86.7608 39.5139
238.119 83.5814 38.0008
238.968 81.8202 37.7053
242.948 84.5373 39.4727
232.806 81.7903 37.7244
233.668 82.3732 38.3179
229.213 81.5294 38.484
223.868 80.5178 38.0439
230.735 81.9281 38.6922
227.614 84.3381 40.3362
222.165 82.4773 40.0195
227.994 82.6526 40.0342
221.374 82.2718 40.0384
220.635 85.6086 42.2952
210.492 80.4537 39.6999
217.949 81.0007 40.6228
211.055 78.0344 38.9201
206.164 77.8124 39.464
214.931 80.7654 40.1557
212.966 82.9757 41.5332
203.191 77.4696 39.7701
198.673 77.8552 40.1788
201.444 77.6529 40.1872
207.329 83.8924 43.7296
198.093 77.3921 40.4667
194.833 76.3384 40.0155
202.213 80.8636 42.4758
193.622 81.1279 43.5097
200.871 81.4584 43.1222
191.518 77.3913 41.7037
188.791 77.2354 41.7701
196.303 80.762 44.1761
192.312 82.1559 44.9318
193.288 79.7082 43.383
189.068 80.3259 45.0998
182.202 75.0644 41.3307
176.768 73.901 41.5399
183.717 77.4308 43.457
185.638 76.3858 43.1432
189.663 81.0258 45.5721
184.233 77.6733 44.0272
181.49 78.2001 44.8016
173.899 76.1302 44.2837
182.839 82.1011 47.8984
177.219 75.3557 43.8924
184.173 78.1289 45.4206
179.157 77.4945 45.4853
167.598 74.965 44.247
166.404 74.6801 44.7072
175.201 77.4291 45.903
164.483 74.5262 44.8836
167.256 76.1949 46.4014
165.267 75.7984 46.2705
163.871 75.1218 45.6743
174.804 78.7526 48.251
170.924 78.9556 48.5871
164.754 78.1086 48.537
158.434 74.4061 46.8099
162.89 76.465 47.4524
154.509 72.7033 46.0729
153.695 74.8816 47.5878
158.942 76.555 48.6694
156.489 74.9005 47.7687
158.044 74.3606 47.689
156.217 72.728 46.3733
149.39 73.4644 47.6881
148.703 72.1133 47.8393
152.766 73.125 47.8226
146.551 73.0009 48.6119
150.526 72.993 47.931
150.403 73.7593 48.6172
146.373 71.9566 48.8825
148.549 70.9453 46.9912
147.272 75.0697 51.1299
147.394 72.5626 48.852
144.301 72.7922 48.9613
143.97 71.6044 49.3123
146.008 72.0285 49.1162
139.778 69.2937 48.4685
144.143 72.2431 49.2737
137.118 74.8861 53.0856
140.231 71.4268 50.3851
138.909 71.2888 50.0248
141.067 71.5418 50.5572
133.294 70.5779 49.9506
131.724 69.073 49.6809
137.661 72.2961 51.9927
131.581 69.3728 50.19
141.342 72.3412 52.5393
132.471 71.5452 52.5355
137.911 73.1869 52.8233
127.818 68.1247 49.6533
135.868 75.3691 56.2942
130.793 71.1111 52.6583
126.071 69.555 52.1191
138.408 71.814 52.3433
122.994 70.4341 53.5901
126.641 70.9397 53.7142
126.081 69.2584 52.8005
128.175 69.2439 52.3016
117.9 65.0963 49.9618
119.75 67.5488 51.7337
126.012 68.8417 54.1918
123.426 68.6172 53.042
122.409 68.1687 52.7662
122.667 68.9262 54.2107
121.073 70.3816 54.243
117.433 67.5895 54.5273
119.106 67.2086 53.1812
121.611 70.057 55.4119
119.173 68.5123 55.058
119.845 66.6819 53.1699
118.109 69.9582 56.7902
123.47 71.6015 58.7006
118.968 70.726 57.4385
115.677 66.7199 54.7312
110.885 64.0941 52.3626
111.4 67.5866 55.8514
113.734 65.8929 54.5823
117.038 69.8612 57.4507
114.034 68.1071 56.8821
113.105 66.49 56.7311
112.684 68.7223 57.9804
111.216 68.6773 57.7257
106.135 66.1993 56.8526
110.523 68.3363 58.0828
111.68 68.5462 57.3088
110.103 69.2023 60.1028
106.859 66.2624 58.1751
106.252 65.2289 56.9431
108.96 68.5408 59.5202
105.396 65.0985 56.5009
107.761 68.7232 60.7582
99.038 63.6723 55.9505
100.243 64.1089 57.0982
102.217 64.8584 57.6796
99.8753 65.8241 57.5418
102.522 66.6084 60.0273
98.7175 63.7309 58.5907
102.692 65.4789 59.6942
105.293 68.0194 61.3718
100.028 66.6003 60.3113
97.9541 62.9037 57.7789
98.2358 62.1104 57.5863
104.816 69.6503 62.9371
97.5179 67.3654 62.5775
96.1756 63.6117 59.5268
93.6042 61.7921 57.7369
95.3513 60.9643 56.7978
99.4193 65.8969 61.6846
96.7799 63.3073 59.5258
94.186 63.4649 58.9569
89.4938 60.3174 59.2499
93.6071 62.0815 59.2623
93.2034 61.6045 58.8081
91.7427 63.9576 62.8907
94.5657 64.2263 61.7529
95.6923 64.1419 60.5175
89.7579 61.8581 60.0523
90.2096 62.3965 61.0654
92.0942 65.0545 63.2019
92.3575 63.1855 61.913
86.7864 59.9098 59.9003
91.4401 63.575 62.4501
87.9297 64.049 63.6441
90.5684 62.4929 62.2823
90.7225 62.7878 63.406
89.0054 63.4694 63.7792
85.4814 61.8454 62.7444
81.7673 58.508 60.554
90.0868 62.0102 63.1502
84.0528 60.994 61.6013
85.4466 63.1441 64.9706
87.2384 61.9925 63.3928
83.1024 61.9456 65.3199
84.9651 64.3643 66.2726
83.3574 61.2568 63.2356
81.6217 59.5677 62.2084
79.5599 59.0279 62.3922
83.8661 61.432 64.8941
82.5869 60.2264 63.2725
80.1544 61.2658 65.2202
81.7554 58.3203 61.2788
82.3639 60.884 66.089
81.038 59.9839 64.8598
84.6827 63.7734 67.9159
77.6494 58.687 63.5843
78.7194 58.3315 62.4989
78.2708 60.8632 66.4788
75.8757 59.0534 63.9473
79.7855 59.6856 64.8644
77.9219 58.3302 64.7043
77.7834 61.15 66.8897
77.4808 59.0367 64.5856
74.0992 54.7618 61.61
77.7434 59.4098 67.3304
78.2923 61.0307 67.906
73.142 56.8816 64.0965
72.0623 57.7241 65.447
72.0995 57.4638 65.0435
74.2162 57.8647 65.9894
72.9835 57.335 65.3678
74.4675 58.0473 66.137
74.947 58.2268 67.0119
72.2667 55.9124 65.287
72.698 55.3074 62.3594
70.9013 56.6499 66.3157
71.3402 57.5901 66.4814
73.5374 57.699 68.2407
71.4848 56.8426 66.7812
72.725 58.941 68.5255
71.969 57.7183 67.6376
71.1766 58.5628 68.3992
69.9415 56.6597 68.1766
70.657 59.9062 71.551
70.3003 58.2657 70.1959
68.9376 54.7363 65.4574
71.9127 57.6974 67.4865
67.5128 56.9679 69.7429
71.5702 60.0581 70.9838
67.9796 57.1158 70.091
68.0209 54.678 67.447
64.879 56.2054 69.6847
67.3796 58.1646 70.9193
66.046 55.4362 68.9175
66.7169 57.7441 71.668
67.9002 57.3987 70.1796
67.1723 54.3588 66.5986
63.0851 53.8471 67.6976
63.607 53.3556 67.9558
65.6056 55.5522 68.6122
65.4068 55.8571 69.5795
64.2825 55.9383 69.7449
62.3043 54.6386 70.1657
64.6295 54.0309 68.6982
64.9451 56.0292 71.2483
64.6697 56.5531 71.5519
60.2608 50.5822 65.7197
60.619 53.751 70.0424
61.85 55.6353 72.3399
63.0652 55.6287 71.0426
61.7809 55.7443 72.9845
63.6108 55.9966 72.6327
60.4105 54.0058 71.1792
62.4698 53.8764 69.6831
61.7353 55.8811 72.9333
59.1186 53.1372 71.1694
60.4956 52.1192 69.4929
60.951 54.0075 71.5774
62.0198 53.6611 71.5827
58.6175 51.7534 69.0826
59.3093 53.0385 71.4565
58.4015 53.0751 72.858
60.6228 52.9646 69.3585
58.0053 52.8759 71.7346
57.2716 51.1372 70.0109
58.13 52.5138 72.3123
59.1472 54.0316 71.502
56.9937 51.6072 71.6513
55.8699 51.8451 71.6327
57.837 53.569 73.2202
58.3434 51.7138 71.6147
55.3568 50.7726 70.6179
55.6681 50.8125 69.2875
58.6554 53.3312 73.4358
55.7327 51.2738 72.1655
53.5994 51.0352 73.2776
57.1179 51.9474 71.727
54.2284 51.5556 72.6426
52.5272 49.5799 70.1309
55.5058 51.6955 73.2257
54.1879 50.3044 71.4511
54.5553 51.5056 74.2436
53.7006 50.3731 72.092
54.2633 50.4497 71.3776
51.0743 49.6895 73.0613
52.321 50.4087 72.5625
54.1731 50.0461 72.6324
54.2046 51.05 74.172
54.769 51.194 74.5347
52.8515 50.2945 72.0408
49.8913 49.9117 73.8142
52.4569 49.5373 74.5838
51.5951 50.0978 74.2295
54.8864 51.2691 74.3909
50.3371 49.9552 74.8724
50.9393 49.2841 71.9857
51.6946 52.7731 79.8682
51.4672 49.969 73.6577
50.1085 49.2092 73.8407
50.5462 47.5957 71.2195
50.1375 47.4502 72.3286
50.671 48.045 73.0665
48.2078 48.9817 74.89
49.1762 48.9654 74.5522
49.7119 47.7785 70.1461
49.4894 48.6721 76.6017
50.8077 50.0572 77.0507
50.3285 48.3944 72.9537
49.6344 49.2675 76.0936
49.4809 48.7922 76.5097
50.1682 48.7027 74.5691
47.6511 49.3175 76.6013
47.7689 47.3202 72.7472
48.6966 48.9424 75.1942
49.3577 49.6844 77.1927
47.5433 49.9305 80.207
46.4671 47.5675 74.812
47.4249 47.1939 73.8883
45.7579 46.3198 73.6513
45.2107 45.8051 74.5193
48.1249 50.4085 78.5095
46.3391 46.2793 73.7211
46.8576 48.1398 77.7087
47.2961 47.7756 77.5658
45.1403 47.4828 77.1122
47.7786 49.3849 79.8533
47.2605 50.6028 82.0559
46.8939 48.068 76.7025
46.03 46.8735 76.4166
45.5352 46.7654 76.6862
44.0984 45.3322 75.1615
45.8679 47.0934 78.2776
46.5029 47.7099 75.2517
44.3815 45.8762 76.0885
46.2429 49.0719 79.6138
44.6718 46.5647 78.7214
43.4183 44.4858 74.7578
43.3043 46.9452 77.4388
43.4156 44.8075 75.3059
44.4458 46.2468 76.0113
43.2798 45.2495 78.0492
46.1162 48.0364 80.5359
45.7391 48.2069 81.0692
41.704 45.1723 76.43
43.6168 45.8597 78.0738
42.046 46.1278 79.4338
43.0048 47.8806 79.2372
43.1957 45.389 78.4793
42.8154 45.8433 78.3961
42.0144 45.469 78.6647
42.4297 46.4977 79.1863
42.373 46.1681 77.3756
40.4786 44.3219 78.1369
42.0135 45.1644 80.4793
43.1816 46.0052 77.3333
40.1511 45.3799 80.5737
41.4845 45.2289 78.1424
40.3281 44.5769 78.2251
41.0496 45.3352 80.3889
41.1305 45.1448 80.5188
40.3724 46.1526 80.1765
40.1313 45.8404 81.6311
40.7522 44.6985 79.0662
40.1533 43.9115 77.8572
37.9196 41.7667 75.0815
41.7782 47.2596 81.9602
38.8302 42.9039 77.2625
39.5084 43.8054 77.7979
38.6581 42.7574 76.1096
36.184 41.7799 76.5556
38.0216 41.7192 74.9236
40.2863 44.7194 83.0583
38.6779 45.2264 81.9356
38.1586 44.1578 80.39
37.4351 41.5875 78.1429
39.7283 43.495 78.0852
38.1589 44.9625 82.6308
38.0392 44.0902 81.2609
37.1195 42.0885 77.058
36.8426 40.6483 76.2771
38.8592 44.0974 79.8563
38.1194 43.8595 81.7237
37.3674 43.1092 77.8874
34.4926 41.431 80.4198
38.6747 42.2851 76.4691
35.5504 40.556 76.8733
36.9453 41.8399 75.4518
35.7689 44.889 86.5073
37.9636 41.8935 80.6374
36.7564 41.7397 79.7993
37.4872 44.5396 82.9602
35.2252 39.6138 75.4748
36.2265 42.3269 82.8018
35.7541 41.2946 77.7897
35.143 40.2322 78.6318
35.857 41.146 77.2652
33.5204 41.1583 77.0652
34.0897 39.7378 78.8264
34.4135 39.3395 76.7957
34.9212 41.7237 79.1529
35.525 42.7866 82.259
35.5994 42.9783 83.5431
34.483 41.1076 79.7285
34.8596 40.4352 77.784
33.523 39.9546 78.2377
33.7706 38.67 75.6655
33.8366 41.6282 81.8157
34.5926 41.2143 81.7484
34.1464 41.9124 82.9073
35.2011 39.8203 79.0015
34.6157 40.3445 80.0504
34.5994 40.7883 82.0606
34.6952 40.1087 78.0332
33.0359 38.8068 76.3197
33.0972 39.2452 80.5199
33.112 39.9144 79.7872
32.0432 37.9235 75.5857
32.4655 38.1016 78.4215
32.4782 40.3867 80.9812
33.0199 39.7667 80.491
32.0358 39.3778 78.0881
32.8702 38.064 75.9076
33.0147 39.6465 81.7995
32.5343 38.3477 81.5372
34.0388 39.0696 78.7013
33.2789 39.5404 80.9487
34.2853 41.6346 82.6114
31.77 38.3326 77.9841
31.3147 40.4885 82.9834
31.5898 37.9336 80.5721
32.2135 39.7973 81.7982
32.7823 39.216 79.1223
31.4239 39.0923 81.2822
32.3539 39.3458 84.3706
33.1922 41.6436 83.7374
31.8828 40.145 83.6963
31.0215 38.0236 79.5612
32.2238 39.908 84.4479
31.2235 39.1426 81.9214
31.9895 39.5341 83.8601
30.969 39.0342 82.7302
31.1516 39.7796 84.221
29.8997 38.1389 80.4673
30.8816 39.2137 82.0567
31.3048 39.8756 85.7819
29.9525 37.5332 81.4428
30.9453 39.4209 83.6233
29.335 36.9859 79.9469
30.4005 39.2949 85.0948
31.2419 38.3898 80.8104
30.8242 38.7382 85.786
30.8751 39.6886 85.8217
30.9128 38.7116 82.0733
28.8683 36.6112 80.1789
29.6547 37.3527 77.942
29.536 37.2388 80.6035
27.5285 35.637 77.6419
29.0282 37.9893 82.8298
30.1121 36.645 81.4339
28.0808 37.7318 80.4932
28.5766 36.7547 83.97
30.2076 37.6842 82.3157
28.9552 37.6444 85.5441
29.7587 36.8442 82.9742
29.0306 35.9042 80.0104
30.2636 36.1017 79.0002
29.6761 38.8149 85.4161
27.8709 35.8777 81.7445
28.1794 35.2873 79.61
27.4428 37.3035 82.1421
27.9115 36.4026 82.9099
29.4607 37.7735 85.8488
28.0893 37.4565 83.9102
27.3829 37.0631 82.4058
27.0824 35.6437 81.5344
28.6406 35.8108 78.0582
27.2977 34.9283 81.8884
28.3747 34.934 79.1977
27.3919 36.4203 84.0241
28.5604 36.2874 81.5741
27.2357 38.1425 88.0875
27.9063 36.2476 81.9756
27.1129 34.8727 82.234
27.284 37.952 86.2908
27.6148 34.3631 80.8857
27.3322 37.2965 83.1414
26.6567 35.5028 83.8036
28.0072 36.8781 83.0919
26.3129 34.1047 80.3061
27.251 35.7218 80.5602
26.6335 36.585 87.8924
27.4461 35.4746 83.192
27.6603 35.4546 84.9143
28.1175 36.0729 84.6351
26.8466 35.2162 83.191
26.9183 35.0632 80.6871
25.7616 33.892 79.8688
26.1564 35.2252 81.0481
25.2198 33.9265 81.1706
27.1434 35.795 83.3958
25.7762 34.4205 82.4499
26.4521 34.3962 82.0577
26.62 35.3881 85.4425
27.3551 36.3492 84.288
25.5926 33.8905 81.0372
25.8705 34.9543 84.5439
26.2483 34.0991 82.2518
26.5416 35.881 85.9736
26.1212 34.8042 82.629
26.101 34.6682 83.9673
25.3496 32.1788 79.0503
24.6621 34.1354 83.9941
26.0147 34.8291 81.7642
25.9783 33.3073 81.4158
25.8727 34.5671 84.1462
25.0238 34.0842 83.4063
25.1297 32.7024 79.7875
24.3205 34.2676 83.4658
24.3398 33.2446 81.332
24.3792 33.2946 82.7963
25.308 35.543 87.3579
25.608 34.2854 83.4034
24.4874 33.4219 83.2648
25.3309 33.8952 81.3991
23.5756 33.6472 84.9095
24.5264 33.0058 80.9485
24.7051 33.0468 82.4864
25.1182 34.394 83.4167
24.566 32.0319 80.956
