# pn-170911/CsIIA-24-TWTF-1280-1959.psd
# Power spectrum* (dif=0,1,2) (really just |FT|^2)
# NOTE: only the first half! (symmetric)
# weeks: 1280-1959
# 9 clock-days, 1 excluded
# PSD: 1441
96937 0.770321 0.0173046
2.00653e+06 20.5707 0.0144955
1.57812e+07 380.45 0.0241267
2.0487e+06 93.8031 0.0150869
708311 43.9866 0.00969711
621717 44.9469 0.0177382
790719 88.1597 0.0337481
143607 26.4313 0.0130878
225568 61.8459 0.0286983
185082 48.5258 0.0356322
167215 34.9918 0.0255862
125528 66.4334 0.0354745
122390 49.483 0.0508238
118102 73.3923 0.0721579
78941.1 71.5658 0.0527385
54485.9 45.5485 0.0504206
69023.6 53.5915 0.0708097
47092.5 45.6406 0.0760924
44995.5 58.1594 0.127227
26434.7 38.2976 0.0860866
35833.4 48.2987 0.0791175
34321.6 61.5882 0.165093
38124.2 50.2016 0.109629
17934.7 42.7083 0.112803
35272 78.1577 0.286161
13817.1 41.9675 0.140431
17341.6 40.6288 0.107687
25680.8 49.9412 0.192951
17988.6 58.911 0.246744
13551.2 62.2346 0.219947
9766.84 43.6627 0.229545
10778.7 39.0296 0.18896
10385.6 29.0476 0.177473
8488.63 33.5499 0.195478
4805.91 30.7722 0.180254
14381.4 57.4951 0.360002
7240.66 22.3434 0.126046
7243.34 30.2639 0.217031
14987.5 79.1471 0.582275
11148 48.0848 0.347924
9933.85 65.7377 0.483189
7437.88 48.7 0.408296
11549.5 75.4143 0.611923
9380.68 62.3259 0.581414
8941.77 60.71 0.536063
5665.16 24.2098 0.251728
7844.57 49.8618 0.530736
6643.56 55.4523 0.628888
5953.64 42.0756 0.448795
5878.04 31.9603 0.405208
3044.2 30.6653 0.379592
7300.27 47.345 0.671063
5025.01 46.6427 0.632463
3440.42 77.7591 1.07706
4981.85 59.1604 0.904849
4357.1 32.8896 0.461796
3543.06 37.9328 0.676723
5114.38 53.517 0.924906
4442.43 55.0933 0.787114
2747.07 23.7185 0.416718
2034.87 33.1146 0.630764
5717.13 73.2454 1.39831
2442.54 44.3405 0.834874
3038.58 54.9654 0.939963
3634.82 56.9386 1.14895
3557.08 47.8241 0.945057
1902.08 40.0858 0.746902
4582.84 55.1553 1.24998
2786.53 37.5232 0.774631
2917.67 45.6455 1.2135
2616.46 35.4145 0.755285
2660.9 61.0781 1.55912
1953.65 34.1864 0.656883
3142.16 51.3184 1.1995
2543.13 35.2242 0.919276
2393.04 42.8517 1.10488
3591.18 47.6227 1.31258
1629.78 48.4549 1.3389
2037.59 42.3929 1.22247
1426.27 19.7248 0.562977
1963.7 38.7403 1.33627
1592.39 27.1576 0.818354
3094.91 59.2713 2.00351
2357.83 77.4453 2.5661
1279.07 47.3327 1.75518
2465.23 54.8685 1.90873
1912.48 31.4952 1.13137
1882.79 30.8337 1.05741
1742.26 56.233 2.0471
2032.8 46.309 1.70581
1558.76 39.7148 1.4414
1719.92 47.5452 1.92895
1302.45 50.7266 1.9141
2129.32 50.3839 2.08289
1721.21 64.8179 2.89667
1912.13 45.1993 1.95243
1339.61 38.044 1.59744
1568.59 59.3742 2.80396
1316.07 49.812 2.05311
1721.77 51.0207 2.26195
2096.7 61.8835 3.04258
1185.54 48.9028 2.25059
1717.35 60.9782 3.10813
624.164 35.7456 2.12314
1480.16 53.7163 2.54436
1382.46 40.9794 2.18483
833.401 34.4575 1.74005
1307.14 57.0286 2.94813
1196.69 36.3311 2.18341
1221.23 66.9271 3.53511
1227.77 45.1133 2.81333
1295.49 69.1637 3.99293
711.31 45.2976 2.57649
1510.13 47.6111 2.88013
1037.22 47.1905 2.9
1177.74 45.8303 2.94132
413.913 23.0987 1.48275
607.659 38.0198 2.72061
1000.42 67.0319 4.24377
859.922 54.7362 3.2974
1158.28 55.8941 4.01469
776.122 44.4358 3.18866
1015.38 61.8553 4.47355
1192.01 51.8302 3.24975
835.401 33.0761 2.58954
1408.4 75.1755 5.05032
1167.9 59.6412 4.37679
1196.15 78.5066 5.92143
1248.58 71.7931 5.50798
818.335 44.2086 3.75176
751.705 45.4995 3.71633
674.656 40.9575 3.46436
665.3 45.8641 3.62245
666.754 28.2681 2.23798
1003.51 39.7644 3.43475
565.917 31.9125 2.50476
1273.36 64.6118 5.63785
483.98 29.6371 2.70705
945.799 60.8177 5.15033
666.321 36.6073 3.7445
828.933 59.9578 5.58525
1252.76 90.1901 8.68606
538.755 40.3758 3.94817
788.155 43.2503 3.96755
323.975 37.2466 3.24976
481.887 41.9001 4.32298
469.119 32.1305 3.10976
772.508 66.9899 6.87741
430.259 23.4224 2.18474
683.269 34.1271 3.61796
440.474 31.6395 3.24339
591.543 35.191 3.91977
362.678 29.978 3.52862
475.15 39.4696 3.89434
483.476 44.1937 4.93362
417.633 34.4313 3.79768
768.81 50.5284 5.62187
447.578 41.7835 5.06221
319.196 31.7223 3.85299
574.978 45.0443 5.51771
619.847 48.9708 5.49819
803.058 56.7622 6.86068
871.546 74.2195 9.00955
496.691 60.0553 7.22865
447.478 40.7975 5.5131
336.896 60.3631 7.62257
417.959 36.6707 4.49795
349.635 30.4302 4.30129
406.462 39.3518 5.19889
778.411 70.7968 9.4873
577.483 58.7094 8.46479
441.134 39.6574 5.00861
268.474 25.5391 3.74867
547.753 40.1025 6.21369
673.406 69.025 9.8642
570.665 60.5467 8.56317
316.326 36.8559 5.55624
342.963 54.8 7.81916
445.849 57.2351 9.08944
418.585 46.4334 7.07677
428.608 53.3619 8.55113
305.377 37.8318 5.39787
318.569 30.11 4.50693
472.122 43.0345 6.44244
439.294 42.7236 7.0481
355.364 57.8034 9.01384
218.172 39.247 6.07253
247.873 46.3825 8.42838
312.975 32.1905 4.87587
460.636 42.7801 7.61458
231.6 35.9019 6.04154
372.103 52.946 10.0144
679.089 77.1318 11.1756
445.489 70.8288 12.4754
372.278 53.1669 9.90089
233.103 22.1858 3.30958
236.176 44.7816 8.39236
294.485 32.2923 5.69791
206.444 21.0578 3.62379
254.51 40.1698 8.11995
428.338 43.1143 7.46302
233.917 37.6904 6.70828
207.889 41.4023 8.01571
261.591 31.4955 6.39117
348.8 43.4927 8.54197
252.676 47.1251 9.58199
224.535 20.4903 3.99287
320.205 35.15 7.62998
284.951 33.055 6.47806
245.261 42.6926 8.26492
225.262 32.8573 6.28058
208.403 41.4929 8.8353
287.111 36.2671 8.07712
256.006 25.9458 5.29285
275.853 43.6718 9.75885
325.375 37.0007 7.38141
366.792 56.7712 12.0157
254.928 40.8198 9.37569
366.288 57.2406 12.7107
243.092 40.2201 8.95931
253.594 29.9326 6.74219
227.707 50.5883 11.7676
296.836 51.2896 12.0832
163.373 17.683 3.5633
107.134 20.4352 4.74519
84.5858 22.2572 5.5741
403.285 72.3723 17.5015
295.825 48.5377 14.4087
260.486 44.7849 8.90216
263.824 45.2349 10.7595
188.353 26.1233 5.64373
187.246 36.1263 9.97526
199.835 29.5057 6.60776
171.888 36.6456 11.0544
190.449 37.6686 8.49186
155.879 29.8623 8.78155
243.04 41.9203 10.2992
305.983 53.1971 14.3352
177.119 24.8682 5.91332
202.805 31.3531 7.72919
255.28 55.9129 14.8037
234.565 35.498 9.70863
208.401 48.5577 13.246
209.761 61.8419 17.6327
225.176 40.451 11.1895
186.836 31.9133 9.34053
275.784 53.6324 13.8604
234.484 54.584 17.0507
128.548 33.9002 9.61067
203.231 28.3949 8.16531
200.46 28.2387 9.43394
215.222 41.7669 10.4978
147.935 28.0717 7.62495
222.069 31.7342 10.4368
170.268 30.3861 8.37266
196.982 31.4929 9.05062
158.172 32.6916 10.4655
240.029 48.8801 14.0745
202.696 32.0352 9.18693
196.173 49.7891 15.4165
242.093 52.4616 17.4233
144.982 33.2384 10.7702
149.646 30.9106 10.3948
191.731 34.1779 11.7746
146.2 33.7423 10.3704
156.183 28.5383 11.0617
141.546 39.1888 11.6215
97.4817 27.5213 9.62621
96.5213 27.5903 8.87375
190.511 43.1424 14.7443
149.171 35.6434 9.4388
234.095 58.849 20.5473
126.253 29.9793 9.95158
187.754 46.1367 16.1984
125.701 33.573 12.5489
204.008 33.4693 9.70398
150.763 49.3114 19.3202
156.836 26.287 8.95366
145.669 45.5855 16.9698
172.889 40.796 14.3454
189.961 44.4125 17.3931
191.258 40.2645 12.8903
155.269 37.1236 13.7117
138.827 34.1028 12.8101
68.1582 22.3068 7.43764
156.652 29.2479 11.413
135.286 33.6248 12.3936
100.667 35.0848 13.3586
195.123 60.7969 21.3423
135.328 33.4692 12.9295
127.798 26.2188 9.86529
143.538 38.534 16.9506
118.534 42.3903 17.3336
124.701 30.2751 12.5664
89.6327 12.8922 4.94627
114.73 22.2541 8.4702
80.7951 29.5168 10.8232
69.7675 24.7847 10.2532
105.995 26.8553 12.4275
198.876 34.8909 12.5286
59.1282 15.9555 6.06661
126.601 28.7403 14.0505
117.853 51.2267 21.6415
122.912 36.0211 14.5702
123.919 25.6091 10.6606
147.12 42.9434 15.7165
131.228 37.4643 17.9014
88.8766 28.4073 12.2831
143.112 43.3107 19.2399
109.629 22.3941 8.60774
113.497 27.6737 13.2213
156.713 30.8495 13.8741
111.837 26.4947 9.43773
66.4865 25.3917 14.6188
241.475 62.9479 26.338
62.445 22.5108 8.89201
67.0246 19.1034 9.79062
140.284 38.6569 15.2456
61.9716 19.381 8.99429
95.2112 29.8046 15.3962
70.937 39.4816 18.3488
57.9599 33.4911 16.5265
135.482 28.5183 13.1472
151.824 50.5557 22.4627
105.688 18.6785 9.2295
79.375 24.7904 12.5711
82.6704 38.3352 18.2854
121.14 33.3373 16.6536
50.7136 12.6236 7.96621
130.297 35.4579 16.8248
93.2143 26.7431 14.416
109.4 32.2006 14.9352
64.6837 37.7934 17.107
126.676 35.6644 18.6607
62.1732 21.3049 9.17083
39.6113 29.2997 14.9067
62.0071 17.4154 8.77787
139.582 32.6565 15.9524
103.093 43.6164 24.7645
69.8902 24.81 11.1321
56.5242 19.6701 10.7502
93.4434 28.1253 13.5046
93.5924 29.0255 14.2963
76.8669 21.8506 12.4
132.675 46.4555 27.0172
135.361 54.9869 29.973
66.1487 19.3627 10.7027
85.5678 29.7245 18.6213
37.6648 19.9595 11.4562
81.5109 27.9645 15.5863
84.0301 34.1824 19.8486
105.201 23.2714 13.4721
171.601 67.8679 35.4249
74.0908 38.9572 22.6627
75.6031 25.4346 13.8921
69.7956 28.9701 16.8176
54.6979 28.645 17.6899
50.7509 29.6878 21.0062
108.543 38.7189 19.6612
59.9524 11.2257 5.47986
80.9621 19.7019 13.5092
106.165 35.8452 18.8784
36.0704 13.8151 10.1263
73.2762 28.8241 17.9491
96.5739 28.2541 13.4134
52.1489 8.78682 4.44975
83.6389 36.5049 25.4777
104.973 40.7564 21.5779
91.8334 36.0275 23.1656
46.9513 13.1388 7.17844
59.5844 22.546 15.8061
101.987 27.817 13.0025
69.3763 19.7171 13.3636
68.47 16.7225 8.8175
88.1784 30.3311 22.008
96.0058 28.6284 18.1875
54.7089 29.6202 18.6058
65.8407 26.4362 18.138
84.0409 22.8898 13.4548
60.7625 28.7762 18.8948
103.983 38.4191 27.7074
95.1692 51.258 30.1479
55.164 39.3599 26.2239
110.543 34.5023 18.9479
60.5024 22.4221 14.4163
58.8136 31.0752 18.9185
72.8664 22.2737 14.355
74.3789 27.3665 17.6982
55.6894 29.9446 20.4626
61.5968 18.4806 13.7337
56.1335 20.0363 15.4265
94.0955 15.6368 7.69995
69.2739 29.9956 22.5206
81.3237 21.5858 14.715
26.3394 11.5253 8.81624
59.5409 25.0459 14.7367
112.758 41.1613 31.3978
66.5236 33.3813 25.1408
48.5742 28.3384 22.7669
109.726 37.1299 25.902
52.1322 25.0439 16.0379
83.8221 37.2737 25.4478
65.6076 34.0032 24.8981
40.2126 11.0741 7.16564
47.2701 18.397 13.6865
78.3457 25.2523 14.1924
51.2372 17.7415 14.4761
66.2442 30.0878 22.9801
44.6204 13.7427 11.1194
56.3267 33.68 28.3063
47.8321 34.8329 25.1754
96.6614 37.9445 26.0854
44.5579 10.3328 9.82399
36.0854 11.396 8.16174
62.3975 28.575 23.4384
53.3478 33.9799 22.7751
81.9908 39.1687 32.3436
22.2167 18.569 13.2199
47.069 27.0253 23.7455
60.1316 23.9061 16.9819
56.3113 17.8465 11.1992
32.372 23.6517 21.8904
64.3813 27.1267 22.9628
86.9669 37.2822 26.8594
52.0534 21.0387 15.0378
50.1833 20.8863 17.2056
58.5028 24.0294 20.8075
64.4822 25.594 21.6537
67.9852 33.3853 26.7281
52.6088 17.7018 14.8869
53.4005 24.4782 24.9032
41.6109 53.2422 35.6762
32.5002 12.0285 11.1886
64.8982 39.7888 28.8932
56.7915 33.4076 29.2748
45.4635 30.4055 23.2297
34.5908 24.2288 20.8756
69.2778 27.6406 24.51
33.0736 33.9798 28.396
60.504 22.4606 21.774
27.5955 7.4582 8.24601
63.211 24.0487 22.5142
32.3856 19.6238 19.0735
35.1723 11.1014 10.928
47.1019 24.4856 19.1023
46.4149 21.2681 15.7398
32.3645 30.5914 29.4223
78.5978 38.4944 33.1924
32.7254 6.03383 9.15598
52.2204 29.5324 22.1763
23.1582 20.617 18.7751
22.9571 22.1794 18.8607
29.8624 28.0425 24.5688
24.0507 28.4512 33.2527
57.2911 29.6261 20.1401
32.3643 19.6984 19.5118
51.7276 22.8959 19.2358
30.031 21.5325 17.9489
34.5971 21.2157 21.3998
76.985 31.9395 29.057
30.0381 18.3977 17.8774
26.6021 14.0496 15.7911
42.1467 20.5064 15.9268
47.8771 24.5449 26.6195
45.5207 21.6371 16.2742
49.6546 31.0609 24.5176
40.2651 26.7095 27.6848
47.5143 17.2446 15.6712
41.5092 27.6702 29.1537
49.5247 28.243 26.7736
25.4824 15.115 14.2001
38.5743 16.4662 18.2817
51.0571 36.3019 29.7303
16.0669 7.13609 6.32943
26.6528 33.7227 30.3234
34.3575 25.1423 31.6138
67.0992 18.751 14.2722
31.6703 18.4533 21.4986
42.7546 24.3167 21.8081
47.6543 17.726 18.6762
31.5018 17.7857 18.8209
46.5394 28.5469 30.1084
47.1777 19.2679 19.8446
27.736 18.6812 15.5024
24.4321 12.0101 10.9325
41.3247 22.6911 24.3962
41.9064 14.7294 15.6707
38.6818 29.015 27.7622
22.6407 9.95744 12.1678
38.5021 26.569 30.231
37.2413 13.3627 13.8624
42.8601 34.4878 33.6024
50.7472 29.4409 32.3668
29.0763 14.6406 18.6114
28.1302 13.6096 17.7201
32.3985 18.4921 21.129
50.6071 25.154 17.9013
37.6532 34.8599 37.9071
35.8517 31.1625 34.7063
46.4181 21.618 21.1174
29.5926 15.2211 16.0129
22.9903 16.2664 21.6273
30.6421 22.4484 22.5933
25.9469 9.18071 10.0793
17.52 12.6506 15.0563
45.6839 21.998 24.9694
37.8577 15.6744 19.9822
42.6912 19.4196 13.6429
21.92 25.6955 35.6809
52.5405 29.2673 29.776
46.8638 26.5062 25.1603
29.9594 16.4479 17.2879
24.4459 22.0134 24.3553
20.6826 20.6237 32.4285
20.673 17.9664 21.8215
34.2724 28.0393 24.0359
32.3522 18.5812 20.8644
32.6295 17.7136 19.6008
18.8089 28.9785 35.1636
29.3921 20.9991 21.9927
23.8086 14.9938 17.0614
24.1729 13.9783 16.0371
23.1908 21.1233 28.6346
30.3707 7.62545 6.72974
19.2935 9.12415 14.7319
33.1492 25.1682 28.3162
27.332 9.27943 16.1125
18.7059 21.7719 21.9438
27.8776 12.0378 14.3605
26.4879 15.4929 18.5812
31.7983 10.1955 12.0676
21.6948 19.6894 21.4816
27.644 14.3002 17.429
21.8206 12.6754 14.2905
28.0183 14.6257 14.8307
38.7619 20.4305 26.7358
14.4919 22.7955 27.0387
28.7399 21.4972 31.0304
43.1633 12.3789 12.8982
29.4147 16.2859 17.8066
27.8502 17.6075 15.5131
17.2652 18.4732 24.5596
29.2764 18.5157 25.6085
28.4813 9.44835 14.6902
26.2839 21.0817 26.42
37.034 15.2191 19.6092
24.1392 21.4054 25.3533
30.6882 13.8448 20.0074
23.5212 13.3678 15.7939
33.344 22.9791 26.3332
52.2069 27.3213 36.8279
24.5238 19.0963 26.549
38.0771 29.5124 37.0174
19.7613 21.9195 30.4135
40.1463 16.1935 13.9223
24.1155 11.5088 17.3268
21.9141 10.4977 14.6683
29.3017 16.4498 17.7066
10.5625 11.3045 17.742
23.0181 14.6925 17.17
24.4948 22.7946 29.2949
15.9147 8.77213 11.0907
23.1764 17.263 28.0017
33.3658 29.8468 35.3587
19.1765 14.6492 24.2579
37.1705 25.9241 33.4818
38.3383 20.8957 22.8231
26.8524 16.6276 21.8769
17.9177 13.1037 22.102
16.945 23.5985 33.0693
22.7149 7.20423 8.70598
16.1356 9.90335 17.5808
30.6484 9.64654 8.93176
23.2983 9.89973 17.8506
30.0061 22.1583 28.5088
22.3025 19.0802 32.4882
28.4195 23.6667 32.8122
35.5679 31.839 36.9172
10.072 6.72345 11.3291
22.4249 20.4983 33.9825
20.6016 8.30441 11.0197
21.3183 29.8715 42.34
20.2203 17.0743 28.0548
34.5679 18.4202 27.5359
21.5777 19.5756 24.2332
26.6451 21.5434 24.4789
30.6239 23.4749 33.2647
28.2482 12.3905 16.9371
23.042 13.6829 18.171
16.1395 10.4272 18.7731
23.817 23.3655 28.655
29.0419 15.6178 16.2937
18.5119 7.43809 11.1661
31.7906 18.4735 24.4565
22.1111 22.505 32.3269
20.1921 15.8518 19.1235
22.0165 14.1131 25.6543
20.3509 16.4247 22.5696
23.9705 15.5319 24.5739
12.0326 11.1658 14.5982
20.2949 18.2902 32.0468
21.9164 11.3155 18.9897
32.5869 29.7976 37.9577
24.1925 7.49804 11.4813
14.1245 6.8308 10.6384
27.2468 11.815 19.0581
26.9371 13.9722 17.9024
17.2735 13.1167 22.6823
21.9305 21.328 31.8931
17.9838 8.54596 11.8586
20.7098 23.9515 31.3588
16.6387 7.5316 13.9901
17.6028 17.9569 31.0787
20.3729 16.9908 26.0188
32.3195 15.7067 23.7851
14.7469 8.78529 9.2655
10.1822 12.021 19.0348
24.6512 13.0586 20.4678
14.0702 11.7921 22.0347
32.3167 20.9523 25.4287
18.2369 13.0599 22.6858
25.5312 17.2538 31.4133
33.7 15.0805 19.7446
26.6984 17.6963 33.3803
30.6099 19.5649 26.1876
22.8077 11.4246 14.1229
24.3703 21.7948 35.7767
13.101 6.92894 11.4521
13.9742 9.51994 18.0322
26.4083 11.6115 16.9645
22.5159 20.2722 34.8007
18.9062 11.6504 18.0448
22.1322 14.3712 21.0425
17.6718 17.9972 39.8395
33.7787 19.3448 25.2619
15.664 6.73676 10.9951
9.2929 8.51838 25.1599
30.0583 17.9109 24.1856
20.9963 16.3798 33.4008
25.4112 15.9596 17.3698
18.9088 9.48845 14.8362
21.7951 15.6512 21.94
14.124 15.566 31.0322
25.5375 19.5727 32.5745
24.2194 24.5262 40.5528
6.70925 7.30219 12.9978
15.1088 8.89886 13.3127
13.3235 10.9326 18.162
8.6586 21.4674 46.4029
23.7433 17.8603 19.8875
18.0834 19.6493 32.4373
13.1796 8.7953 21.7019
15.5481 9.84378 14.7342
24.54 26.5333 37.5533
11.5923 11.4193 27.8544
19.1511 11.6512 21.3306
26.1754 22.3439 32.2542
21.893 20.4606 30.5042
19.5353 20.9937 44.7998
21.0272 10.5099 18.7987
20.2133 10.7529 31.0145
26.2831 27.7972 32.7717
13.1658 16.2553 33.4222
15.0364 9.26057 18.6962
23.5773 13.2269 20.33
8.42119 11.7347 29.7347
27.6796 21.7148 38.802
23.7417 22.3071 31.2407
19.6159 19.5928 35.204
25.7805 11.9088 20.4622
16.0018 7.94692 14.6565
16.0102 16.8945 36.9036
27.2681 17.4035 29.5373
23.1528 17.896 31.5052
12.427 7.81487 20.1205
20.661 19.5303 33.4255
14.8453 6.60503 12.5407
11.0485 11.2884 19.7404
19.6941 9.89489 12.7607
21.3211 14.3809 27.9021
18.0455 19.4896 37.1666
17.8005 13.8469 20.1966
25.3462 20.8511 34.7133
11.4759 11.293 24.7277
12.7731 9.10118 22.1251
15.4091 15.4221 24.5329
21.9631 13.5817 21.3179
17.7537 12.2341 21.6046
18.9643 16.923 43.5412
15.4203 8.71106 9.2111
17.8429 13.164 21.0161
10.9989 11.5055 21.2891
9.2932 7.78993 17.0064
9.99686 10.1436 18.7435
9.91551 7.5803 17.1014
16.2871 14.8399 22.0286
18.5749 18.2799 33.3843
18.3655 11.0115 20.3573
10.4021 14.7701 28.5388
13.6832 8.95914 17.6064
12.1091 13.583 32.5437
12.6788 7.97789 14.6972
13.9675 9.40717 22.3321
18.5603 12.6286 17.6211
16.0352 9.45222 17.1186
29.8341 26.6871 52.967
11.2536 9.61941 13.7119
12.8819 15.9024 43.2393
22.2126 11.9154 22.387
14.055 13.2358 28.0645
6.73899 3.97564 5.24511
10.8424 10.706 20.5533
12.3451 11.4796 15.9259
13.9395 10.1309 27.537
10.9367 15.8468 24.2767
12.39 8.43335 16.2483
9.00758 8.61374 19.635
15.191 13.9464 31.5099
16.4754 12.9371 20.2386
11.3379 5.61205 13.1214
13.5298 7.45224 11.3805
12.7317 8.19455 13.0252
13.7051 10.8558 17.4539
16.7397 15.8946 37.4983
16.3459 8.36757 15.8415
13.1129 10.7063 28.6011
10.806 10.0445 19.7663
11.1331 9.40069 26.165
13.7983 7.85181 9.87018
12.9182 9.44718 19.4943
11.2325 8.75595 21.3006
12.1721 5.65104 10.7831
9.65191 9.23987 20.1408
13.3392 8.96859 20.0208
14.1268 12.8983 22.2677
15.2462 18.985 37.9295
16.8336 8.67046 17.1721
7.29427 6.22566 16.1918
9.1804 16.1931 28.5798
17.2239 18.7047 34.9388
11.2872 7.40656 28.7975
16.6242 11.141 19.2618
15.2818 8.93686 15.8818
14.5697 15.3255 33.7896
14.6542 7.44752 21.1964
11.7328 11.3609 14.0046
12.9223 8.7893 27.7519
18.067 15.6033 25.9142
10.2293 10.3402 18.2356
9.84828 8.81682 20.4954
15.7094 9.71572 20.3545
17.5579 8.5386 14.3522
8.5827 10.2352 30.7253
7.13584 15.7666 23.7293
11.6279 11.0334 29.3292
18.2569 9.9787 21.7964
10.3917 5.67622 12.7738
9.19542 6.84663 15.3757
16.159 7.53919 20.2656
9.30407 12.607 17.4185
10.8307 9.99198 24.2213
15.6474 9.09656 21.7856
8.13689 9.07283 23.3746
15.6471 17.9873 33.0848
13.7972 10.9508 21.4174
4.69054 8.15669 20.7812
11.1395 9.95747 21.408
15.2466 7.07694 20.8264
12.7397 16.2405 34.7492
12.5283 13.1097 38.2129
16.1992 10.0356 15.3499
9.93417 6.55726 17.3348
3.80522 17.6468 39.9185
14.3228 10.6367 18.8144
12.4971 13.4962 41.1553
19.2844 8.41765 12.6672
15.3139 9.96852 25.6739
11.1525 5.54313 11.8636
10.5932 5.22732 9.1891
15.1203 9.09395 25
10.5009 5.99591 7.64303
13.712 6.66884 21.4195
18.1396 10.5966 14.2872
8.12423 3.26305 9.3762
13.6592 9.2629 22.2079
11.7008 9.65558 20.5887
7.48037 9.38489 20.1453
10.1903 8.48616 26.5892
17.7303 20.9323 41.049
9.58104 7.00975 20.0507
9.66094 7.57527 16.2176
8.11624 6.48735 22.1495
9.51347 9.77114 15.9256
11.6014 10.9913 25.9053
9.65859 8.80055 15.823
13.5175 9.3635 19.7233
9.73291 7.5631 17.6377
13.6097 12.7804 28.5618
12.1649 9.09136 22.7949
16.2796 14.5391 29.4694
9.2256 9.09214 19.7569
11.8986 7.26596 19.0307
7.50697 9.32515 25.471
11.928 11.3804 25.0001
12.901 6.71991 21.5792
11.831 9.3181 15.1517
8.48548 7.37071 23.8715
12.8373 11.4113 18.6999
8.50124 10.5248 28.0417
10.1692 5.13511 10.7311
8.22388 7.86059 24.2637
10.6191 7.76247 11.9963
8.8908 10.2934 27.2834
10.2436 5.12334 17.6906
9.58269 7.66424 16.8742
9.2484 11.2362 20.5417
10.3329 9.81454 28.9262
7.34042 7.58793 16.3411
7.50116 8.24776 24.8669
14.9477 11.0151 23.1263
6.77888 7.09276 18.3071
13.1996 10.0856 27.3009
10.9786 8.04925 19.8823
11.4071 7.79519 14.992
12.1281 7.56468 18.3395
9.51966 5.79377 19.7054
14.429 10.496 21.6681
10.9706 5.97619 20.8213
6.37802 7.00845 14.0943
12.9689 5.99694 13.1603
8.50965 3.82048 11.5051
6.80899 5.93955 15.2427
