# pn-170911/CsIIA-av-CsIIF-1280-1959.psd
# Power spectrum* (dif=0,1,2) (really just |FT|^2)
# NOTE: only the first half! (symmetric)
# weeks: 1280-1959
# 2190 clock-days, 1426 excluded
# PSD: 1441
65326.1 2.18834 0.0959783
2.87353e+06 47.0399 0.294261
1.46036e+07 302.827 0.361445
2.55707e+06 96.4786 0.438378
2.38488e+06 161.789 0.347642
880131 88.0248 0.379025
685984 94.0795 0.434039
473563 93.5266 0.404407
373861 91.6413 0.463497
292381 90.1362 0.760408
234081 86.5176 0.545292
200110 90.6578 0.460799
169078 93.6217 0.486544
140866 90.1083 0.469084
130982 95.4327 0.556222
111524 94.2484 0.561873
90944.4 91.4447 0.567101
80704.1 86.5412 0.704946
73079.6 88.6011 0.593393
66305.4 91.3912 0.765555
57938.3 88.7553 0.572692
55689.4 89.3203 0.767397
50240.8 90.0564 0.736395
46580.4 89.5741 0.705713
40525.4 87.6304 0.716482
39851.8 90.397 0.854185
37110.7 89.6061 0.824267
32279 85.175 0.749943
32033.1 88.4553 0.802639
30781.5 91.326 0.891532
27885.1 90.0119 0.924356
25821.2 84.7854 0.838972
25850.1 91.7996 0.881249
22613.8 87.4083 0.836133
23399.5 91.4965 0.938031
21249.7 89.9845 1.03705
19540.1 87.6385 1.25839
17790.3 87.0389 1.04586
17501.3 85.9968 1.08193
18093.9 90.5929 1.12087
15182.2 86.3063 1.14986
15139.2 89.3482 1.19783
14561.5 88.6741 1.1589
13353.9 86.1392 1.17865
12458.1 83.9151 1.22239
12345.6 86.7449 1.28888
12232.8 83.3356 1.45581
11604.5 86.5695 1.44439
11196.7 90.5793 1.44468
11058.4 88.2461 1.49743
9872.45 87.8196 1.56183
9789.56 83.2469 1.59731
9809.87 91.1004 1.76444
9102.15 89.2052 1.53555
8665.84 87.8204 1.60295
8825.35 87.6769 1.74867
8116.8 85.7301 1.71403
8164.12 85.2212 1.92763
7961.46 85.4656 1.68315
7366.43 87.1919 1.97495
7075.26 88.4591 1.99777
7097.74 90.6523 2.35115
6841.33 89.5925 2.16869
6489.24 83.6033 2.10346
6480 87.3841 2.18368
6085.45 87.207 2.24589
5989.92 86.2055 2.09033
5832.73 87.3631 2.17264
5913.38 87.5758 2.50174
5422.36 82.3507 2.23478
5387.45 86.3049 2.43096
5573.35 90.8636 2.66183
5256.33 86.3918 2.63366
5330.64 89.1084 2.64565
4948.75 86.1673 2.74391
4481.38 80.981 2.71217
4757.28 88.6962 3.05685
4389.31 83.7832 2.78225
4600.79 86.5602 2.79442
4391.82 84.974 2.87619
4099.66 82.038 3.02654
4342.75 88.3973 3.15878
3974.72 85.0643 3.06971
3945.86 85.3156 3.24503
3984.97 87.6919 3.28213
3606.72 85.1013 3.32189
3665.78 87.2801 3.55264
3632.45 89.3831 3.71592
3381.87 86.9405 3.78136
3495.09 87.288 3.74182
3284.78 88.9215 3.80768
3278.71 86.5379 3.81019
3225.47 88.7069 3.92262
2989.76 86.6188 4.05403
3003.93 84.2226 4.01819
2928.94 85.3969 4.12536
2921.1 84.1347 3.87856
2820.55 86.3876 4.25253
2752.16 84.1534 4.22616
2654.94 85.2906 4.21215
2649.19 85.3877 4.44652
2692.09 86.395 4.53541
2419.93 82.1864 4.35392
2542.97 87.844 4.73051
2525.16 85.3689 4.55446
2340.22 83.1178 4.61414
2332.74 84.1141 4.99592
2358.17 84.6815 5.03667
2248.78 83.4492 4.92452
2344.05 88.5878 5.36015
2218.66 86.7633 5.28131
2220.39 87.9023 5.54757
1995.22 81.3019 5.26847
2142.42 87.5741 5.57687
1994.71 82.8816 5.5522
1967.48 82.9355 5.7563
2014.92 85.2726 5.60354
1887.28 83.0263 5.64209
1864.22 84.8945 5.83514
1723.86 83.0176 5.81507
1794.13 86.4006 6.19757
1757.16 87.9119 6.43219
1761.95 84.2297 6.17458
1581.97 79.681 6.06238
1586.59 82.6378 6.44604
1622.7 84.1576 6.45566
1501.08 80.9771 6.37576
1528.4 81.9324 6.55358
1534.98 82.9182 6.61049
1484.33 79.3369 6.48712
1487.18 83.4652 6.94826
1448.5 83.5542 7.2197
1462.25 83.4116 7.23544
1387.97 79.9631 6.72949
1378.41 83.8579 7.22362
1359 79.9667 7.01609
1297.31 80.9888 7.49415
1301.49 77.9862 7.22259
1277.95 80.6953 7.6382
1289.12 83.1889 7.78984
1199.82 82.0649 7.58847
1244.93 84.8244 8.27255
1229.4 83.3505 8.08238
1223.59 83.4147 8.18103
1134.12 82.2386 8.07608
1204.72 85.6033 8.78949
1198.86 81.3016 8.22207
1159.23 84.0451 8.9
1146.06 83.5521 8.98796
1093.89 81.1657 8.46076
1049.04 78.3368 8.6535
1058.49 81.1455 8.92936
1003.93 79.8577 8.98563
1064.45 78.5255 8.91527
1117.94 79.8806 8.91401
976.977 76.7722 9.02102
1005.38 81.5896 9.43932
1003.01 81.0686 9.47814
972.77 77.3931 9.00676
963.427 79.7711 9.66949
963.2 82.3102 9.97882
987.374 80.0848 9.92944
965.376 80.225 10.0588
931.79 81.6169 10.2818
858.983 77.2642 10.1056
862.09 79.38 10.4035
961.452 82.16 10.8857
863.967 78.3554 10.669
870.058 80.9188 10.8575
863.272 80.3171 10.7628
910.721 79.6411 10.7319
854.323 78.4043 10.9429
866.29 80.3388 11.3695
850.143 79.5319 11.3114
895.851 75.8198 11.0056
825.818 77.778 11.3197
781.783 78.7321 11.495
851.519 80.0112 12.0585
780.791 78.2673 11.6273
834.532 78.5655 11.8105
816.222 77.8478 11.8511
830.482 78.526 12.1948
802.654 77.181 12.0597
736.64 78.4384 12.2569
792.869 79.0955 12.6711
799.502 79.0087 12.8905
763.087 80.5693 13.1531
788.271 80.7842 13.1446
765.407 78.8624 13.1132
717.326 78.8921 13.4809
702.343 76.3536 13.0077
695.944 76.122 13.1007
774.671 80.6878 13.7902
716.626 77.0738 13.5458
688.9 80.0452 14.0991
736.672 82.4153 14.7084
702.876 76.0194 13.8458
677.293 77.9345 14.2035
654.248 74.9939 14.004
684.072 77.8903 14.5259
666.726 80.7978 15.32
660.711 77.4025 14.683
662.829 73.3226 13.819
675.979 78.7811 15.2719
636.68 76.0816 15.0339
637.223 74.109 14.8117
681.378 77.1667 15.6235
673.365 77.3933 15.7528
615.57 77.4436 16.0045
632.842 75.137 15.4549
629.26 75.3126 15.551
636.942 75.0627 16.0379
590.421 74.4153 15.5889
577.357 74.6186 15.9456
584.653 75.8331 16.3257
611.373 77.2018 16.69
590.362 73.582 16.0559
546.204 72.5983 15.967
564.512 75.1235 16.862
530.908 71.2978 15.8209
600.952 75.7019 17.0569
539.521 77.0203 17.4898
558.923 78.9817 18.3962
590.947 76.4381 17.8369
525.654 73.2536 17.1751
514.474 75.8087 17.6159
506.616 74.2411 17.8633
495.052 74.512 17.7829
503.653 73.2324 17.9729
517.119 75.6442 18.3786
485.89 70.4016 17.7721
482.776 72.5142 18.0048
486.569 74.978 18.8009
500.125 73.5583 18.5954
481.444 71.0688 18.4546
469.672 71.4108 18.2332
467.233 73.2612 19.0122
481.338 70.7566 18.7222
447.634 71.8522 18.801
454.498 72.9992 19.1701
446.137 73.8563 19.8412
469.67 72.3672 19.1191
472.52 71.1427 19.5087
474.629 75.3791 20.4722
426.492 72.3952 19.8659
428.583 71.8603 20.0779
420.241 72.8533 20.5621
434.747 70.7596 20.0373
432.053 71.0867 19.9276
427.703 71.2985 20.1841
406.146 68.1713 19.4692
435.37 68.9779 20.2912
400.619 71.3774 21.3933
429.872 70.1272 20.9079
410.981 74.4605 22.1198
440.458 72.6581 21.3828
422.582 73.1303 22.4532
409.622 75.8735 23.7174
432.11 76.2698 23.9696
384.952 72.9866 22.5258
406.707 71.8869 22.5572
414.407 71.6434 22.2453
400.4 72.8107 23.2568
381.77 72.2366 23.1366
355.736 70.6879 22.8597
408.064 72.8303 23.5665
399.84 73.9321 23.896
350.986 69.3952 22.641
367.329 70.1632 23.5121
340.02 67.5964 23.3782
361.357 71.0296 23.7761
344.346 71.3288 24.4066
359.695 70.3724 23.8547
334.327 71.2296 24.7546
361.364 69.8998 24.3612
348.938 71.7127 25.283
343.367 74.8053 25.9262
354.34 71.5864 25.5925
317.531 68.4846 24.0154
334.593 70.7614 25.3932
348.095 69.9223 25.847
325.012 68.6266 25.3333
343.566 67.3645 24.6232
378.731 70.0848 26.0823
375.64 67.6986 25.3312
376.943 68.7524 25.8506
454.554 68.1566 25.847
409.166 68.3557 26.3164
312.059 69.0569 26.1642
349.627 69.2051 26.8675
525.785 68.4868 26.6637
435.264 70.8669 27.6821
388.614 69.7458 27.5414
327.105 68.936 27.5183
378.318 71.2049 28.4348
306.43 69.9034 28.0973
310.443 66.9769 26.7903
290.074 67.3644 27.7805
288.226 67.718 27.9258
285.943 66.4035 27.5475
277.585 69.4912 28.309
290.313 70.9467 29.7509
321.834 66.2506 27.7181
286.66 69.6866 29.571
258.214 65.0498 28.0229
286.228 66.9441 29.0118
314.192 68.121 29.6234
296.736 69.0075 29.9088
259.611 66.0305 28.6491
242.475 65.887 29.0214
273.192 65.8229 29.0094
248.787 67.7479 29.5054
277.844 65.7962 29.1805
262.48 65.6842 29.5895
284.489 67.4672 30.0126
256.963 69.9079 32.1144
247.534 64.9343 29.917
266.441 65.7391 30.1625
268.952 67.5861 31.132
254.959 63.2899 29.1574
244.187 65.4584 30.7988
262.543 67.927 31.4826
241.065 67.3987 31.8778
280.064 65.3594 30.9954
252.111 71.4411 34.3742
263.296 65.3256 32.0547
296.454 72.2474 34.5736
251.6 65.3652 31.4185
257.307 65.3394 32.6395
295.779 65.2534 32.4491
248.19 61.9392 30.7302
244.536 65.3531 32.7299
227.297 64.7591 32.2569
261.184 63.0785 31.3618
261.683 67.4639 34.3837
232.66 65.7468 33.639
252.264 65.5511 33.6506
237.574 66.9847 33.9019
226.05 60.7211 32.5502
237.81 63.6977 34.0217
243.792 64.3189 33.1951
223.398 64.3362 34.7728
228.152 63.2158 33.4689
240.933 62.9682 33.4952
242.117 64.2855 35.1871
218.596 65.4773 35.463
231.803 64.726 35.3576
236.292 62.8445 34.1225
222.901 62.7138 34.4403
212.037 65.4722 35.4286
230.205 63.1018 35.4433
208.957 62.0621 34.5155
202.031 62.653 35.0365
214.247 64.2777 36.2681
223.043 62.38 35.0725
209.319 63.4754 35.9198
214.545 63.3009 36.4732
238.255 65.2122 37.2352
236.428 65.5221 38.5008
222.331 64.77 37.5125
210.842 65.4829 38.1817
218.529 62.0766 36.806
206.751 62.975 36.9077
205.805 62.4937 37.6777
195.413 61.6264 36.9631
222.828 67.0713 40.8041
210.034 63.2819 38.8731
227.578 62.4389 37.3635
204.016 61.8062 37.2043
208.66 64.0177 39.0006
223.726 61.7366 38.0323
201.987 60.3837 37.4059
196.588 62.8687 39.1315
213.012 66.3875 41.2058
192.474 62.7528 39.5915
213.066 64.3991 41.3631
183.632 60.7305 38.5181
206.969 58.9624 37.5852
196.478 62.9569 40.162
189.55 60.5515 39.3086
214.412 63.4033 41.0206
191.991 58.3015 37.854
189.947 66.2705 42.9933
177.634 59.9305 39.0317
214.524 61.7769 40.7191
185.751 61.6377 41.4765
185.785 62.0147 41.1442
177.939 61.5649 41.5124
198.496 60.8674 40.7974
176.338 60.9616 41.3806
175.58 59.3114 40.9181
180.938 60.3959 40.445
179.911 58.5665 41.5926
193.642 64.4767 43.779
181.047 60.6181 42.2225
169.111 63.1931 44.1752
176.151 58.4591 41.6788
153.523 58.024 41.0832
166.057 62.3872 43.9378
172.168 62.6374 43.6219
185.269 61.2506 42.5695
183.894 59.9405 43.3595
167.548 61.4887 45.116
164.335 60.869 43.7729
168.885 61.6133 44.5481
164.854 57.2201 42.854
162.538 57.1763 41.9018
163.062 61.9604 46.3423
183.616 62.0698 45.2099
149.31 60.4526 44.5148
188.227 57.3556 42.7655
152.648 57.3083 42.8924
166.875 60.0362 45.1099
160.455 61.9591 47.1374
156.287 56.6093 43.8133
164.458 62.988 46.9473
161.031 56.9449 43.4187
163.949 56.5449 44.4155
155.986 55.9707 43.4294
144.366 60.6099 47.3746
151.885 59.1355 45.9782
142.755 60.5452 47.1238
148.153 57.3454 46.1052
150.672 58.6588 46.6814
138.851 57.7609 46.2936
151.355 60.3089 47.9599
151.221 62.808 50.3612
145.476 58.4295 47.2319
136.534 57.3559 46.6555
137.099 59.9781 48.6018
133.076 59.6598 48.7317
154.321 57.8682 47.2281
144.684 55.5728 46.3706
139.893 57.4145 47.2439
132.296 59.9032 50.336
143.069 57.6881 47.1777
129.903 56.4207 48.2192
129.547 57.2681 49.0759
135.583 56.9476 47.8048
139.133 56.5489 47.6139
143.392 58.8368 49.1488
137.078 58.2963 49.7116
132.967 55.1609 48.3098
122.058 58.3342 50.4707
138.089 57.5798 49.551
129.153 54.6528 47.7853
130.535 58.8392 50.533
124.633 59.8378 52.1066
116.997 56.0517 49.5583
129.453 57.4225 50.7883
119.324 55.7134 49.3117
114.2 54.4131 48.5905
116.441 52.7066 48.1031
114.813 58.0975 51.7875
131.879 56.7 51.2591
132.017 57.2381 51.5196
135.432 55.1192 50.7894
120.141 55.423 52.207
127.28 56.2272 51.0475
126.13 56.1819 51.87
131.912 56.3085 52.213
125.513 56.2957 51.7141
124.498 60.6116 55.8436
123.611 56.7242 53.4486
126.685 56.0841 53.3033
124.423 56.6966 52.8192
115.787 53.1 50.4831
104.365 55.4441 52.7057
123.965 56.771 53.1264
146.072 51.8303 51.1954
113.63 55.1504 51.9367
110.582 55.8991 55.521
130.191 56.7869 54.8106
138.632 55.3617 53.7049
131.903 54.5741 52.8403
115.84 55.0887 52.8618
130.881 54.5437 54.2056
114.094 52.9404 53.1812
138.476 56.7175 54.3011
121.313 55.7207 56.894
124.605 55.4744 53.6491
125.866 55.9203 56.1189
128.927 53.2106 53.0891
127.78 54.4391 55.6809
130.382 57.485 57.6021
130.593 54.3263 53.6743
112.789 55.898 56.8504
114.209 55.7475 56.5909
117.224 53.628 55.8711
143.499 53.6381 54.9118
113.342 53.8202 56.7665
124.5 53.5514 56.1919
111.967 55.9188 59.2726
131.202 55.4529 56.6907
126.527 57.3889 59.1286
124.5 54.9231 58.5569
104.736 52.1331 56.0161
129.926 54.6756 58.5375
123.09 49.6379 53.5956
120.122 52.2721 55.9128
128.586 54.8706 58.9403
117.67 54.0108 56.6916
114.033 55.0587 58.2638
138.229 52.2793 56.4537
120.348 56.0857 62.5203
103.914 51.7615 58.3892
121.161 57.9145 64.5708
107.823 54.2962 60.0418
111.454 54.6521 59.9798
109.201 55.5435 61.2143
122.984 54.0035 59.1067
108.496 53.2456 60.387
119.684 53.4793 57.5346
100.346 49.5058 58.7815
121.121 58.022 63.206
110.625 53.8175 59.8164
100.03 52.7773 61.1075
106.643 55.0422 62.4743
99.2841 54.8977 63.3292
112.21 53.762 61.7086
111.958 55.7186 63.8224
115.175 53.5379 61.0238
97.7431 52.9314 61.1825
103.756 52.4959 61.4115
106.596 51.0805 59.7997
109.919 52.1593 61.6999
97.6651 49.8768 59.1056
102.214 51.195 59.5667
108.519 55.011 65.9813
118.93 53.6657 62.3663
103.502 53.0072 63.0489
103.367 53.6428 63.7752
107.365 53.1664 64.0065
107.947 51.1613 60.7496
105.991 55.2451 66.6124
101.789 51.2293 61.2914
103.228 50.499 59.7392
107.746 49.1018 60.784
110.705 50.006 61.4731
100.996 52.3338 63.6936
109.222 52.0343 65.4162
103.644 53.2585 67.5797
106.023 51.473 64.268
97.4795 51.1609 63.9129
98.1853 53.7269 66.4528
115.103 52.9548 63.6953
96.0823 51.2677 64.5332
92.4821 53.5766 66.903
93.2897 53.4036 66.994
93.9667 53.0623 68.6861
96.6323 52.7631 68.5534
84.7685 48.6628 62.5946
89.634 50.4686 64.809
92.1267 47.7439 61.8542
89.5397 50.3324 63.5757
91.1059 49.4499 63.1354
87.2307 47.5214 64.3431
91.8122 54.2912 68.063
88.0584 50.5477 66.8658
94.7406 52.1113 67.9589
101.588 52.0571 68.2948
90.3385 52.2638 68.2333
84.847 50.1067 67.8693
94.4037 50.4227 68.1074
130.002 48.5139 64.6175
90.6 53.7195 71.8425
85.8359 50.9941 67.9348
90.7443 49.9042 67.6711
78.0367 49.5443 64.7664
91.5978 51.2549 70.7937
77.5759 51.9367 69.0133
93.5944 50.757 67.6124
87.4329 50.924 68.0045
91.4382 50.3035 69.8732
111.612 49.7659 68.7006
87.5069 47.4932 64.4987
83.7521 46.7202 66.3933
116.517 49.9535 67.3685
99.3821 50.5461 71.0204
111.631 51.6387 72.6248
81.871 47.75 67.2952
88.5741 47.3584 65.9939
84.1745 48.1551 67.4204
92.4847 50.315 69.852
83.6355 48.5418 69.6589
86.8833 49.7874 70.8942
90.5535 50.415 69.6486
85.6056 47.1969 69.3613
95.3981 49.3484 71.1272
76.1492 48.8468 70.0865
75.3221 47.0787 67.4184
88.8754 50.4041 70.7684
85.7914 47.8456 68.8289
81.8739 50.6532 72.2074
73.751 48.1845 70.7171
83.1952 52.6608 76.2347
72.919 48.5562 70.9418
69.2538 48.3385 70.895
75.8716 47.2415 70.8907
69.5097 47.9153 71.5688
71.951 51.5745 75.8546
78.4456 48.0007 70.5659
76.7807 45.9432 69.6253
71.7153 47.2656 70.5346
77.2396 52.122 76.9213
76.6908 47.5019 70.6048
79.6174 46.6794 72.5209
80.3073 50.5091 74.5968
72.5568 48.1565 74.3733
82.1494 48.4188 72.6807
71.8992 47.4768 73.4914
77.4999 48.5221 73.3675
75.8417 48.7521 74.9112
83.8167 50.5621 76.4816
84.4004 49.0127 75.3409
63.2607 45.8914 71.8782
65.3685 47.8712 73.6815
77.4528 47.8307 73.2351
72.0098 47.3354 74.0035
75.2489 49.1735 74.3926
72.5636 46.0317 72.0117
82.5497 47.5912 77.3139
80.9071 47.9402 73.7803
76.9456 48.8515 78.7679
75.8652 49.8527 78.9165
66.4107 47.5455 74.5899
72.2135 49.937 78.8492
71.5917 47.6278 77.8235
76.2646 46.8658 74.692
77.8272 46.7354 73.2544
74.1881 48.5838 78.1714
64.6279 47.779 75.9777
75.992 47.7514 77.5149
79.9212 48.6361 80.8726
72.1387 50.2627 79.9502
69.5465 46.5983 74.2762
76.8734 46.0071 74.1506
76.5502 45.7262 75.5045
76.0327 46.9575 77.742
72.1274 46.0321 73.2581
78.7966 47.0427 78.3262
87.8917 47.2985 80.3183
80.0389 47.4345 78.6432
65.5032 46.0941 75.9536
69.3484 44.4447 73.8169
64.8307 49.4512 83.0192
71.8362 49.4165 80.141
68.3259 47.8784 80.7929
66.4929 47.4733 78.9233
76.5387 44.8011 76.5412
72.8525 47.533 80.9878
77.918 46.584 79.0057
92.748 47.288 78.7846
84.4153 46.4743 78.9265
66.3227 46.243 79.8023
78.6944 44.9676 75.0591
82.7959 44.7781 79.9883
74.4181 47.4587 81.6185
81.7381 43.1745 75.9108
77.7188 46.5651 80.721
80.9522 46.1149 78.9973
72.693 47.691 84.1824
71.7209 48.0941 82.0641
68.5347 47.5832 80.9427
66.9323 45.1517 81.1811
69.1914 47.2938 80.8229
76.1974 48.1232 83.2612
67.6756 45.9557 78.5423
77.2982 47.9865 85.8494
65.2797 46.5214 82.512
75.805 46.6619 81.844
64.1504 47.6006 84.2227
75.6559 46.4312 83.8422
65.3842 45.6052 80.6446
69.0093 44.9948 82.7465
74.4864 45.0004 79.2806
79.9123 43.7241 79.7656
76.2173 45.2225 78.3973
67.2299 44.5179 81.3415
71.5253 46.3151 86.0715
73.2036 45.5849 83.5298
74.5731 46.121 82.976
65.6786 45.1487 85.2683
63.7618 44.3373 79.3928
71.3992 45.9039 86.3815
69.65 43.8185 81.8689
64.405 44.6303 83.4418
69.8459 42.6377 82.1706
84.256 48.0218 86.1641
74.4465 46.818 86.2915
62.742 45.1648 83.5014
72.5203 45.0338 82.2082
69.1403 42.6262 81.532
72.5605 45.089 84.6224
69.0115 46.2768 86.0689
60.0129 44.129 82.233
64.617 45.8419 86.2653
67.832 45.983 86.7887
60.3177 46.7701 90.8319
70.6602 43.8475 82.2295
57.7252 45.7136 87.4025
59.5603 44.547 84.9496
61.082 45.4307 85.4728
68.8446 41.7741 79.6948
62.1527 46.4086 90.2432
67.3156 44.6254 87.2526
66.0607 44.6323 83.1619
69.0592 44.322 90.5772
60.5719 44.5546 84.5858
68.5986 42.2208 84.9043
68.3422 45.491 86.8162
80.0837 43.1228 81.9255
56.188 42.546 80.4027
58.2372 42.745 86.8486
59.721 44.7762 86.6065
67.3008 40.4732 82.0832
61.6841 42.131 86.4899
69.0189 43.7547 86.6868
59.4231 45.9708 90.2228
59.9699 42.3091 83.7884
58.531 45.8223 90.8927
72.2952 43.6407 87.2543
70.5666 42.298 84.9517
63.3198 44.8725 90.6324
58.3666 42.1538 83.6586
58.5041 44.1147 86.6182
57.3968 43.4662 92.394
55.1331 45.6879 93.1531
52.669 43.574 85.2151
52.6048 42.0024 83.8737
58.6812 41.852 86.9627
52.37 42.0096 86.4585
52.5132 43.861 87.634
56.6773 45.7309 93.1785
59.0647 42.6491 88.1579
68.1666 46.1847 95.5087
51.1826 44.1445 87.8163
45.8582 45.2259 95.104
52.8852 41.1337 85.8278
55.743 46.0095 94.9957
52.3123 44.8082 91.2469
56.3008 43.1867 87.3489
52.1426 42.7246 89.109
54.7687 40.6436 84.9594
58.1358 41.7791 92.0971
53.2024 44.867 90.9845
58.9925 43.3714 91.2432
52.5249 42.3884 94.2802
52.838 42.5203 88.7934
50.1092 44.2796 94.1105
53.408 42.6398 90.2443
56.7782 42.0805 89.8247
52.2257 42.1068 91.2389
63.1066 44.6005 91.6667
55.7701 41.692 90.5124
51.2004 42.7338 91.4346
57.5382 44.1757 92.1366
57.4781 41.9308 90.8511
60.1589 44.6674 95.8984
51.5632 43.8083 94.0862
50.4004 41.9746 93.2225
51.4587 43.1443 94.7514
50.7479 42.1663 91.6551
54.1736 44.2548 97.2958
57.0193 42.6474 94.7443
50.8787 45.6157 97.513
58.598 42.1255 92.1146
51.2569 40.6745 91.2684
60.1544 43.8549 95.1661
56.2685 40.0551 89.671
53.2693 42.8175 94.5157
54.3471 41.9596 94.8271
55.1966 43.3501 93.3673
58.7476 39.4237 84.6349
58.4947 46.6971 104.828
56.179 42.6547 95.2635
56.5674 40.5809 90.0967
54.5008 42.9326 95.8501
53.4329 40.7374 93.3056
53.4877 43.2928 97.5037
59.8862 41.536 93.8315
59.7508 42.8452 96.4021
43.9925 40.7527 95.0594
54.2181 42.4045 91.8831
59.776 40.1221 89.6775
57.4574 38.2659 90.6721
56.9359 39.6713 88.6183
56.4875 40.8525 98.2568
48.6229 43.1759 97.9621
60.0852 43.153 100.927
59.2267 43.7518 95.4828
54.0478 41.3966 95.0592
45.4452 42.3712 101.008
54.2479 43.512 95.49
49.409 41.2603 97.0984
56.041 45.6365 101.372
53.0662 40.6169 93.0963
48.9628 41.7868 100.972
54.194 39.3312 92.3232
51.9269 42.0114 99.4039
53.5521 40.69 95.1083
52.5303 39.7214 91.4232
48.4001 41.8304 98.5618
51.6501 41.3351 97.4281
49.4707 41.3018 96.7976
53.8946 42.7999 94.7215
54.9584 42.6545 95.917
50.4331 40.5596 99.2977
54.1691 41.8066 100.798
59.6688 40.5736 100.889
57.2941 41.7423 96.2477
56.7108 40.3861 98.06
56.0969 41.0684 98.4192
56.0263 40.8027 99.408
65.3339 40.8518 91.9369
54.9887 38.3225 93.5498
58.9409 46.5661 108.483
62.4363 41.97 101.001
52.7097 40.3993 100.38
54.6557 39.4825 96.7443
58.3429 41.3687 99.9131
64.855 41.0204 95.6575
48.421 40.6935 99.6095
61.132 39.1344 93.1419
57.2513 38.6609 98.14
69.7379 40.5399 98.7894
55.9619 39.5013 98.4275
54.9332 40.9368 101.868
62.6916 42.6662 102.224
51.9182 37.5518 94.1763
62.9126 42.158 103.08
52.1778 40.8611 100.791
57.8298 39.9882 95.4742
51.4797 41.6169 106.186
66.9256 42.1716 103.874
