# pn-170911/CsIIA-30-CsIIF-1280-1959.psd
# Power spectrum* (dif=0,1,2) (really just |FT|^2)
# NOTE: only the first half! (symmetric)
# weeks: 1280-1959
# 1 clock-days, 9 excluded
# PSD: 1441
396650 51.3952 0.154733
4.20277e+07 160.295 0.215047
1.95641e+08 5992.74 0.40476
1.37972e+07 86.8841 0.0380864
2.27841e+07 584.09 0.116533
6.69545e+06 96.0257 0.0502874
1.6787e+07 2693.38 0.537221
5.80382e+06 2461.68 0.0934596
5.01386e+06 1042.49 0.833349
1.43027e+06 365.812 0.0555703
214445 5.97631 0.224655
59738 365.454 0.519146
811497 180.314 0.0271145
555540 2.24871 0.0732279
510386 126.614 0.239314
1.08484e+06 941.869 1.61846
205307 110.803 0.423482
368676 158.515 0.14682
290867 198.253 0.727051
792092 882.807 1.75318
1.82567e+06 1107.7 1.5532
3967.55 559.271 1.15555
137447 19.7031 0.00810686
926627 1143.39 4.24952
79888.9 165.89 0.490879
29060.6 208.45 1.66838
392307 525.128 0.81858
802306 992.699 2.60716
324848 276.6 0.705024
372863 1177.22 4.14854
112238 2271.7 8.20819
165675 132.816 0.914734
223795 550.687 3.60423
435090 2126.53 10.3042
351226 1636.11 7.23541
123724 430.175 2.00691
14896.6 496.133 4.13092
225922 323.752 1.88925
25773.5 282.929 1.20032
141806 984.808 6.75554
229695 1811.93 11.9353
130054 1180.7 6.68204
7708.48 223.004 3.50827
105838 368.333 2.56335
62849.7 255.606 2.7122
127836 1312.44 14.2836
335654 1551.65 14.0232
215108 1551.25 15.8407
9727.83 31.6113 0.362441
105154 1084.84 15.475
63022.1 1030.32 15.1756
109400 339.089 2.45456
258972 1123.98 12.6294
108670 180.469 2.14597
44641.6 223.984 2.92327
221408 997.775 16.4011
66861 322.259 6.15087
37821.3 466.337 8.42882
1470.72 47.0895 1.81562
56998.9 483.82 5.50166
60575.5 332.106 4.09726
171308 1860.33 32.2881
38922.8 917.584 15.6667
8091.99 708.653 11.3849
18071.9 86.2349 2.08054
21875.8 862.519 13.5681
10039.5 49.8621 1.23313
18847.5 197.303 4.91333
7078.93 453.997 12.7722
27160.1 4.10099 0.0435516
40992.6 266.666 5.47655
12647.3 98.3854 2.1732
42364.8 358.627 10.4233
470.85 9.35261 0.00642941
11640.7 314.114 9.07486
6999.55 22.1632 0.722107
38642.6 315.492 8.31391
70294.2 421.882 10.2401
24079.2 16.6764 0.451469
64980.9 697.866 21.7621
26955.2 67.0813 2.51187
581.17 382.143 9.60352
12105.5 155.903 6.54712
2070.79 71.9149 2.55622
8499.97 405.833 15.4803
7187.78 137.327 6.38642
21610.4 50.7464 1.26832
49540.7 444.138 17.6216
25488.7 205.356 10.3107
1447.9 43.2697 0.622599
957.798 80.9755 1.47907
9428.79 131.776 4.30512
9.39406 185.146 9.63018
404.699 561.665 28.758
24720.7 132.074 3.71344
21494.7 194.923 9.79137
548.516 278.848 10.7457
20367.1 545.174 29.4993
7362.47 280.279 12.0858
4592 228.936 12.1112
18509.1 164.073 4.19587
27666 249.324 9.48424
8739.42 103.513 5.46893
13280.1 619.488 33.2617
51418.3 589.862 29.4471
10496.4 13.8381 1.62585
2481.16 68.2201 3.80036
769.132 75.3946 2.18038
2793.85 82.4505 4.9721
13205.7 199.239 8.74935
15933 87.0318 4.17994
14213 39.3633 2.5832
10668.1 195.926 12.0582
14991.3 230.615 14.0527
2428.99 2.77599 0.133986
4998.54 114.44 9.45669
1060.53 42.6491 1.64048
3522.9 70.4943 4.26743
12252.3 108.604 5.65956
10326.5 243.969 17.2774
9837.49 144.11 12.9406
2659.68 15.3927 0.20531
2180.24 36.174 2.72317
2491.4 239.781 16.221
316.444 237.854 23.6769
10818.4 118.01 6.28372
11868.3 101.765 7.32777
32974.9 521.344 36.9089
20679.2 267.736 24.9529
445.251 296.835 19.0692
8754 133.338 14.7192
666.413 71.2725 2.6042
4076.19 262.848 16.6077
5921.48 161.267 12.487
4671.07 185.665 16.2268
4959.74 21.0911 2.42468
5435.82 136.091 14.4697
7001.03 56.112 3.14011
7425.96 106.016 11.88
1012.25 75.4806 5.01692
4956.45 766.624 69.3434
1179.12 34.9877 4.83464
5119.33 135.378 9.75085
3259.62 29.1291 4.79483
7976.9 196.853 15.1907
3911.33 70.9494 6.42138
2672.67 16.869 3.56927
464.363 125.671 8.11229
2088.24 109.186 9.5733
898.971 87.8085 10.3357
7616.27 118.153 12.1211
11223.8 218.823 18.7886
11202.6 189.733 21.2665
3418.5 52.9182 4.67155
1971.51 43.0209 3.87647
1012.71 85.2408 7.53738
456.296 110.892 11.9065
118.103 54.2041 7.82428
5339.01 115.54 11.6073
2569.94 117.15 14.4439
3754.49 35.4922 5.12137
9324.87 58.7781 7.32722
2465.89 86.1437 9.49373
2559.47 2.12054 0.351735
3002.66 185.683 25.1872
194.595 8.10906 2.66999
895.285 30.3073 4.31364
3753.54 47.2257 4.54002
4289.39 37.7354 6.30507
4628.92 281.901 37.5884
2290.04 61.7659 6.85298
1097.91 12.8548 2.24925
293.159 149.003 20.8053
1947.82 254.796 36.5193
773.598 28.6537 7.58587
4387.48 9.8781 0.29207
7137.73 119.759 16.9622
4441.54 36.1135 4.85183
6418.98 57.9677 10.0433
1515.03 46.1789 5.89767
969.211 41.6057 9.47929
477.801 76.4861 9.6958
2545.1 102.862 11.9412
2813.9 108.548 19.2636
4648.8 54.6939 6.8778
2825.41 88.9952 16.5066
5685.02 143.945 19.7616
1959.05 41.9969 6.24282
1525.91 27.9512 5.24684
88.983 33.7027 7.07561
1330.71 153.982 25.8012
1141.99 10.1062 0.658727
1975.19 102.629 21.1951
4656.43 98.6495 12.9635
4182.25 87.518 17.6853
1395.04 47.5085 7.52275
498.185 3.55843 0.53443
400.334 12.8445 4.14642
841.62 51.3242 7.12398
2514 90.0652 18.8233
1582.37 78.2889 12.4987
2268.73 22.3244 5.30883
3816.51 23.9039 3.90997
2763.13 6.46423 1.5164
3321.18 199.654 41.8231
423.014 24.8852 10.058
912.488 73.9309 11.0084
1679.19 57.5597 13.5819
1312.85 35.1916 10.6102
4594.12 50.5939 6.5283
3645.49 150.998 32.4442
3996.81 16.7425 2.54829
2442.99 29.0536 5.16331
961.582 88.2939 16.5148
409.631 35.7649 11.2804
222.757 64.0343 14.9977
1111.08 29.3433 9.21398
2792.99 99.0983 17.2886
2438.7 16.2857 4.64866
1485.89 4.90313 0.413608
1066.64 20.9249 6.35658
474.003 80.6667 12.8937
230.961 2.89001 0.213006
443.378 1.35749 1.4339
2882.78 107.65 24.5774
2113.67 117.954 29.2642
2371.8 184.732 43.134
3056.07 79.3587 17.9326
364.131 73.9587 16.9693
749.708 12.6508 4.13304
255.942 40.135 10.1867
179.556 39.981 15.7225
2234.38 36.351 4.66902
2607.15 25.3173 6.6829
2855.02 16.6191 4.55191
5300.14 118.945 35.2683
3604.24 183.19 47.7384
322.762 80.076 14.7872
579.674 78.4783 18.8441
54.8489 17.4296 5.85832
856.492 77.529 17.8878
892.198 1.53368 0.389506
921.611 77.2859 23.9963
2239.28 34.3136 6.94984
1589.71 17.7244 5.43314
1629.28 46.7059 18.2547
187.602 23.9164 4.61709
93.3787 23.4799 4.63181
1276.6 59.7346 14.2435
949.518 7.36135 1.10645
1129.62 70.06 23.307
2284.99 6.70081 0.503537
2066.79 38.0553 9.29406
1502.7 52.7651 19.4766
37.0944 10.2092 0.630071
461.703 104.06 28.6339
226.008 48.8497 15.6553
1018.2 15.8013 8.71508
4150.33 101.49 29.6787
1776.15 28.6243 8.49142
3698.07 71.466 23.4434
1584.86 2.57119 2.65644
1304.69 47.3039 14.1271
177.253 3.73158 2.17272
29.2758 0.480787 0.285486
373.599 21.9716 8.18789
1020.73 32.8161 14.9275
1160.64 9.59317 5.09477
2483.02 55.9125 18.3907
1450.59 11.3479 8.34474
846.18 9.23725 9.74886
371.207 51.4641 9.12245
109.129 4.88557 4.39584
566.238 49.5482 17.0517
1513.01 75.9155 27.8406
1553.68 146.953 52.6959
1276.79 0.109807 1.14941
938.125 12.2672 11.584
407.901 41.7026 11.7316
118.07 75.1912 17.1428
53.279 9.36994 7.94109
958.88 2.48492 1.61128
2898.28 154.31 40.8967
2602.44 50.4351 19.8898
1757.75 18.6186 6.80829
1828.95 12.1629 3.06051
332.189 89.7322 27.1413
245.671 12.1301 4.31887
27.2032 3.8361 0.518926
261.85 17.1914 6.89179
855.024 35.0842 9.62619
976.595 21.3459 9.89285
2271.83 47.5348 16.4666
1337.04 12.3987 5.68577
932.063 21.024 11.682
567.257 22.3946 7.27239
120.368 2.46984 0.58181
53.1313 22.8635 11.6156
608.028 54.3015 24.3771
1953.36 111.865 40.1655
927.803 10.5076 4.21094
1120.33 21.5339 8.0924
1296.97 118.717 65.7561
376.148 52.4328 16.7296
87.7433 41.893 14.8499
635.052 65.1031 24.4679
578.37 2.54556 1.72501
1877.54 33.7665 15.3077
1235.19 22.0956 6.62855
1959.42 17.3408 9.09412
1111.34 4.87721 3.00372
548.501 18.421 6.84579
963.749 213.85 125.583
367.925 109.808 24.9201
646.763 39.7517 11.5772
1344.19 70.1593 36.2305
999.967 0.794134 0.392493
873.473 27.3319 9.20801
1733.31 26.8087 21.7783
606.137 62.9234 14.1322
400.618 70.2437 28.5737
41.1747 53.271 22.6607
95.6684 2.91106 1.68333
962.265 95.5081 48.3605
382.469 9.79133 1.2697
701.627 10.5446 12.5917
681.974 249.131 100.731
202.293 23.8223 12.7949
13.3276 33.4602 17.5519
31.8853 14.0709 7.15926
644.865 40.8653 22.3336
429.733 12.9989 2.14585
569.903 67.0485 29.8802
1293.65 50.8296 32.3876
1274.2 1.23439 0.503281
870.036 29.8858 13.8602
91.5928 70.4421 38.7514
317.158 58.9434 25.9905
29.8338 10.3573 10.6649
642.462 35.4727 13.8798
659.458 28.3246 21.0484
1720.34 79.2513 35.6582
952.099 36.3994 20.9165
1208.77 6.52465 9.52528
279.294 59.4535 23.3295
174.788 6.18577 3.10807
34.8353 2.36619 2.32124
197.201 5.87309 1.58959
365.359 15.6685 8.4983
126.885 121.804 61.7648
488.334 33.1017 30.0237
926.596 21.4043 12.1021
397.113 47.8391 25.6487
202.506 19.9643 9.82211
100.02 0.807841 1.35635
195.798 22.0131 13.0433
593.64 21.7694 22.1432
1139.19 56.7309 30.6321
1528.8 13.0268 7.42277
1110.65 58.1049 34.1683
421.67 4.36881 3.19129
401.769 61.918 37.6651
9.84011 16.2357 18.1428
295.258 55.0761 25.8873
721.417 9.16488 5.53691
851.389 7.15419 6.14556
1324.21 19.0903 11.9393
1473.12 16.1589 12.7003
1105.86 15.892 17.2181
336.638 14.4504 9.35163
70.6747 8.49013 1.75812
3.20684 11.7435 20.7544
812.473 147.095 72.3988
201.477 28.5787 17.8218
837.381 15.6512 12.5004
481.648 26.2077 9.93826
275.214 20.2483 12.319
255.668 23.5565 18.5791
206.52 53.7098 26.4214
89.3567 3.26088 4.19065
648.53 24.8802 12.2935
749.216 17.7067 19.4715
1097.37 27.1136 12.0749
1092.05 8.33606 5.37421
618.45 33.3989 24.0426
224.337 13.3004 5.10908
6.32526 15.0661 11.1477
8.31771 6.71812 5.92731
251.055 11.1733 6.12068
834.385 5.2512 2.40601
1000.06 1.53104 2.45316
1517.74 29.5686 17.8895
990.444 2.32615 3.12428
599.023 6.71456 4.5135
408.216 15.9535 17.4114
115.136 27.4403 20.5253
106.203 7.77008 1.45087
377.807 18.2009 15.4177
288.941 12.6711 5.95946
521.717 2.27287 0.34275
588.36 1.92566 7.03257
226.311 110.504 61.5204
214.941 9.27216 10.8053
31.9919 3.01574 2.07144
149.893 8.97922 9.20713
385.757 6.66401 9.05417
830.947 18.2729 8.97864
636.915 2.90693 1.91126
388.816 34.0747 29.7347
431.808 25.7778 16.4993
187.169 21.8524 19.3035
13.3513 9.32473 3.3105
126.681 43.922 40.6815
455.717 1.80302 2.24473
785.868 8.47899 14.2786
1395.84 10.898 2.65371
1072.67 0.627672 1.10953
890.069 0.431777 0.701887
623.245 12.9057 14.9456
77.1426 6.53754 1.04006
7.57971 9.27811 6.71571
129.584 2.49181 0.121571
363.137 0.206403 0.585917
761.236 20.1763 14.5317
745.79 17.9318 13.4016
566.282 4.39776 2.86232
337.561 2.51709 2.86872
171.925 8.66151 18.3776
48.8157 22.4326 7.91393
379.072 41.9143 20.903
454.36 9.40737 6.90593
707.896 21.0739 18.3818
554.262 1.76609 8.84747
223.328 54.6382 26.3553
116.056 45.7162 41.3654
80.5383 7.85719 6.67563
19.8073 6.37515 10.8197
193.535 3.03946 0.220814
662.547 22.6527 15.9917
704.647 12.6914 11.5071
1098.32 1.29026 0.297198
1091.88 30.0757 21.2286
779.018 13.5224 12.6394
258.199 31.7315 48.1564
204.503 121.726 95.2236
141.517 69.4726 60.2592
291.374 36.9134 26.4097
379.812 0.83166 3.67013
413.504 23.9332 24.4521
1048.29 58.5509 51.6375
611.731 9.28149 10.4444
230.096 11.4339 3.84925
203.166 31.5142 24.7021
96.1164 25.2325 42.2903
83.9339 25.1872 6.56439
266.013 39.6156 27.0534
295.275 20.7033 14.3187
474.987 14.4245 14.1505
365.531 17.4652 29.865
86.4332 17.0952 6.08879
1.21636 13.5387 14.4836
10.1952 21.985 19.7209
294.43 2.01193 4.27273
600.107 24.2485 19.065
827.544 2.60007 4.60822
830.513 0.24923 1.89761
521.306 26.2971 32.953
464.503 25.7358 12.3427
92.4061 11.1246 6.87423
0.683329 10.4296 9.8392
68.0901 5.83621 12.0663
167.17 16.7481 9.424
373.794 20.0337 33.4021
1074.67 67.2814 59.1029
601.79 22.2436 18.7882
285.02 18.1555 16.5052
102.21 54.7395 57.4847
110.845 8.88055 3.3808
5.06895 35.2876 35.9156
158.819 3.00582 2.58831
346.061 3.20958 2.44951
475.552 9.4221 16.2987
439.861 28.2807 25.5571
85.9925 48.2348 51.5604
195.295 19.5452 10.5088
37.5737 16.6897 20.0072
81.5476 19.8849 19.5606
310.808 3.88963 6.25843
563.637 41.5771 42.382
801.864 3.37024 8.66271
1040.98 50.1791 65.9167
373.486 25.6593 17.0383
136.66 19.334 10.6046
13.0638 33.7943 43.8051
14.1783 18.4547 21.0466
189.33 52.6092 46.0806
242.257 18.1662 31.4433
550.532 4.60132 5.77305
847.18 56.4112 34.6496
755.944 66.2999 97.567
195.498 25.0082 19.276
140.878 7.36814 2.03076
24.7382 95.4405 84.4281
11.4862 47.1625 82.7102
100.467 24.2798 12.8185
313.555 3.81018 12.6914
209.18 36.6887 27.6346
231.668 21.8831 48.9678
476.866 63.0778 47.1184
111.328 11.512 9.28405
9.84678 22.8644 33.9718
128.101 2.42479 10.2115
280.3 6.28386 8.36071
505.254 9.0197 8.22843
724.965 7.18917 10.3296
508.049 1.56736 3.99214
351.626 61.187 60.3796
80.4735 11.8176 13.2149
33.3133 6.11326 6.98901
5.08402 25.871 36.5023
184.939 3.44195 4.83624
298.922 20.9008 28.9088
474.214 33.6836 37.6678
659.272 3.08007 11.1538
747.444 29.1006 35.9457
393.427 93.3036 114.748
100.302 8.95572 32.5289
8.16305 0.65264 14.9584
166.877 19.1168 5.81118
206.42 8.89671 7.92634
398.588 9.30457 13.6936
246.948 26.1771 26.0828
313.956 36.1138 49.8112
45.9639 29.1543 34.7471
24.585 17.419 11.6013
57.4694 0.728991 0.0371147
164.146 16.6421 37.4378
498.204 26.7491 17.7493
513.508 2.10301 2.07378
600.836 6.3683 8.56636
537.286 13.9502 24.4763
158.641 11.4462 2.88304
49.8975 7.63021 3.73766
14.3937 9.14821 9.69681
124.974 6.16939 7.59796
339.633 10.844 27.5828
430.394 21.7258 18.6684
433.143 19.2337 15.2819
526.49 7.33638 14.4364
542.977 11.5009 16.709
232.297 6.74956 3.61356
57.122 0.40457 0.226229
2.32793 11.7943 19.6186
90.3484 0.541525 2.6638
209.229 4.83198 5.82555
368.436 4.57664 8.54903
271.786 10.1421 11.904
289.815 7.91342 9.7461
113.11 1.03356 6.48814
77.2819 20.038 20.8973
53.1388 0.454398 6.14482
234.239 6.92773 4.5666
343.09 3.11824 13.6517
472.701 16.7244 13.2625
272.782 18.8906 15.891
295.618 1.49133 5.87455
47.0398 36.1401 43.2508
42.3421 22.0406 33.791
25.2941 28.6536 28.3748
135.682 3.55329 11.0892
377.472 10.5149 27.0301
537.082 36.2496 47.8942
800.581 13.096 11.5432
519.933 11.4568 19.9381
376.249 8.45457 7.77897
108.858 0.780815 0.956191
11.5348 18.2005 33.3449
43.2389 29.0002 38.9273
268.557 38.4045 38.563
241.938 1.88562 5.70592
226.286 20.7745 34.4088
501.945 29.1809 38.679
212.144 15.8676 26.7641
46.3053 6.30405 2.66682
4.43477 51.5648 70.8404
74.5128 2.19718 2.84317
189.954 0.035524 2.74719
292.095 10.6391 10.3319
434.732 8.66589 21.8001
321.033 49.2335 59.4186
127.183 10.203 16.9971
51.1916 2.9251 19.9802
67.7532 89.8508 96.9427
121.678 24.5587 37.8873
165.067 11.2069 16.5241
386.34 32.0889 44.8669
589.243 3.0079 2.98722
428.457 12.4841 15.3679
419.11 13.8094 22.1354
376.52 35.6356 69.8075
35.0981 18.1417 13.8786
3.87789 6.25774 2.84123
58.8226 2.74865 2.99273
139.675 3.88816 2.51398
294.851 19.9519 31.8234
276.747 13.5817 21.7059
372.164 14.5649 64.4961
301.478 139.818 146.692
165.002 31.5308 48.617
57.7847 24.62 65.4688
38.149 8.6326 7.41148
185.722 13.7162 18.5615
238.97 7.65718 11.9237
257.992 27.6728 37.1488
278.667 21.9307 61.0782
143.491 9.12927 10.9443
7.92029 7.44509 5.0509
5.5717 8.55708 21.7608
112.507 2.79601 23.6587
403.791 34.0114 47.9559
475.155 3.65792 4.07233
671.083 27.9672 58.0558
295.187 25.9398 19.7445
310.013 8.70571 23.5968
82.2694 20.9197 36.6758
11.2182 10.1324 26.1974
53.6939 33.1529 46.8591
57.6759 16.9859 26.9365
287.669 0.272066 2.65145
387.611 0.30247 7.97201
472.932 11.5423 17.0238
197.798 11.4784 11.423
93.9156 35.5749 41.7124
75.7266 13.6754 41.8281
5.84272 1.85096 10.4946
61.646 38.2706 32.5633
198.025 2.66661 1.49515
263.511 5.24918 11.6753
283.241 10.0347 13.6827
149.115 20.0398 57.4094
76.2917 45.1008 44.1087
33.7878 46.5618 61.5557
29.2101 1.20976 7.58343
224.808 40.2759 80.0507
235.718 0.756267 7.6607
315.557 35.8479 45.4878
576.178 12.0268 12.8725
375.946 5.45982 17.0598
235.326 4.82499 6.11963
45.8103 10.8591 13.2098
5.12718 8.48321 15.0965
59.1484 12.0707 27.2672
96.491 17.2687 13.9221
273.264 22.4483 49.0133
461.036 4.65326 9.09141
270.919 38.052 61.2178
280.856 1.06535 9.36473
130.613 1.79388 11.3973
39.7604 17.7759 23.1268
42.2742 6.23904 9.39899
49.4444 9.45402 28.2032
258.891 15.2454 17.8492
166.145 10.5226 27.5049
271.628 7.62324 20.2394
193.313 19.9579 14.5945
92.7167 35.924 80.237
39.3995 9.40624 14.3578
117.009 25.7682 37.178
209.926 31.9442 52.0411
273.4 1.64261 20.4683
277.579 12.1699 12.24
331.428 19.7268 33.2964
237.251 31.7534 49.8751
197.87 1.06009 1.36822
56.6974 7.68626 10.4656
12.3872 12.4681 42.8291
65.2886 39.3831 43.0316
208.077 2.57796 10.4257
293.722 26.2865 44.7913
390.893 2.42979 7.09622
343.555 15.3551 53.6064
278.185 9.20844 6.81546
78.229 2.77066 8.05293
55.6093 29.7379 55.4447
40.8069 9.10987 12.8665
49.986 38.4029 99.7462
232.217 1.67094 16.9308
284.784 1.53237 7.01329
273.435 10.7456 4.44778
155.078 13.5165 37.4061
37.4561 37.7372 73.2465
10.6589 8.09086 18.6187
96.7497 17.1038 22.8221
203.822 20.6104 15.2938
325.083 20.5027 44.7264
260.542 10.9007 19.4337
335.837 26.9533 46.2557
207.41 5.47094 34.3271
140.061 4.39801 10.6817
38.306 23.554 30.1739
21.6584 9.07405 45.7979
90.974 51.2099 49.2714
224.851 11.7611 33.8527
449.102 15.2184 28.307
536.314 16.0353 15.7416
421.673 31.3221 61.7102
155.599 7.14104 15.0691
54.382 1.68757 0.366691
0.52663 12.9273 28.2675
27.8381 4.56088 7.09026
53.7532 39.8483 72.1375
206.739 1.8656 20.8099
275.535 4.01763 3.10708
176.763 5.46846 24.4512
124.645 5.09674 15.3341
32.4065 10.1432 39.2639
8.45175 67.3039 111.937
140.629 3.94377 16.5125
247.758 0.94518 6.71204
371.226 7.95497 10.7177
294.839 9.66415 36.564
449.271 68.0677 80.5619
144.267 7.66077 31.1786
19.5669 0.619536 4.76331
12.6158 7.84114 0.960167
108.553 54.5881 142.465
182.414 24.1805 11.7534
326.602 22.1283 62.2313
393.068 3.02932 3.78426
472.236 30.0478 56.5245
297.446 25.3681 46.1327
128.839 0.835825 13.2409
13.58 13.4313 27.6282
3.96264 30.9322 76.5428
101.608 16.0659 18.0619
139.344 9.05206 15.7763
316.97 51.927 127.861
144.359 3.69907 38.2924
97.9801 21.4946 15.175
62.6833 1.96872 1.91548
25.5801 4.44025 5.9958
38.3753 0.172008 0.242149
108.057 4.77637 15.5608
164.975 2.10165 20.4254
167.15 23.4795 58.5661
336.895 25.078 64.1681
76.9689 31.3821 24.7594
60.9886 11.8436 21.0426
18.7724 7.95373 29.535
18.8594 4.26094 0.918276
73.5698 8.71169 9.2136
217.794 2.4362 13.4028
333.934 21.4042 35.0801
353.366 19.7578 43.3685
309.898 9.26173 30.0529
296.89 12.5437 27.4269
66.9135 0.180163 4.97172
3.24115 9.66142 16.2865
8.35002 3.68877 41.9396
108.118 31.2943 24.9209
166.274 2.09065 4.86297
221.643 1.81819 3.73166
170.996 47.2879 95.1921
200.839 2.12 25.9209
140.753 30.195 49.7529
30.5222 23.4823 44.1763
28.1706 23.3274 63.8171
116.896 1.13466 20.7392
247.676 7.24741 20.5436
291.063 7.46981 2.35252
221.661 2.07463 3.03861
130.727 3.44597 5.66218
38.7059 9.16026 47.7352
6.76664 10.5144 7.53981
24.9205 15.2707 44.9112
210.59 10.818 9.29971
285.172 12.6885 36.7343
428.824 18.649 22.1152
366.346 5.45292 30.8759
212.298 2.67843 0.873183
127.614 1.22897 6.76806
14.1635 25.6018 45.0647
6.30699 6.67368 14.942
50.2873 11.43 45.4721
131.889 7.32569 0.302068
212.225 5.87233 15.1047
172.983 19.0588 55.8709
185.523 80.4028 114.684
141.954 11.2043 53.0553
39.7178 5.25217 42.1406
2.21626 11.3082 11.0504
18.9077 20.117 63.0716
137.348 26.346 83.5635
251.019 3.53394 3.18963
210.4 1.53141 5.30161
155.44 6.64239 5.85126
67.7786 11.3034 66.2709
34.4284 14.7174 3.20903
3.41548 1.92924 28.804
125.719 13.5595 1.3585
236.994 12.7459 9.85483
269.836 3.58467 35.751
472.049 16.9844 4.01874
319.704 8.71702 22.1791
285.949 8.20061 2.02736
149.859 20.614 50.5421
20.2611 69.7385 80.2835
15.7696 18.6246 44.5388
85.6536 17.4144 12.59
189.46 28.912 55.8127
227.529 6.55266 21.5643
279.458 12.4058 54.7252
265.279 6.19275 12.4816
92.7955 4.94494 3.39119
23.0326 28.617 62.4067
13.2631 9.80525 64.8521
48.4288 16.3135 48.4124
52.8564 16.3697 32.9655
205.081 7.80321 23.9638
130.61 11.0757 35.4708
181.887 20.3926 36.0974
34.4342 10.5846 35.4765
17.7952 2.01691 32.6733
31.7739 32.9769 55.6505
121.978 7.79246 43.1595
204.449 27.4935 44.3713
306.037 9.45174 28.5713
244.47 8.59332 14.2465
286.8 0.332268 0.591303
154.192 6.08854 15.8842
64.7367 0.345386 0.297531
