# pn-170911/CsIIF-av-WTZR-1280-1959.psd
# Power spectrum* (dif=0,1,2) (really just |FT|^2)
# NOTE: only the first half! (symmetric)
# weeks: 1280-1959
# 13 clock-days, 12 excluded
# PSD: 1441
4929.38 0.517825 0.055927
371680 8.53782 0.0283873
760736 14.7414 0.0145922
1.12401e+06 50.5513 0.0273054
306538 18.2177 0.044332
160879 15.0454 0.0312565
207867 35.8386 0.022648
86518.5 19.7193 0.0238639
56581 18.0828 0.0552053
58058.7 26.0801 0.0585169
79775.4 32.1291 0.0187482
64483.8 29.3213 0.0242122
31440.5 17.5539 0.0378241
53599.6 36.8884 0.0546473
19189.4 14.6372 0.0188092
22785.3 22.2855 0.0374186
33547.1 36.0361 0.126244
13124.7 17.9375 0.030241
19417.3 28.341 0.0747547
9944.83 11.2594 0.03718
21530.3 31.1354 0.0816545
17226.2 30.6439 0.113265
10691.4 16.574 0.0580368
7644.3 19.8495 0.0723254
10630 30.8866 0.11139
9447.32 25.4354 0.131959
9371.88 22.3829 0.140331
8241.33 25.0718 0.0832576
8541.88 27.3358 0.107315
8321.2 26.8858 0.147793
4236.15 13.8739 0.0664717
5162.64 16.6947 0.0999481
7729.79 32.6882 0.227853
6078.05 22.1207 0.164091
3555.24 17.4322 0.168649
2677.86 15.5307 0.106809
3385.29 23.5818 0.16251
5243.77 27.5495 0.210123
5097.48 30.9584 0.240865
5247.82 39.7834 0.365735
2374.02 12.1566 0.154772
3372.5 22.1919 0.213963
3841.75 29.1796 0.369692
3704.23 27.3324 0.341199
2492.4 13.9221 0.142358
1960.95 14.568 0.139582
2921.57 30.2061 0.328281
3005.13 27.5336 0.339042
3963.88 31.8364 0.370443
3447.09 37.8896 0.578923
2780.98 26.0094 0.385766
2903.19 27.132 0.318211
3171.31 42.4482 0.605001
1805.46 22.623 0.327604
1407.33 19.8534 0.416459
1260.78 14.9319 0.220144
2245.85 26.5485 0.450624
1253.17 16.1816 0.283976
1521.65 19.4133 0.337424
1946.43 26.3233 0.487828
1380.68 20.7944 0.356021
1805.52 31.0849 0.592241
2158.41 32.0917 0.580377
1100.85 15.058 0.340051
926.653 14.9333 0.356666
1365.39 23.9854 0.481705
1022.76 17.7756 0.395617
1277.49 21.7959 0.502326
1148.76 21.724 0.503516
1306.21 24.498 0.601886
878.249 22.7589 0.625553
1277.82 33.5304 0.725729
1055.74 26.4196 0.655467
1068.51 21.9674 0.639574
1244.83 26.9878 0.629626
1222.05 31.1255 0.95124
1014.12 21.4626 0.60179
578.521 13.1989 0.359974
669.883 15.63 0.670991
953.769 20.2235 0.740567
537.582 17.4321 0.54134
998.648 28.5679 0.887569
780.782 17.7288 0.576683
1102.02 28.912 0.888195
814.935 19.4373 0.597057
724.566 25.9545 0.931323
706.68 20.4232 0.769224
793.417 27.1849 0.990366
669.862 24.0086 0.922608
564.031 21.5072 0.891626
861.881 25.1207 0.825401
678.437 23.9461 1.04424
427.788 13.1467 0.563166
511.512 18.7253 0.866153
565.076 18.7784 0.908644
667.154 20.9195 0.962137
464.858 15.7938 0.550967
439.446 15.2672 0.848356
375.492 12.319 0.582034
517.677 20.8376 0.875804
755.51 38.0004 1.78524
596.332 20.6469 1.05344
515.15 22.5336 1.23707
613.878 26.365 1.31631
331.056 11.582 0.73094
769.71 30.059 1.584
527.023 23.8466 1.30379
546.888 25.3438 1.51264
668.556 26.4388 1.38798
457.996 25.1317 1.28179
554.842 27.7937 1.78756
255.505 15.7721 1.04074
368.06 19.4348 1.13477
444.158 25.6782 1.49213
313.275 14.0598 0.849498
472.159 23.6456 1.40772
447.561 29.7858 2.08558
424.692 21.6885 1.46176
367.2 23.7968 1.54717
310.016 25.3437 1.83891
712.322 36.4047 2.42487
316.7 20.8851 1.5028
371.523 24.1981 1.72572
280.451 17.7358 1.24696
458.258 24.7222 1.87464
278.272 19.8211 1.55451
548.616 35.3471 3.09696
312.993 15.2777 1.1449
502.973 29.8732 2.30468
339.874 22.5344 1.91298
223.422 22.076 1.887
280.215 15.2652 1.07464
341.105 24.2876 1.87372
240.092 20.1896 1.58194
269.628 16.6638 1.54759
264.426 17.573 1.69081
220.995 22.1995 2.02754
349.718 27.3083 2.78637
343.963 29.3021 2.49331
226.27 13.8124 1.22479
360.645 26.786 2.19113
237.505 16.726 1.80404
242.824 21.6161 1.77673
335.889 30.984 2.62651
293.155 29.895 3.00845
370.513 28.163 2.75236
245.937 19.9965 2.31289
366.938 36.2162 3.40326
262.056 27.2882 2.79683
260.464 24.0606 2.49721
293.745 30.8731 3.07026
235.911 19.7875 2.15812
231.3 20.3476 2.18645
295.092 22.5719 2.40499
421.599 41.9592 4.09671
157.349 15.62 1.80768
209.165 27.3618 3.24445
278.541 26.33 3.01202
214.724 16.077 1.59351
138.001 12.6916 1.53448
420.465 44.4215 5.34211
211.88 26.243 3.25952
240.158 25.0928 3.0196
142.804 17.1411 2.44732
136.775 18.0486 2.41698
238.828 23.0362 2.79719
178.556 24.8902 3.4895
221.525 24.3826 3.32285
170.14 24.7867 3.15691
196.419 20.8581 2.93168
131.894 18.7223 3.01632
201.359 23.7572 2.81071
203.732 22.6119 3.19157
173.048 25.9869 3.53639
154.371 24.049 3.46235
169.112 20.6645 2.89956
121.502 19.1195 2.9208
161.487 21.9042 3.21153
195.71 25.9036 3.671
170.866 28.2953 4.53272
220.998 30.5204 4.85401
137.858 17.0818 2.38014
162.855 15.8889 2.26734
117.303 16.852 2.92861
98.5193 17.9055 3.07385
101.52 11.7419 2.17319
211.685 28.5073 4.53115
260.631 37.9174 5.97666
168.62 22.3647 3.67971
127.211 18.8204 2.93952
189.799 35.4134 6.43622
234.615 30.6626 5.04698
114.087 14.708 2.83819
200.016 27.3824 4.28515
167.987 23.4451 4.1753
119.388 18.5435 3.22537
192.403 27.2963 4.92274
128.192 20.4526 3.75467
143.029 23.134 4.63017
226.893 32.4833 5.59805
95.5676 16.2263 2.97203
71.2253 12.2558 2.14381
152.095 27.8457 5.353
202.757 33.3034 6.09287
115.849 17.2396 3.33383
124.465 28.1903 5.76494
123.784 28.6439 5.83862
133.722 24.7926 5.07335
154.062 24.432 4.75164
114.346 20.5749 4.12146
111.907 20.2232 4.1605
118.884 22.3493 4.56846
145.443 20.205 3.50526
82.8746 18.2113 3.94395
86.5038 15.877 3.55022
133.025 35.9717 7.50731
139.072 22.8857 4.96053
77.9515 17.8059 4.35966
145.679 26.3143 5.66275
177.675 29.3879 6.45266
95.9874 14.0493 3.1453
130.385 24.4505 5.13209
141.562 29.9118 6.37737
79.2996 19.9672 5.05302
142.254 25.6432 5.94069
101.427 15.971 3.83471
64.9442 14.0059 3.12718
161.26 35.1602 8.10297
82.3068 20.6959 5.00738
72.2365 10.8514 2.84534
128.305 23.9791 6.16137
102.302 24.5315 6.95404
137.519 31.5498 7.09645
113.919 27.776 6.96987
82.9319 18.8695 5.09573
110.359 25.2479 6.09403
87.8412 22.0314 5.95129
146.231 30.8795 8.89062
89.7214 25.5474 7.02602
82.4257 19.5813 5.24406
103.917 28.6581 8.45517
92.9992 21.9384 6.02906
82.8062 16.0031 4.83258
117.229 24.7292 6.43542
76.0645 14.5009 3.88036
129.767 29.4036 7.007
135.821 36.0953 10.8336
147.733 38.032 9.37508
120.363 26.0978 7.75316
72.2254 20.7505 6.3597
80.9762 23.1151 7.31531
74.3453 14.6625 3.55702
91.686 24.9963 7.04975
85.1181 21.934 6.46726
56.3237 14.4605 4.59755
53.1975 12.3062 4.0075
113.416 29.3642 8.63682
72.1109 19.9536 6.44962
81.3734 17.591 5.17464
62.8584 20.7267 6.76785
77.4486 20.6825 6.19766
61.9023 14.8443 4.89093
86.1859 25.5277 8.77
125.451 32.8819 10.5516
54.7295 18.7242 6.09297
70.0239 21.4323 7.95169
131.344 31.6838 9.29895
81.6938 23.5788 7.53428
76.3625 18.209 5.72128
95.8035 32.1239 11.2386
105.639 24.142 6.76293
71.522 23.1487 8.15144
46.7533 12.933 5.01667
128.405 41.6652 14.8591
73.6471 17.9434 5.24794
80.6752 22.3867 7.69503
60.8525 18.0247 6.86412
58.8307 18.373 6.35414
82.6568 21.6587 7.25156
72.5006 23.8993 9.07374
81.9877 33.7618 12.5763
58.7126 15.5346 5.23898
48.7039 14.5239 6.45759
50.1972 14.8004 5.76122
73.5489 26.4358 9.22396
110.65 35.0439 14.362
78.5964 27.623 9.89227
99.3012 36.6893 14.1839
50.2318 15.0799 5.70911
44.0615 15.7453 6.2115
47.6222 16.9526 6.08352
50.3415 20.2256 8.34527
70.7187 26.2584 9.60648
50.2608 17.2759 8.30001
65.9171 14.9869 5.52002
87.9852 30.1306 12.518
103.497 34.4544 12.9756
51.4528 18.564 8.58894
88.954 30.6936 11.0092
58.8712 23.4783 9.57266
45.9433 14.2202 6.09637
40.5093 13.9036 6.47071
93.6627 29.3684 12.2636
39.9224 13.1245 5.17358
57.6729 25.1938 11.0083
73.6588 26.6354 11.3046
66.4607 25.6485 11.871
67.974 27.2439 10.8883
39.123 19.5208 8.47377
59.4786 19.9604 9.28921
54.84 19.0308 7.90347
53.8908 13.7038 6.01677
61.8168 24.2085 10.4702
52.8116 18.2688 9.00146
65.9453 22.6582 9.93841
54.8331 21.1855 9.25852
37.9308 19.6568 9.7028
51.1343 21.9239 9.86874
42.7466 16.5417 8.22985
61.251 30.6219 13.1464
36.063 18.5737 9.25338
23.2048 11.3083 6.48518
54.3764 23.1104 12.2899
79.1171 28.1268 12.0213
41.7284 19.5064 10.9416
97.4833 35.3958 15.1818
34.5302 13.6227 6.47932
49.9162 19.8223 9.53982
49.6051 19.5816 10.2945
62.8484 27.4858 13.82
55.2132 23.029 11.3414
46.3201 20.8115 10.069
24.2541 11.8032 6.74977
33.5953 14.9831 8.04369
46.8604 25.3976 12.2329
67.0948 25.208 12.5097
57.9093 22.8301 11.7567
72.915 30.19 14.466
48.2549 21.7556 12.43
63.7521 31.4075 16.0417
43.5979 20.6853 10.6776
36.5261 21.0438 11.6433
26.8607 10.8908 5.77652
35.6194 22.2897 12.9591
54.4169 22.6422 11.2026
59.9584 24.2959 13.8895
49.4131 20.6467 11.385
30.3948 16.0234 9.14253
58.9962 26.3298 14.0823
36.4629 19.638 10.9611
45.924 26.9164 15.0956
53.2263 24.9171 14.1547
53.8281 31.3188 20.0283
89.8794 37.1487 16.9124
53.327 27.9697 17.6507
43.4719 22.3915 14.1558
37.1932 16.4028 8.70886
37.1724 17.9263 9.65453
31.3809 17.0086 9.81444
25.4365 14.102 10.1067
34.6229 14.5696 8.60281
46.9095 21.7946 10.9624
45.8443 18.7763 9.98277
29.4744 20.4729 13.0963
35.2871 23.1247 15.0389
68.7822 29.2547 15.9492
51.4368 32.7041 20.8312
47.4884 20.3576 12.1157
42.7651 20.0998 11.777
43.1986 29.018 17.8876
54.1359 25.2809 15.1529
46.4108 24.3049 14.1724
37.6072 25.9026 17.1814
39.9774 22.1848 15.1678
36.6775 17.6514 10.938
46.2834 22.0219 14.8991
66.6946 33.5933 19.6165
44.1771 24.2472 14.6363
31.975 21.8311 15.3116
51.3636 28.3915 17.8136
38.8042 22.1124 14.0935
37.5674 22.6514 15.2417
52.6941 27.4785 19.8018
30.4184 12.7526 8.83195
49.4304 28.4928 17.5253
30.188 23.2371 17.6294
53.5442 26.7917 15.8507
38.9674 26.2668 21.2759
39.2094 17.9275 12.8101
68.393 36.7521 22.6384
36.8798 17.6592 10.2386
30.7494 22.1142 15.7623
20.1558 13.6962 10.7495
47.2789 30.123 22.1509
41.5866 24.9648 16.9507
29.8419 14.8394 9.19769
26.9252 18.3067 12.0911
28.9845 19.9516 14.5792
30.9101 24.0526 20.0484
36.882 16.4473 9.26422
49.8053 29.8833 20.4702
37.2389 20.1437 14.1796
28.1612 17.1665 12.0876
31.5614 17.9902 13.796
35.4691 24.1593 16.5065
32.7155 26.044 21.3546
47.8364 24.1032 19.0408
54.9204 30.9062 19.0574
34.3566 23.3404 17.9877
21.5637 12.4207 9.53446
38.3773 22.0931 14.8938
29.637 19.3893 15.3666
33.9081 26.4487 20.4852
22.2886 16.8722 12.2692
29.5751 22.3145 16.782
37.9069 26.277 22.9838
24.1851 13.1496 8.85763
36.416 25.5003 21.1588
43.9631 29.2744 21.7681
46.1807 24.4442 18.9508
48.116 32.7738 23.9631
39.2415 26.4128 20.7714
42.7721 22.4604 16.3161
53.5823 30.0765 22.509
19.8265 11.2707 10.5806
50.9031 40.2757 30.1415
31.434 25.3039 22.3511
26.931 16.7151 12.9354
32.5185 20.9142 16.7592
30.0981 25.1108 22.1941
32.8372 14.5704 9.01183
28.5857 22.1382 19.9204
38.1369 24.0168 20.9907
38.2156 27.881 20.2042
27.3882 19.0468 17.3922
37.9266 23.6332 19.6826
30.8113 21.6789 19.957
36.96 26.7784 20.349
27.3378 20.3115 15.915
24.8972 15.1635 14.7726
36.9518 24.8076 21.5244
44.7837 27.7075 20.9438
37.711 29.8474 25.5166
11.2074 9.6965 12.4193
40.5718 25.5958 17.179
22.2738 13.0525 14.4341
22.0441 20.65 19.874
41.2744 18.815 12.995
31.3652 21.0994 17.0425
30.8354 28.5373 26.5677
25.9522 14.6556 11.7401
18.9268 17.5462 17.113
39.0817 30.6801 26.5795
24.2204 23.2918 20.4296
29.2986 22.1338 21.4986
23.8058 11.6058 10.8334
41.8246 26.4593 20.277
20.2272 22.701 23.5035
18.7598 12.1063 9.6043
18.595 15.961 14.9298
18.2559 14.367 14.6356
15.8981 9.29409 9.52103
17.5981 13.1668 13.3409
21.1804 11.9015 9.5731
27.1313 23.9928 21.5846
22.2844 18.9 20.2153
22.9582 14.8773 10.4764
30.6458 34.3935 33.3245
36.1052 23.6255 25.1036
27.7096 27.0713 26.6914
27.8648 20.7168 21.912
47.1925 33.7213 30.2323
25.5696 20.4146 20.6439
33.0989 29.5087 27.0157
34.0794 34.0646 34.7825
32.469 17.2905 13.5465
18.694 14.2849 13.8325
19.0141 18.0524 22.1574
29.8534 25.1579 22.2499
22.5331 16.395 14.9711
24.3777 22.7809 23.0799
29.0312 30.0409 30.6729
26.866 22.671 21.2902
35.1857 30.4625 29.6289
27.2188 25.9822 26.1648
22.2618 15.1077 19.1362
50.9193 36.2682 30.1843
17.6483 14.3598 16.5062
15.4767 16.2013 20.4125
34.3636 24.3398 21.862
31.6368 26.9607 26.2986
28.5703 31.2051 32.6062
25.134 22.6058 30.931
49.6526 36.0869 26.9154
34.7004 33.0434 34.443
23.2554 15.4147 14.8431
17.744 20.7959 29.3426
26.5459 25.774 26.3441
19.0462 20.9518 23.4727
22.1867 16.0836 14.9813
20.5536 19.0697 23.3482
29.9802 27.6737 29.2215
34.0649 26.3699 29.1154
28.8932 28.8464 33.0107
35.765 40.3846 50.0948
34.8536 22.0346 20.3085
30.9786 34.783 41.8394
22.182 24.0641 25.7097
23.5561 19.4807 20.1556
21.0594 20.4322 22.2235
17.7255 21.5381 27.1035
33.5198 33.3111 29.0735
14.9278 22.533 31.0854
22.4888 20.2914 25.0058
41.9108 32.3471 31.9398
21.1596 18.4034 21.8708
11.0337 14.7051 17.016
15.1815 14.8408 19.0033
37.4973 38.6021 49.0929
24.9857 16.5123 18.3852
23.7634 23.4468 24.7971
12.523 10.5232 13.5998
21.2365 24.8946 31.1833
26.9567 36.151 37.0463
26.3115 19.0894 19.6458
18.2235 29.133 35.4691
22.7367 19.7952 22.8459
21.8858 14.0782 12.8453
23.6334 28.4643 36.3628
26.0878 28.2988 41.8778
19.7417 16.3368 16.5157
19.1524 28.2696 31.4787
29.6019 22.1421 22.2298
18.1834 22.0745 31.6342
25.8875 27.6 32.2895
25.2382 23.6162 30.6964
26.5729 23.7341 26.6658
18.1187 19.8576 21.6967
16.66 20.0078 31.0584
24.6568 25.5535 29.5818
15.5591 20.3602 31.8813
21.8604 25.6073 37.909
32.1848 30.5085 34.1208
10.3018 7.36176 11.2274
20.4588 21.878 27.8711
33.256 33.1901 34.0757
17.759 25.8039 37.7875
25.7838 20.9955 27.9399
31.9408 31.1408 30.1591
17.9089 16.8954 22.7305
14.813 21.5972 31.5017
17.5182 19.1498 24.2594
9.58002 15.2254 20.0955
19.4467 28.3352 39.7427
19.6789 22.8938 28.1868
24.0171 34.2286 41.903
23.1547 19.3414 28.3088
27.7295 27.8517 36.18
35.7258 31.6687 35.4755
20.6428 26.3193 37.0009
24.5545 23.4074 25.9292
16.1006 18.4436 26.9397
13.5634 10.5622 12.7691
15.41 19.847 26.1106
23.3546 29.7826 37.5732
18.5093 20.6375 33.14
25.8209 30.9419 34.474
11.0727 16.0764 27.8783
20.7645 15.7977 17.9159
28.4338 29.5973 39.7618
24.3511 29.2973 37.4461
14.8014 15.7674 20.5911
12.4663 14.4203 25.1028
23.7782 29.44 37.8497
20.9072 23.5187 36.5793
21.9943 27.0249 34.8725
20.5323 18.2902 21.1872
14.0996 18.5559 25.5429
19.1956 22.9689 31.4441
22.1334 26.6513 31.9866
26.0832 32.4764 49.1629
21.9407 32.0628 39.8842
14.3451 21.7523 35.7497
14.0513 14.5858 27.6355
24.3523 29.5614 38.2302
14.83 18.6967 32.6289
18.6873 16.9727 22.9085
16.1883 13.4313 26.951
18.8129 21.2599 24.0965
23.3559 42.0845 55.7298
29.3606 35.3612 50.0283
28.9797 28.626 34.2854
12.2508 14.2629 25.8044
12.6146 15.0977 20.5859
19.5417 26.8237 40.6862
16.0108 17.0798 27.5556
21.2848 26.5219 35.7343
15.5265 17.5216 28.1065
12.0747 11.8585 14.4154
12.7552 26.1332 41.7416
14.4448 21.2508 29.7365
15.6986 20.0219 36.7653
27.9506 23.298 31.175
21.0475 21.1621 26.2523
12.8981 18.675 37.3883
35.0903 46.3002 61.7952
13.4778 14.1163 28.3932
30.22 30.2764 36.1235
15.0524 26.7385 41.4616
9.87714 9.11489 19.7118
31.416 47.3369 70.2284
15.7559 19.8006 30.8108
11.7746 15.9674 26.6406
12.8753 19.259 20.6415
8.87994 16.3678 40.9328
24.3209 22.8718 31.6744
19.9845 24.4399 36.4899
15.9037 12.7353 14.1115
19.3071 27.593 44.0372
13.9352 17.6674 27.4675
20.8407 35.6093 53.2388
16.0477 17.2519 25.4836
16.382 14.6012 16.3463
19.322 22.4648 34.5698
14.8168 22.8108 43.1184
11.4791 17.9574 42.5387
19.4848 27.9318 42.8699
22.0414 28.7685 33.1071
19.0226 27.7111 39.7024
20.737 25.1023 36.7439
15.2316 27.9096 49.8583
17.5209 20.7205 35.003
12.6362 14.3335 24.2382
14.0827 12.7875 21.8029
24.892 45.0611 69.6035
15.9775 20.6695 40.4739
12.5378 17.5622 30.7632
19.4858 26.923 50.4281
18.6096 26.7371 46.822
12.8419 15.8775 30.7143
16.8329 18.1576 28.6363
12.3313 13.2621 21.079
16.77 23.9139 40.9374
13.9183 23.4648 32.769
17.6255 24.6458 36.333
14.2719 13.2148 22.2441
8.5222 16.8163 40.2436
22.6051 28.626 38.2468
20.9693 27.9061 45.0297
8.9261 15.0014 28.4438
17.1798 28.1403 46.5383
11.3696 16.6184 31.6002
23.3412 24.3812 37.2315
24.9226 30.0777 43.5909
11.5791 17.961 44.5891
16.3923 23.2456 34.0696
14.2834 12.2123 22.3766
14.9155 22.3481 42.0173
12.9143 18.4169 35.3741
23.217 34.2634 47.7266
14.7568 20.0087 35.6362
11.5597 14.8806 25.3321
9.51714 14.8382 30.4744
19.5636 28.9324 47.3339
15.4187 22.9672 43.4428
15.8182 22.7771 44.3109
17.9836 26.3503 34.4017
11.2201 15.4063 26.7785
16.7243 28.9263 45.3249
13.5828 21.3981 48.0511
11.963 15.0277 31.1748
19.172 19.4174 21.5127
13.7872 28.1189 60.4152
11.5328 13.8881 31.4359
19.4863 24.159 36.5763
9.32524 14.4386 25.1862
18.1785 20.6025 30.5075
7.0159 18.3973 45.0651
18.2738 19.4402 33.3234
17.3434 28.4298 55.2658
28.2935 33.8767 46.652
14.3552 20.0607 46.1385
18.2187 25.4055 39.4981
11.4319 24.3238 44.7876
10.1418 15.7435 32.8103
12.4799 16.5026 32.4171
14.5239 17.0131 27.1273
8.78877 12.3088 25.5749
15.2388 28.8119 52.3452
10.5921 15.8225 31.0972
14.4842 25.7428 46.0797
15.1283 17.4251 20.7101
7.97016 20.1969 41.4447
9.97551 13.9951 34.8643
25.5328 43.2222 80.7355
18.5238 26.7447 47.0408
7.92283 17.3628 37.1425
13.952 23.3051 43.6924
15.8131 22.8796 45.1345
15.3528 18.245 34.9064
16.1923 20.0373 36.0654
12.8035 24.515 45.8793
15.2775 21.523 40.6509
17.516 31.8594 55.5638
15.4864 23.8789 42.5027
10.6092 18.8595 35.236
14.8362 28.4641 59.4679
12.8626 29.4326 61.5788
18.6178 21.0114 38.3143
9.42295 21.2424 49.7789
23.8001 27.5704 43.7651
13.2464 32.4268 61.0618
13.4586 22.0272 42.873
12.3987 17.1857 33.8092
11.6233 15.5059 35.5749
14.9119 32.8145 71.3382
16.1138 27.4606 50.6799
9.78685 13.4729 24.6333
6.62608 14.9903 37.2691
12.8131 23.6503 55.0503
13.5754 13.9612 32.5912
15.9582 20.9689 26.4166
10.9021 20.297 47.2582
11.5294 22.5652 48.5375
12.2866 18.1897 35.8416
9.26751 18.9249 45.5985
10.2087 15.9995 30.6293
15.3754 26.1372 53.1633
16.7107 29.1475 59.5254
15.4874 24.2995 44.0531
11.9198 20.9237 42.6368
13.5811 24.3504 49.1329
12.388 20.1541 55.3259
21.6737 38.8141 63.0313
18.5349 33.9405 84.9094
18.5753 37.7693 73.3643
17.9209 21.4355 33.497
9.62604 17.0567 27.2946
10.606 21.7056 48.8269
15.5153 23.9742 39.4012
11.2115 20.0808 54.6243
12.6421 18.9373 30.578
10.8755 21.0293 45.5252
13.0301 23.1533 41.8382
9.22245 18.6527 35.9941
8.97577 20.2585 42.2663
8.9512 21.7464 64.2103
12.1044 22.694 49.3527
14.1335 17.2863 24.4284
8.15929 21.1917 40.6772
10.3761 17.6575 35.6596
8.09845 17.0009 59.3231
16.089 22.1967 34.495
9.02871 20.0426 52.7274
12.8518 16.7368 35.0768
13.1271 27.4059 55.3211
13.7861 23.3387 43.9582
9.62028 15.7731 34.9148
10.2307 21.6522 46.0446
8.38885 20.757 43.4415
12.3698 19.2752 48.6143
14.0817 23.1259 48.2889
9.36217 19.9319 46.8432
13.7747 27.6523 56.4063
14.447 24.8101 55.4069
17.5647 27.3903 68.3105
15.0713 33.8031 72.0252
17.7761 31.8838 66.6809
12.802 27.0344 56.9967
15.6163 26.7023 51.9012
9.21882 17.5208 48.7701
9.08088 17.4679 46.0245
15.6551 25.6286 50.3656
11.1828 18.1419 51.6345
12.6482 20.0485 41.5477
10.2154 19.0657 59.8949
18.4498 36.5398 66.0996
12.8321 19.4096 38.5413
10.5578 24.8581 51.5461
14.6052 30.2673 63.4464
12.9185 19.7383 53.5659
12.2215 14.0923 25.5012
8.10916 12.928 32.0541
7.61127 20.9434 43.6728
5.52558 22.9672 68.4986
16.9715 17.8516 30.2425
10.7241 20.5981 49.2668
15.8559 28.3943 61.0761
13.4308 24.9686 54.5935
16.9687 31.9803 70.8744
14.0054 22.2018 48.091
9.94575 16.9047 32.3811
4.0652 14.5727 35.0556
7.89944 21.3534 52.2183
10.2249 17.0441 40.41
11.021 24.8703 53.7611
11.8521 25.3027 67.0507
12.5477 17.353 37.093
9.30268 24.4399 63.0061
9.49557 12.3232 35.4847
10.2101 19.2114 42.5518
10.4296 17.8661 40.0034
13.0188 23.8575 61.5737
17.7073 27.5319 44.9883
10.3065 22.0925 49.8503
9.42747 24.6405 65.07
10.6799 19.4523 60.6705
12.014 22.8929 61.5303
14.0457 19.5471 43.4768
13.0605 28.5848 57.4187
8.53557 15.7281 45.8083
15.324 31.2593 64.2886
12.5502 33.1692 84.4408
10.5079 19.9828 49.0894
10.1173 19.5706 39.7683
8.64162 15.004 49.2578
13.2308 33.1188 68.6297
10.2665 18.5411 47.4008
11.921 28.1224 86.8842
19.9105 30.9517 62.9465
16.2532 43.981 100.014
14.2508 32.1238 72.8925
10.1566 19.1416 65.501
11.6988 21.3105 49.515
14.8251 26.4147 48.5158
7.72505 20.1367 54.2327
9.39214 19.016 41.3387
9.52416 28.9364 81.888
11.9848 16.5794 29.9982
8.63461 27.7266 85.3657
13.5179 18.969 31.2521
8.06722 20.3199 63.1649
