# pn-170911/CsIIA-29-USN3-1280-1959.psd
# Power spectrum* (dif=0,1,2) (really just |FT|^2)
# NOTE: only the first half! (symmetric)
# weeks: 1280-1959
# 109 clock-days, 88 excluded
# PSD: 1441
52306 1.19194 0.0504617
1.17551e+06 22.5482 0.0204046
5.08838e+06 97.2031 0.0219804
1.36791e+06 49.4633 0.0220889
1.50947e+06 112.672 0.0287445
494936 53.6895 0.023653
313652 50.7626 0.0321409
255827 50.5299 0.0321957
179352 45.0603 0.0347189
147586 47.3014 0.0413225
121796 50.1375 0.0433625
109936 54.4946 0.0531069
88980 53.2087 0.0607828
77229.5 52.2589 0.0620274
67077.4 52.6899 0.0705381
52414.5 47.9426 0.0692958
58910.4 55.6921 0.0763328
41898.9 49.0317 0.079343
41433.5 54.3143 0.108658
38584.2 50.1981 0.101532
28407.6 44.7444 0.101218
23515 42.576 0.105639
23273.5 46.1056 0.116852
24290.4 49.4557 0.153241
25128.3 54.2617 0.17646
18905.7 46.3484 0.163603
21024.1 57.5538 0.19747
16422.9 48.3966 0.194399
15883.7 49.0907 0.209468
16299.2 54.0571 0.221152
13614.4 49.8733 0.230206
12158.8 48.0195 0.228386
12124.1 48.9593 0.252894
10861.2 43.0537 0.265666
9868.8 44.6683 0.265228
9260.72 49.2293 0.306994
9772.29 49.1212 0.320698
8054.66 47.5603 0.329821
8588.85 52.4313 0.386646
8238.26 51.1234 0.416701
8522.46 54.4263 0.453546
6647.13 47.1124 0.395814
6050.03 48.5807 0.441141
6334.51 45.7438 0.433369
5651.69 43.7369 0.427974
5876.08 47.1998 0.471769
5561.33 50.2792 0.537536
4629.31 45.175 0.50734
5348.35 46.3808 0.533722
5096.89 48.8526 0.554535
4537.4 47.3607 0.588202
4234.36 42.1412 0.557171
5167.76 55.0327 0.713427
4166.68 49.3288 0.668943
4239.62 47.0661 0.677061
3700 47.2874 0.699834
4051.16 50.3637 0.755556
3546.38 51.8195 0.818202
3698.62 51.4029 0.851873
3609.5 54.1458 0.891224
3750.5 50.5729 0.890852
3218.1 47.7752 0.864172
2736.58 42.0474 0.821602
3351.65 58.0647 1.09044
3153.89 51.903 1.04182
2804.07 50.4211 1.02896
2821.47 48.4829 1.02645
2502.16 46.9602 1.01602
2490.69 44.9007 1.0201
2788.62 52.9192 1.18702
2388.14 45.2755 1.05465
2559.52 51.3539 1.29617
2669 55.2666 1.36905
2822.55 66.4159 1.70527
2364.35 49.1826 1.31004
1797.64 42.1233 1.14636
1912.69 50.183 1.365
2136.5 55.2078 1.54813
1686.18 43.1382 1.25224
1679.74 41.1002 1.23521
2076.93 56.5361 1.71394
1894.27 49.7718 1.62124
1946.96 49.4191 1.62119
1780.74 50.3983 1.69593
1633.73 44.7519 1.53087
1611.98 48.3999 1.64474
1670.53 46.3575 1.66098
1275.92 41.8116 1.52946
1446.2 44.5464 1.65232
1875.6 57.5249 2.15544
1758.98 54.0442 2.14127
1543.43 52.1918 2.04215
1581.22 49.2861 1.98799
1316.28 43.9708 1.81426
1352.32 45.3233 1.90208
1180.71 44.532 1.94926
1357.38 47.9414 2.07553
1510.91 54.7999 2.40621
1319.48 51.3174 2.35421
1075.69 42.685 2.02335
1127.32 42.3815 2.01954
1083.94 46.4523 2.29558
958.212 41.9954 2.10039
1234.55 52.4767 2.69141
951.13 39.8295 2.08334
1062.1 46.0902 2.45268
1158.79 53.3458 2.82318
984.313 47.6093 2.60906
1111.69 55.3438 3.07524
1037.91 52.9912 3.01372
1080.37 49.751 2.78818
895.126 46.4538 2.67518
970.487 44.8401 2.67965
914.914 47.4604 2.87766
792.25 41.534 2.5806
845.108 43.6202 2.75446
877.499 48.5588 3.05901
1149.7 61.9213 4.01941
950.581 56.5962 3.74266
765.982 42.7731 2.89859
708.707 42.9461 2.98593
1001.26 57.6665 3.99318
898.328 53.3252 3.8088
807.446 49.9861 3.61513
724.533 42.8408 3.16479
778.209 45.7495 3.4133
609.418 37.419 2.80837
671.186 46.2306 3.55804
647.249 41.7023 3.24716
831.656 56.8507 4.61076
773.859 50.4721 4.09983
603.14 45.0967 3.69492
644.319 43.1007 3.54631
682.852 49.2039 4.04532
645.66 41.9224 3.56751
662.175 51.8136 4.54957
679.325 48.4569 4.17312
628.475 46.2496 4.11157
593.93 49.5301 4.47757
639.569 49.2455 4.53403
555.37 40.6545 3.98122
718.054 51.2615 4.69482
654.079 52.7542 5.00002
597.167 49.6799 4.92728
594.825 48.0288 4.77572
498.606 44.4506 4.32038
656.594 55.6105 5.5444
621.682 53.3681 5.43293
580.83 48.7868 4.98896
529.059 48.3728 5.08313
626.356 55.423 5.72942
525.568 49.875 5.25163
569.031 57.0424 6.34374
550.083 48.3002 5.3393
456.26 42.9257 4.73342
465.834 48.0701 5.58278
434.083 48.5298 5.46819
508.022 51.1347 5.913
444.868 47.7543 5.71073
489.96 48.9362 5.93464
439.364 43.3593 5.27058
452.948 51.1633 6.43413
488.394 54.6788 6.67945
393.285 39.906 5.09154
443.837 46.4218 5.93833
510.257 50.5524 6.59426
511.136 55.3009 7.1338
538.025 59.6477 7.71909
462.349 54.687 7.25276
383.465 42.9422 5.86771
463.494 52.2737 7.16754
434.079 52.5927 7.31542
428.443 51.7807 7.22612
399.509 49.6789 6.87711
401.262 48.2246 7.04551
402.811 50.2864 7.11369
456.554 55.9245 8.14364
405.356 48.0294 6.9013
348.866 45.5219 6.74814
350.8 43.2174 6.6582
431.993 61.0949 9.54223
420.445 49.1783 7.47518
332.279 47.8017 7.5283
360.337 48.7942 7.56491
361.355 54.2201 8.72902
366.677 50.3333 8.12738
314.514 43.9984 6.81173
326.081 46.7605 7.78402
306.685 42.5362 7.1108
321.863 47.132 7.89456
374.869 58.4693 10.094
300.353 44.2109 7.66288
299.1 48.3682 8.4699
263.139 39.9175 6.88646
291.26 45.731 8.24163
281.908 42.4759 7.56422
299.839 50.0881 8.99076
305.278 48.1122 8.90379
258.535 40.5547 7.21496
329.805 52.8725 9.6804
259.445 43.7041 8.21726
281.383 45.7806 8.72159
294.169 51.9224 9.86959
288.227 46.6641 9.3162
251.01 41.9007 8.06808
246.393 47.5486 9.38067
284.879 51.3199 10.2392
277.741 45.411 9.04588
258.944 44.028 8.90516
257.692 45.08 9.2137
245.009 43.3477 8.86792
292.973 57.4581 11.95
272.745 44.3199 9.25573
229.529 39.4809 8.72561
251.992 47.4933 10.0264
247.501 43.9173 9.64595
252.981 44.2758 9.47057
237.162 46.8288 10.2438
257.688 45.5044 10.1219
290.388 52.2898 11.7666
262.655 49.2376 11.1677
240.352 45.7131 10.865
217.044 48.9831 11.0219
255.814 49.4684 11.9504
282.826 52.3704 12.2628
223.295 38.0851 9.18355
236.273 46.8054 11.3958
189.379 41.6836 9.78052
210.76 42.5285 10.1597
253.179 49.6304 12.619
228.932 44.6041 10.6415
219.101 43.9141 11.057
232.064 50.2572 12.5252
231.587 47.102 11.8636
204.233 44.101 11.3756
242.534 52.7834 13.5714
200.187 42.5774 10.3653
224.236 46.8949 12.7213
219.943 51.4425 13.575
193.598 40.2152 10.5795
196.443 45.6112 12.0306
190.485 45.5266 12.4787
201.245 44.3901 12.2215
195.031 42.4306 11.8001
193.15 45.6461 12.519
188.352 43.8149 12.0706
230.999 50.1272 14.1529
173.938 46.1802 12.9532
218.287 52.8014 15.4629
198.682 48.5464 13.6924
187.081 42.7919 12.5963
163.309 42.2897 12.911
188.718 49.3348 14.3094
181.355 48.2704 13.9219
168.351 38.9912 11.753
167.583 42.5534 12.9448
190.306 50.5073 15.4735
187.031 51.0923 15.5081
188.906 47.7393 14.9223
175.481 45.9788 13.7748
186.748 50.656 15.2781
166.314 42.9042 13.9056
162.128 42.3472 13.5287
196.851 56.176 17.8904
161.655 43.6324 13.8761
156.596 44.1803 14.5489
157.614 46.8678 15.6271
173.381 51.4422 17.0244
148.477 40.0582 13.2735
165.925 47.9041 16.5904
182.885 51.9348 16.6203
149.861 43.4372 15.5499
158.493 46.5825 16.0097
160.164 45.1993 15.8036
191.08 54.1985 18.5611
157.73 49.5681 17.0304
184.854 54.7155 19.1834
166.249 47.9369 17.3905
150.417 42.492 15.0017
148.524 44.9147 15.9524
122.564 37.9684 14.2211
128.735 42.0841 15.674
140.764 42.8102 15.9939
150.43 45.3481 16.4948
155.578 47.1272 17.1683
154.103 47.4301 17.426
131.265 43.8613 16.9783
145.121 43.3879 16.2018
145.62 48.3168 18.2887
154.931 49.6825 19.1309
145.471 43.109 16.4468
141.793 46.9716 18.4651
131.616 46.6952 18.9918
135.888 41.9296 15.3694
141.316 50.1315 20.3272
125.715 41.131 17.1341
153.702 53.7076 20.9809
122.781 41.3568 17.1028
140.634 47.5732 19.6322
136.114 49.5471 21.1613
145.573 50.142 20.1988
143.787 49.4294 20.5179
131.46 48.8371 20.3682
143.118 50.5609 20.9102
140.321 50.738 21.9803
118.606 39.5467 16.6952
119.25 42.0256 17.8452
132.012 47.3044 20.4032
128.924 47.7173 20.739
130.596 49.5038 22.6753
138.195 53.6958 23.0533
113.478 42.9021 19.7964
108.167 41.0466 18.4354
126.245 44.5313 19.7411
122.845 44.563 20.2448
125.582 46.6763 20.6476
118.015 42.3677 18.9115
105.597 41.5698 20.4979
125.572 44.5071 19.6195
112.346 45.4063 20.94
120.961 50.6255 23.5153
112.651 47.3477 22.1965
122.827 47.9366 23.17
128.195 50.1891 23.1285
108.4 45.9622 22.0857
112.606 47.0398 22.2959
114.912 49.94 24.3524
150.461 60.9243 29.9022
126.792 52.0003 25.8508
103.951 45.0601 23.2574
125.687 51.5444 25.2893
106.788 45.0001 22.9033
126.539 51.316 25.2689
101.905 41.5747 20.9497
102.269 42.8073 21.5743
121.048 51.6449 27.2771
96.3278 44.8861 22.8446
109.778 47.6558 24.7891
111.701 45.2006 22.6209
93.8518 43.2562 23.7908
111.852 51.9125 27.1711
97.7629 47.0129 25.1872
93.6834 40.792 21.3498
92.3336 42.3528 22.3972
108.189 48.8831 25.577
101.746 47.1687 25.6041
102.728 46.7779 26.4991
98.2919 45.8535 24.7014
99.4138 44.1933 23.515
104.485 44.5484 25.0179
100.969 49.5603 27.251
94.9185 51.0988 29.5475
94.2195 41.1804 22.8029
96.157 50.4072 27.9244
95.8643 44.9061 25.5722
91.6641 44.3834 26.1804
96.2992 46.3737 27.1102
100.538 47.2157 25.561
96.0542 49.9031 29.6655
94.0327 44.0905 25.392
89.1396 44.053 26.0933
90.6346 42.1964 23.9213
77.1664 37.3687 21.0022
98.5714 48.2945 28.3402
76.9788 42.5868 25.9685
97.0319 45.8647 27.7982
91.9136 47.4493 29.2984
88.6736 45.9567 27.9034
82.5973 40.5653 23.5779
81.6067 38.7396 23.9982
88.6014 50.3161 31.1293
72.5259 40.9251 24.7923
72.177 40.7942 26.1225
73.9243 41.65 27.0394
87.5831 45.6178 29.1288
88.7264 43.5046 26.2735
81.8948 41.2791 25.9636
79.6491 46.1763 31.416
82.8898 41.7945 25.6159
67.8147 39.807 27.0505
92.2507 47.6938 31.351
94.7943 51.2436 33.4267
76.1878 40.8171 26.0563
84.5399 41.1963 27.1524
83.8342 48.1616 30.8018
72.4487 37.9916 26.3337
82.868 43.675 29.212
83.4971 47.9144 31.7937
85.3327 48.8245 34.9493
69.6518 39.1948 25.1165
77.8517 46.3968 31.2838
71.9265 43.2546 30.6696
80.1531 43.6982 29.8371
82.0641 44.3039 29.2758
73.446 41.488 28.0184
78.1409 43.5275 30.2305
77.2332 43.0171 31.4653
86.2718 47.4928 34.3091
74.5004 39.9345 27.0576
76.7942 45.6425 32.0326
73.7926 43.1612 31.5204
65.4494 39.0966 27.9961
77.5416 48.1903 34.5533
70.2196 43.954 31.5543
69.3565 41.7769 30.7338
65.0763 40.4432 30.4311
69.7453 43.2219 31.3567
71.5751 46.9326 34.9388
78.6873 47.0371 35.7
74.4063 46.5235 34.5593
64.7467 43.0167 32.7469
69.6972 42.8539 31.1051
76.7357 50.5026 39.1697
67.6316 39.692 28.4828
76.4228 51.9193 37.9952
59.3923 40.2205 31.7811
69.79 45.2204 33.9724
67.4604 45.6329 34.8576
63.2538 45.0779 37.3407
56.8165 36.7901 29.8268
68.0041 46.0308 37.0353
62.0894 38.7426 30.8909
73.2688 43.5657 31.0933
61.5049 45.214 35.5525
60.2863 41.6902 34.367
67.4153 44.7848 38.0443
68.3012 45.7388 34.8623
68.0641 45.5651 36.2437
62.8152 43.5553 36.5511
64.0258 43.2566 34.3323
65.9618 50.8592 40.639
61.2229 42.2301 34.3261
61.9485 45.1528 36.8509
58.4903 42.6022 33.0108
73.2943 52.4311 44.3103
64.5096 46.583 40.3473
61.1357 39.1818 32.6283
55.6185 37.9862 32.7809
52.8136 40.4152 35.2164
59.5227 40.6389 34.1945
59.5845 42.5628 39.658
68.4642 46.963 38.5782
55.9715 37.6442 31.88
66.0909 47.0642 38.6129
48.7543 34.5433 30.7232
54.6126 39.2081 33.383
57.0618 38.6636 34.4637
63.9324 44.7382 38.2502
48.7503 40.0484 37.6659
66.3691 44.9245 39.3821
55.7817 42.9496 39.9014
60.946 44.7215 38.9506
59.3625 44.738 39.5054
57.0933 41.0325 36.6366
59.6266 41.9847 39.2871
64.197 49.7976 44.2979
57.3056 37.8791 36.0227
63.7141 47.766 42.4963
51.5565 38.1161 37.3831
67.9419 53.7973 45.5839
59.3839 51.3043 48.8394
54.9437 44.1432 40.7708
50.1877 35.5237 32.3212
50.2787 43.8213 39.4355
49.3973 39.37 39.7818
48.0765 36.604 35.4786
53.9616 41.8635 39.2609
59.779 45.4404 41.1151
53.6948 41.1997 37.1133
41.4262 36.7018 37.035
46.716 34.7432 32.5494
49.0206 38.1904 38.0647
49.1482 40.3001 36.8555
48.7885 40.9657 42.365
50.8191 38.0677 36.6035
46.5664 37.6233 37.8792
49.7059 42.4486 41.5693
51.1175 40.7768 38.6169
47.5828 43.4366 43.4538
40.5232 32.3954 33.6957
57.2605 51.2911 50.7665
53.4308 45.5378 45.8704
53.2718 43.8559 43.7967
47.5818 42.9622 45.3665
54.8428 44.1486 42.5882
47.8627 43.9949 44.0582
50.3666 43.0173 43.1688
44.0057 39.0008 42.6544
43.1325 38.6882 40.8478
47.7854 37.8907 38.177
38.2194 33.4549 37.1148
52.6145 45.9284 47.141
49.4069 42.0319 43.3052
48.3247 41.2269 43.2896
39.445 34.5334 38.631
48.1898 40.1162 41.153
40.8511 34.566 35.528
43.7153 36.3968 39.3872
41.4176 38.0116 41.2674
41.6087 33.6411 36.2677
49.6668 46.4837 48.0145
48.4025 38.8373 41.2035
50.5422 45.2401 48.9599
46.9563 46.4742 51.1294
42.9797 42.2414 46.2989
46.0357 46.7934 50.1905
42.7836 42.1891 46.6964
45.7766 37.4678 40.7543
37.4681 33.9032 41.2859
50.416 40.4103 43.174
40.9224 35.5665 40.15
48.2608 47.3179 53.2197
49.0659 43.5189 47.387
44.6239 39.6424 41.7334
37.7396 39.8324 49.0092
44.8308 39.5756 41.4026
45.2963 49.5297 55.503
41.8204 41.044 52.495
43.9902 38.0899 42.2194
48.4095 48.3097 55.3012
44.1401 39.0908 44.7086
39.0853 34.8855 42.5778
36.9212 38.7992 44.6561
41.8429 37.8338 41.8997
38.0873 34.2491 39.4197
44.4844 45.5739 58.5542
47.996 44.4381 48.8254
42.3906 41.1464 45.9597
37.8547 39.0677 44.7215
35.0491 41.7595 52.3461
36.1602 35.8074 44.4521
39.8485 34.9408 39.9
40.3117 38.4609 46.3554
38.372 37.7617 48.8041
37.0436 40.1608 47.7348
39.6365 38.064 47.7261
43.3937 38.3365 47.2295
42.1703 40.4243 49.0733
40.2269 35.854 43.8529
44.7929 42.7583 49.8083
43.4254 45.6729 55.6454
44.5376 48.0602 58.9764
39.3077 41.6565 54.1842
45.4716 43.7683 52.7374
29.6129 34.8118 47.291
43.1772 39.243 48.6179
39.1858 44.9527 57.9148
36.0038 41.0367 51.9679
43.9997 40.6111 50.4821
40.666 44.6997 54.9001
37.6452 38.0783 47.8929
39.0912 43.0096 53.8196
41.9027 45.5962 56.9905
32.8427 33.363 45.1038
33.239 41.137 58.3181
38.4553 37.6922 49.122
36.9396 41.1801 54.0598
38.5863 42.5755 52.6162
43.4938 45.8687 60.0542
33.2689 39.3526 55.3647
41.9057 46.8447 61.4127
36.8757 39.9201 51.0729
30.2564 31.3516 43.0863
38.108 41.9036 55.9549
38.3693 39.0955 52.5745
36.6688 37.383 48.4121
34.6039 39.211 50.3978
27.0602 30.5474 43.1652
29.5224 35.2492 49.4897
32.3167 39.254 54.6029
39.1944 42.1722 55.3245
31.3352 33.8916 46.1642
29.5747 35.293 52.078
35.0442 34.9263 47.8375
33.0779 38.6311 50.2013
35.9886 47.3596 61.6979
34.8359 40.6526 58.8304
37.8729 46.6705 60.52
31.4397 41.7747 60.2721
30.2427 35.5513 54.7132
38.9371 41.8735 49.841
28.4628 34.0236 47.6174
32.7261 37.6493 54.1425
31.522 38.6361 53.7567
33.8716 44.4662 61.9273
31.2682 34.2602 51.9888
35.4181 40.0937 59.3977
33.6113 36.9383 53.5072
32.9198 39.9363 55.1077
26.0765 28.0003 43.7864
30.7432 30.9518 40.5559
31.1681 40.355 56.3941
29.68 37.5405 54.6733
30.0637 34.9516 53.273
34.5729 40.92 55.1697
28.1937 32.9365 52.897
31.5891 38.3244 51.512
29.6712 39.7661 59.9405
29.5155 35.6436 53.7907
28.0999 34.5016 53.1217
31.6093 37.8545 55.845
35.0639 42.3282 64.7402
33.3576 35.423 51.424
32.5025 39.9157 57.6323
28.6005 34.9438 51.5485
28.4747 36.1351 56.8349
32.7639 36.2429 52.9716
26.3849 31.6755 49.8404
25.479 33.8099 51.8018
31.7763 38.6436 59.357
31.0673 36.0006 56.5706
31.5799 36.8537 59.1783
34.3613 37.2688 52.2876
34.3662 42.4601 66.8079
33.8576 45.4174 65.8934
29.7827 38.1937 62.9575
30.239 37.9477 55.7525
26.8676 33.8972 56.1872
35.1586 40.2962 54.3661
28.8305 41.0726 66.4126
24.0203 35.4189 61.2537
31.8884 39.0871 61.1124
25.4354 31.2251 50.6332
28.5266 34.6798 53.4349
31.2884 40.2349 68.0438
34.1336 38.7234 58.7789
28.2261 37.5129 61.9815
29.581 35.7435 55.1401
31.4738 40.9559 62.1681
29.1054 39.7008 62.9515
32.1881 47.6815 79.0773
29.5654 35.4493 56.9153
29.0714 37.3136 59.9928
25.7593 34.2717 52.5117
29.5164 42.9024 71.9333
30.5671 35.5311 56.7647
24.237 34.5201 59.3405
26.1411 35.9816 59.729
26.6309 36.8039 59.5956
31.5321 37.9765 63.8378
30.9959 44.8018 72.154
32.4367 47.4562 77.1043
25.2444 32.479 56.311
26.6233 40.3619 68.2675
28.0159 40.3953 67.313
29.4827 43.9319 74.928
30.1803 38.5567 64.9319
27.7752 35.875 58.7915
26.2153 37.1184 65.1972
29.3739 33.3909 51.6862
28.1288 34.1138 54.1707
22.6461 35.1599 60.9118
22.473 34.0214 62.854
31.2333 43.3394 68.5819
25.5114 37.9762 67.2383
26.3207 43.8102 82.3399
32.4182 41.5924 69.263
21.9438 29.0059 52.3576
30.653 42.1131 63.2706
23.4365 39.8545 72.9736
26.7963 34.6341 58.8988
23.5546 34.1135 62.2524
25.7314 36.4841 61.9129
28.3559 44.4557 81.0197
27.4221 40.8076 67.8283
25.9381 40.406 76.3978
29.8171 39.0896 66.382
24.7006 31.7143 59.6898
26.8902 36.4077 65.2775
27.8003 36.7541 64.2582
28.9864 41.9447 72.2898
23.797 35.9599 64.6904
26.8656 37.0871 65.0491
21.1999 31.1946 60.1213
26.8879 41.1587 65.3245
20.1052 29.8313 60.283
23.4396 30.0157 55.2321
26.0976 38.9272 74.3366
26.0278 37.1931 64.2968
26.496 39.5266 69.4559
23.6948 37.5563 66.5071
23.2421 38.577 70.9743
24.4459 36.6474 64.5811
19.1369 27.7447 58.2464
23.7365 29.6995 54.4192
21.9286 38.0445 70.6951
24.6209 36.2573 66.9624
21.4923 33.5971 65.9761
22.2131 32.8403 62.5254
23.4329 35.6892 64.1048
26.4971 42.1859 83.7787
27.8193 40.3773 74.5485
27.9959 42.9553 81.3414
27.9358 44.7111 75.658
22.7156 39.1331 71.9475
21.6791 36.0028 74.0676
23.081 38.7644 74.1119
26.15 35.0141 68.9661
25.2577 37.4488 74.3035
27.2648 38.2097 63.7707
21.3394 32.0295 59.1565
19.5785 33.5291 67.1064
22.0463 33.4162 67.721
22.7048 35.4472 65.8111
21.6372 37.1869 70.1819
22.0444 35.7863 72.3693
23.7622 35.9341 68.0302
26.0529 44.6529 84.8215
21.7136 35.262 69.2185
25.405 34.546 63.0559
23.928 36.0489 73.3036
20.2554 31.9562 62.4868
18.735 33.5405 73.9759
23.1198 30.5189 55.2789
21.7885 35.3078 70.4781
22.7041 35.3414 65.4642
19.04 32.3862 73.328
26.3743 37.7064 72.3443
23.6964 37.491 71.3322
20.8562 34.8286 70.3596
20.0361 35.2227 71.9645
21.939 35.0847 67.8667
20.0225 32.7866 68.7831
21.1977 37.7454 75.2036
22.2248 39.4236 79.0176
17.767 31.7908 78.6282
26.737 35.9894 64.2809
18.5483 30.7388 66.3076
18.6012 32.5678 64.0739
21.4742 34.0799 68.5985
20.9793 40.0874 81.3383
25.2866 38.7255 69.6234
18.277 31.152 65.8807
20.1044 35.4346 75.0393
21.3049 30.7518 61.8245
20.1514 34.3706 72.8032
22.9204 37.6802 81.0688
22.279 34.0764 63.6793
16.7684 30.6744 62.8634
20.4103 35.0419 76.3685
21.9624 36.913 77.2042
22.6712 35.1204 75.5832
21.3225 35.3262 74.1793
20.911 38.477 76.7964
21.5131 33.7439 69.9952
20.1412 35.0777 72.743
17.6163 28.0897 64.2731
17.6578 32.5906 66.3222
19.9041 32.9836 65.801
17.9166 27.4299 61.8855
19.5068 35.9091 74.9763
16.6137 30.8358 71.482
21.7139 32.4951 73.6009
23.7164 40.507 78.5159
18.7974 35.8076 80.5266
18.0838 28.2278 58.4362
16.479 28.8277 68.0199
21.6091 36.9961 76.0532
19.5095 38.6967 78.5435
17.6214 34.188 75.4928
17.4137 29.3692 66.1142
20.2187 35.7296 75.1646
21.9505 38.0025 80.7145
20.9503 29.729 63.0759
18.516 30.6479 64.0808
17.1343 32.0013 81.8475
20.1393 35.1767 75.6069
17.9441 28.1948 66.3082
17.9553 34.2029 80.2014
20.7063 34.3269 69.1939
19.5077 34.4166 72.9659
15.939 25.3509 58.9913
16.4392 32.1266 72.4508
21.251 40.5026 87.1949
19.7646 31.918 69.1716
19.0976 31.7256 76.7243
17.5046 31.7207 69.4056
18.2378 35.2768 81.4649
17.9616 31.1867 71.2729
15.3198 30.3922 64.9934
18.6468 34.1861 72.4605
18.5123 35.5756 83.5133
20.3135 33.7091 76.4322
20.0058 31.2707 74.1656
19.9056 34.453 76.7428
19.2238 32.0305 73.2012
18.2446 33.4225 78.1905
18.9886 33.472 69.9636
15.5972 29.941 75.2603
18.5604 34.8508 84.8303
21.3771 35.9469 75.4921
17.9826 33.9864 81.9198
19.1534 36.8997 84.7053
18.6791 32.4992 73.9388
17.4571 31.7116 71.2235
18.3636 33.7818 86.1158
17.4057 32.5305 79.8086
20.6566 39.4888 90.412
18.7164 31.3036 69.6123
19.4673 36.2668 80.7558
16.8011 36.5795 83.5201
16.634 29.9912 72.8061
19.516 34.3162 80.775
16.9363 32.0941 71.915
16.3474 29.6936 72.4647
17.9692 35.5986 88.2104
16.6407 31.5517 75.7423
16.371 26.197 59.0802
14.5788 28.4123 71.2183
16.8335 30.4058 75.4474
17.7423 32.1515 78.0455
18.6646 30.9179 72.5083
17.3563 33.2375 67.004
14.8544 31.146 81.9581
17.1991 32.4134 84.7157
16.2268 29.0094 63.9684
16.0696 36.1113 87.8524
17.4603 36.5325 93.0404
18.5568 27.021 65.8664
15.7019 32.3275 75.6275
18.2432 36.8188 86.423
17.9887 37.9027 83.9399
15.0333 29.9534 74.3448
14.9791 27.8113 73.3579
14.1321 26.9029 71.951
17.5706 33.6149 77.7013
15.164 29.2487 66.543
15.5675 32.9925 87.7905
18.1578 38.142 94.9812
17.6131 34.5558 90.9152
17.7752 29.7776 77.5905
15.3971 34.4856 80.8257
16.4202 30.1575 76.9633
