# pn-170911/CsIIA-39-CsIIF-1280-1959.psd
# Power spectrum* (dif=0,1,2) (really just |FT|^2)
# NOTE: only the first half! (symmetric)
# weeks: 1280-1959
# 443 clock-days, 211 excluded
# PSD: 1441
112056 2.95834 0.0664985
3.86493e+06 46.3746 0.0546794
2.43734e+07 519.089 0.0776708
2.66327e+06 98.518 0.0660519
3.21989e+06 228.296 0.070086
839032 81.642 0.0666627
632955 85.5751 0.0686648
444324 85.6262 0.0772426
331879 81.2227 0.0750668
292925 87.4298 0.097465
215259 80.12 0.0859001
201166 90.0775 0.107253
172455 92.1246 0.108209
138901 85.5827 0.129509
128385 93.9845 0.141384
96335.6 84.8021 0.146128
89237.9 87.0763 0.161646
81004 89.931 0.177758
75572.8 89.6056 0.198641
65302.2 86.5271 0.189944
53196.1 83.1975 0.231631
52552.5 86.5198 0.226416
50437.5 89.006 0.265166
46967.6 90.2333 0.272382
39210 83.8861 0.293312
38171.5 89.5279 0.317016
37129.1 88.258 0.346481
29232.3 77.6662 0.317197
29277.3 79.2385 0.352959
28846.4 84.6991 0.390773
25830.9 83.738 0.410191
25254.3 85.4194 0.470605
24519.9 88.9018 0.500681
21272.4 81.1875 0.47446
21040.5 85.5557 0.506134
20451.8 86.9675 0.553736
17266.4 76.5487 0.544887
17485.5 83.0262 0.61006
17144.2 86.1561 0.635517
16149.8 82.002 0.662071
15276 84.2068 0.712871
14295.1 79.8804 0.707222
13734.6 84.0367 0.762924
13140.7 82.6431 0.749276
11840.9 79.7515 0.794146
12419.5 90.2445 0.929734
10760.2 78.319 0.881113
10856.9 83.9792 0.906325
10336.8 86.3473 1.00684
10734.9 88.2637 1.05243
9706.48 87.1653 1.09493
9435.37 78.799 1.03189
8603 86.3817 1.16017
9778.55 95.4488 1.29556
8258.69 80.9017 1.17925
8350.72 88.0608 1.29382
7729.62 82.1605 1.28448
6650.79 72.6812 1.19099
7264.97 80.0112 1.3017
7194.38 84.8772 1.44426
6764.84 87.5448 1.51758
6257.22 84.3923 1.50138
6549.14 89.0314 1.68354
6459.42 85.9877 1.67241
6185.06 86.0448 1.76242
5944.52 84.9819 1.71575
5506.06 81.8263 1.74645
5311.63 85.5776 1.87257
5541.23 83.8109 1.92134
5239.55 81.6254 1.90431
5180.69 81.8291 1.93936
4656.45 83.1786 2.04271
4869.34 83.9655 2.07075
4983.79 87.3464 2.26998
4686.15 86.405 2.28176
4109.33 76.1627 2.0799
4530.2 84.9373 2.37405
3879.68 77.1053 2.22626
3781.89 78.4098 2.32042
4192.53 77.5117 2.38288
3921.92 81.8023 2.56247
3753.46 84.9987 2.73758
3881.43 80.0001 2.52725
3883.08 82.2833 2.79827
3495.63 80.6942 2.7808
3143.93 77.5673 2.70096
3250.17 84.1738 3.02436
3128.96 80.7655 2.96329
3086.89 77.8078 2.88806
3298.03 88.8202 3.35346
3129.51 86.1469 3.3437
3076.62 79.7878 3.18212
3234.2 89.4053 3.64631
2759.08 83.8414 3.46962
2868.24 80.4285 3.38734
2828.83 84.2336 3.64732
2534.88 82.4703 3.67865
2707.59 85.4105 3.78905
2797.3 82.1308 3.83384
2447.46 83.4755 3.94199
2261.12 82.3989 3.91637
2555.76 88.221 4.35311
2250.18 80.1794 4.01493
2178.34 78.5619 3.95443
2136.32 73.6984 3.77384
2244.26 80.918 4.26136
2129.9 83.1113 4.478
2308.78 88.4598 4.90464
2093.53 80.5629 4.47628
2013.14 80.5674 4.64987
1954.36 81.1278 4.69333
2140.87 83.1504 4.82871
1922.89 76.5427 4.60519
2094.82 89.0564 5.37601
1775.3 77.4434 4.81553
1719 74.2646 4.63928
1731.77 79.8106 5.07218
1663.25 80.0944 5.25379
1616.65 81.7851 5.43753
1576.33 80.7295 5.42857
1631.63 81.2818 5.53461
1493.88 84.3843 6.00777
1499.71 77.0507 5.42422
1533.69 80.8992 5.80097
1480.41 80.2963 5.87968
1458.59 82.5564 6.18881
1437.08 82.0512 6.10832
1371.67 78.9316 6.11501
1299.68 76.8158 5.99153
1261.61 71.5207 5.59215
1368.49 82.7878 6.64755
1255.47 79.3042 6.5525
1311.65 82.4032 6.82756
1278.97 77.3831 6.53291
1322.3 87.6888 7.45772
1250.5 82.0073 7.05612
1117.09 73.3298 6.5399
1070.29 72.5721 6.57281
1084.18 74.1847 6.73164
1140.14 74.5067 6.80786
1105.81 77.1847 7.18298
1138.16 80.8854 7.59762
1076.2 77.4402 7.44597
1133.93 80.2369 7.70413
925.698 65.9879 6.47422
1051.03 80.098 7.91641
975.104 74.1083 7.66115
978.77 77.4417 7.97235
974.041 74.3936 7.78605
882.843 72.4938 7.6343
968.544 72.6721 7.64246
836.38 70.1642 7.64225
981.893 79.1468 8.60295
911.142 72.7608 8.08436
879.385 74.8317 8.42786
822.674 70.4372 8.07534
847.604 76.545 8.88469
878.54 76.2816 8.89165
784.662 70.7263 8.33554
844.791 74.5501 8.79395
820.878 75.3234 9.09763
809.349 73.7382 9.00136
782.775 71.3889 8.83596
805.831 72.7707 9.00663
774.077 74.1662 9.40468
793.754 76.0237 9.69402
793.857 74.6465 9.82158
726.553 69.9329 9.20058
770.902 76.6333 10.1947
742.758 71.5096 9.64487
783.907 76.236 10.4099
767.484 74.3992 10.2405
741.111 74.2692 10.3832
686.085 70.8952 10.0016
697.312 73.2942 10.541
696.291 70.5141 10.1404
774.413 78.3935 11.4056
702.262 70.5252 10.4763
700.502 75.1365 11.3697
704.406 76.4985 11.6698
649.377 72.279 11.027
671.246 70.6541 10.906
647.261 70.3237 11.1164
636.356 69.8574 10.8644
684.95 74.7094 11.8716
647.837 72.8082 11.6576
634.807 72.1101 11.8782
663.539 74.1772 12.0917
657.536 73.6421 12.381
580.527 69.2946 11.7204
621.387 72.8867 12.2876
605.592 75.0419 12.9953
624.555 74.3007 12.7203
583.135 66.7798 11.8138
630.407 69.7689 12.5661
612.968 73.7062 13.1313
545.587 63.9736 11.5063
568.425 70.7967 12.8267
565.304 73.396 13.6939
555.114 69.5758 13.0507
526.152 66.7096 12.549
564.516 74.892 14.3585
485.163 62.1932 11.7876
528.12 69.9793 13.6042
513.158 69.1752 13.4344
551.143 67.1587 13.2539
552.542 68.1596 13.2888
534.067 73.4012 14.9964
519.805 75.3941 15.5219
564.184 70.9776 14.3596
490.044 67.8415 13.7295
504.293 70.8275 14.8046
528.572 68.8166 14.2639
497.964 69.7866 15.1326
462.338 64.1984 13.8187
488.575 69.6445 15.0795
440.921 59.3093 12.947
478.705 70.9733 15.67
451.735 64.9675 14.5098
437.667 66.3888 15.0895
448.833 68.1541 15.4533
450.465 69.4635 15.8856
447.277 70.9551 16.2461
461.828 71.0338 16.2119
439.52 67.1428 15.8118
389.804 67.187 15.9048
429.578 69.5209 16.6162
417.689 66.5555 15.801
424.183 67.4764 16.6774
403.77 68.7779 16.7664
400.32 64.5168 16.1557
396.672 71.9588 17.7604
399.401 70.2987 17.6061
384.98 65.5504 16.8267
406.797 69.0961 17.7091
399.212 66.0537 16.8059
387.637 63.0279 16.3441
365.002 65.3878 17.4004
363.132 61.411 16.0775
367.587 65.3827 17.2588
356.096 61.76 16.757
358.41 64.1506 16.9961
384.802 68.1214 18.5043
346.987 69.9398 19.147
378.631 71.9299 19.9792
341.125 60.3942 16.9297
341.064 70.3269 19.9168
345.703 64.7103 18.3699
325.686 62.3923 17.7935
346.82 61.1969 17.8044
299.345 59.1522 16.9721
337.999 62.57 18.2248
303.295 60.9979 18.0731
315.298 60.3115 17.7603
324.91 67.6958 20.4091
338.387 61.5806 18.3586
310.266 62.2528 18.8395
310.786 67.8731 21.2698
313.085 65.4067 20.3775
306.083 64.4095 19.8407
340.979 66.7235 21.159
331.203 64.0046 20.0538
307.101 63.5809 20.3936
296.227 63.8128 20.5791
283.406 62.508 19.9983
304.779 64.4708 20.6947
304.925 67.1592 22.0399
260.149 56.0497 18.3614
280.341 65.8845 21.615
249.932 59.7573 20.6163
256.732 60.718 20.2527
263.238 60.0613 20.5003
274.273 64.5901 22.2053
268.084 64.7007 22.616
243.165 60.5139 21.4475
265.487 68.5929 23.2685
255.851 68.1176 23.8431
264.855 62.9142 22.7616
221.839 57.8772 20.764
264.345 65.2373 23.0759
244.499 64.0166 23.4083
234.507 61.7693 23.1067
248.919 62.6465 23.0054
238.609 61.3515 22.4958
242.265 59.6106 21.66
230.695 59.3577 22.5725
232.91 60.8189 23.1109
243.232 60.7558 23.2217
252.342 68.8887 26.0517
235.371 65.7819 25.1092
232.065 60.2864 23.2503
217.396 61.824 24.2803
219.652 62.1431 24.4257
200.216 58.3049 23.3745
233.454 64.3231 25.4607
210.433 59.8302 24.2357
205.743 60.6951 24.1296
208.862 57.412 23.4009
206.903 60.4057 24.8305
192.08 56.4853 23.3004
183.773 59.1749 24.4173
186.508 61.1018 25.326
194.95 54.9066 23.0471
199.618 62.0722 26.3652
191.507 57.1432 24.1714
189.109 56.4945 24.245
177.817 58.5338 25.8466
206.532 59.1067 24.9662
179.973 57.7826 24.5966
183.03 57.1857 25.0333
175.151 52.1214 23.4436
185.252 57.3879 24.9285
182.073 54.4472 24.6627
188.47 62.8483 28.0186
196.607 60.8408 27.5874
191.667 60.8191 27.627
201.445 59.595 26.8334
174.359 54.7234 25.2376
172.304 56.9469 27.2275
174.782 55.0896 25.2251
175.401 53.3415 25.3229
192.212 60.9736 27.9409
168.7 57.6466 26.9883
197.168 60.49 29.2347
172.451 58.6381 28.2799
183.156 55.038 26.4884
181.838 60.5078 29.4992
176.347 57.9433 27.8164
167.493 57.4221 28.8389
183.468 61.3412 30.2815
167.206 56.7049 28.2945
181.244 59.0887 29.0768
162.527 54.9456 27.914
166.41 55.4474 27.2144
163.556 57.0068 28.8758
169.128 59.9476 31.3994
165.064 56.7455 29.7813
181.719 59.3251 29.4612
166.888 54.5638 29.4556
157.538 53.2132 27.9428
165.737 55.5647 28.9979
151.066 53.2436 28.0492
165.718 59.5516 32.1467
159.975 54.3082 28.4792
152.243 56.0964 30.9052
166.15 56.3925 30.3336
160.866 55.6055 30.5152
163.775 55.315 30.6896
166.108 58.407 31.7954
149.757 53.231 29.0682
164.859 54.0811 29.9726
166.68 55.9365 30.764
158.269 54.1066 30.6355
146.483 53.6808 30.6001
153.772 52.7995 29.9633
146.611 54.5023 30.6603
148.317 53.8484 31.2448
153.599 53.046 30.2157
156.727 53.6243 31.8633
158.714 57.7947 33.44
143.408 53.4977 31.3934
157.192 58.3543 34.1129
150.115 53.4745 31.907
149.737 53.8402 32.1143
162.159 54.7124 32.1474
148.522 57.4367 35.1619
149.647 55.4225 33.4042
158.932 52.0707 30.9396
147.048 51.5738 31.5189
148.884 53.0989 32.3434
164.03 51.8425 32.2413
149.734 53.0946 33.0573
131.214 51.1174 31.8727
140.339 56.3963 35.0656
133.667 52.6904 33.2263
139.353 53.3942 34.8085
137.245 56.4886 34.2581
127.909 50.4967 32.3704
124.968 50.5636 33.469
143.322 53.69 34.7765
141.809 52.528 33.4667
125.529 48.3712 31.7898
147.408 54.0413 35.3591
130.062 51.3996 33.7741
142.897 54.2266 35.6095
135.817 50.0487 33.5697
142.454 56.9161 37.9776
138.04 49.1606 33.685
154.39 55.8231 36.7393
139.411 55.8746 38.2976
136.556 52.6045 35.2046
135.293 51.0191 35.4344
125.857 46.9429 33.1626
139.91 52.0217 34.4754
126.689 48.604 34.0613
128.313 53.1064 36.5264
133.445 51.0725 35.7949
119.968 49.5734 34.5389
126.295 52.7476 37.6429
128.623 53.8017 37.22
130.21 53.8055 39.485
126.907 49.1899 35.302
114.252 53.7684 38.9975
123.59 51.8624 38.168
118.899 50.4228 37.1143
110.899 49.9182 36.0862
114.239 50.0247 38.0982
113.952 55.8753 40.7018
113.019 52.0634 37.6885
104.408 48.7442 36.6574
99.2644 45.3806 33.9381
109.181 48.1973 36.327
111.952 51.4971 39.608
104.671 50.9895 38.1821
99.8963 47 36.6341
107.893 50.1689 37.2413
93.4123 49.3719 38.0334
104.442 45.9425 35.2987
97.5804 46.1073 36.2564
102.921 46.6486 36.11
97.5557 47.7968 37.1418
100.109 45.8072 35.9564
98.2161 48.1257 38.5982
94.9256 50.71 39.7259
89.8027 50.1622 40.0566
98.9853 47.023 38.0574
107.339 55.3028 44.3721
94.8002 45.4072 36.9487
103.798 47.6159 37.8468
94.3853 51.0424 41.6669
88.9117 49.2336 40.8761
94.6412 48.189 39.6026
91.8424 47.534 39.4959
86.1398 47.4407 40.1723
92.0449 52.8594 44.7525
92.0373 53.4195 43.6713
86.4264 49.9628 41.081
88.8604 46.327 39.3109
87.0523 44.3298 38.4627
90.5234 46.9804 40.79
93.242 49.317 41.8414
84.8302 46.9979 38.875
86.5567 51.0003 44.6658
90.566 51.2239 44.8605
82.3567 44.2744 38.6658
85.7779 46.4296 40.5162
87.5452 49.5419 42.6955
85.6913 49.047 43.0382
83.2666 49.5403 42.4509
81.5564 47.2428 42.5416
78.8855 47.6518 42.1397
86.1086 45.5729 40.3505
79.3403 44.5816 40.4077
79.1893 46.5606 42.7971
81.7893 49.7583 43.7604
82.5811 48.3963 43.6471
79.2216 43.0652 39.8507
80.7062 46.353 42.4576
79.7141 48.1574 44.2397
80.7275 47.8224 44.7091
79.0373 45.7272 42.4004
84.1182 48.0429 43.2211
81.2405 51.8474 47.4251
75.3372 46.5798 44.5997
82.7782 46.5864 44.6432
80.7224 45.8396 41.6963
74.283 43.8095 41.8157
79.5192 50.3773 48.8109
83.0634 48.8017 44.8997
73.0769 41.7995 40.9748
82.1278 48.1633 45.2981
81.5732 47.1929 47.3454
75.2119 43.0746 41.1978
73.2334 47.6792 46.406
71.5602 44.0588 43.8803
76.8763 45.9707 44.3311
77.3235 47.6473 46.5341
72.7466 43.3031 42.9076
71.3777 43.0976 41.5911
72.4261 46.4512 48.4462
74.3221 45.1077 43.5679
72.349 44.3081 45.2201
72.1111 45.0075 45.4655
71.5911 41.9782 42.8162
77.7168 49.1801 50.2263
78.7523 40.9301 41.9431
69.7162 44.3487 44.3794
75.3993 45.1956 46.0934
77.0907 42.5936 44.803
79.2597 47.4065 48.874
75.3601 43.24 44.837
73.5666 43.7286 46.3274
80.2196 46.9571 48.6324
79.8299 45.3121 46.7166
77.3339 45.701 46.9927
77.571 44.88 48.0169
71.3146 43.2082 46.2915
75.9549 42.5531 46.4237
72.1381 38.8728 42.1138
68.76 41.8203 46.9301
72.9364 46.0285 48.1351
73.7566 44.0927 45.7489
76.1129 46.1304 50.097
72.3214 45.1414 49.6689
77.3196 48.4939 52.0278
69.8696 42.2754 49.2108
69.0087 46.8373 51.1039
71.4986 46.1819 51.6346
73.394 41.8302 46.0297
75.0287 48.1639 52.4196
70.9496 42.9216 46.2091
68.2454 42.7404 47.4496
63.1011 41.4582 45.393
64.4259 44.1988 52.024
70.7598 44.1081 49.2758
63.1651 40.1739 46.0069
64.2898 43.0221 49.0282
68.4437 44.7807 50.7053
69.3958 46.2348 53.7451
67.5749 44.3281 51.9429
72.3914 45.3734 52.0499
69.2156 47.0044 54.5024
65.0251 44.2704 49.6177
68.5309 42.088 49.6559
70.5657 40.4692 48.0241
68.6265 43.6941 51.414
66.2614 43.905 52.9497
67.6646 42.6659 50.5291
65.2713 46.1907 54.6229
70.9104 40.6776 48.3677
69.6911 43.2203 50.3767
69.414 46.2167 53.7302
60.9717 42.9731 52.8465
59.6487 40.8703 49.507
69.9673 44.9009 53.3006
63.8598 42.6932 51.3728
65.7019 43.6909 53.0219
62.1226 39.1023 48.1844
63.1716 41.781 51.5821
63.489 41.9813 51.0509
61.7964 39.5189 50.677
62.8214 42.0753 53.6344
62.0048 43.8382 54.2555
62.4465 39.2654 48.5574
61.0315 40.826 51.5921
63.1486 40.4687 49.0999
59.5623 42.1346 52.9351
59.8126 43.0315 53.6123
63.8881 43.106 54.0181
58.9215 43.5302 54.5841
57.4048 41.3078 53.6937
60.3229 42.2839 55.7435
56.0604 39.248 51.6269
55.9597 41.3934 53.0024
64.9384 47.0029 59.4623
56.007 41.3976 53.4447
54.063 39.6177 54.0617
65.1463 43.6663 54.5301
58.4378 39.8891 54.1942
63.0998 45.2274 58.7501
57.6404 43.3473 56.5716
61.8763 42.6881 55.2535
61.1573 43.6027 57.5675
56.7361 43.1693 59.7213
56.9221 39.1304 50.9313
54.85 44.5749 59.8852
53.0741 42.663 56.9773
52.8291 41.2979 55.8776
57.4063 43.1214 56.96
54.033 41.3497 55.1126
52.0996 43.9704 60.4806
51.837 38.3561 52.7303
51.7521 41.0761 55.1473
50.0486 40.3982 58.1736
59.491 40.6487 53.9589
53.0393 40.8206 54.1457
55.0746 39.4088 55.8641
53.4061 41.6247 57.0429
58.7596 41.5181 58.2418
52.2611 41.2424 58.4594
54.347 39.2324 56.525
51.2367 38.7271 53.0056
49.9234 38.6485 53.5393
53.3202 39.0741 55.7478
49.5825 41.1365 56.4839
47.7204 39.9418 57.7821
48.8547 40.1924 56.1122
44.3983 38.0128 54.6463
46.8995 39.4698 57.3438
43.9084 37.9284 55.9688
47.7161 40.6692 56.4016
44.3792 39.5736 56.6749
46.9093 37.9387 55.92
45.5811 40.4432 57.2003
46.7174 39.3107 56.7365
44.8469 43.7743 64.4417
42.7838 39.8833 58.7965
46.3261 41.7474 60.9647
45.6786 41.4689 60.8392
42.1901 41.0796 59.4337
43.6534 42.5921 66.7538
41.2997 41.6057 60.8528
42.7553 38.6084 57.5271
45.8054 39.9756 61.2704
49.7037 41.7949 60.4299
43.0899 37.7022 56.4647
40.9299 35.6026 54.9282
45.2186 43.5165 63.993
40.9042 36.6947 57.0025
38.8177 40.306 61.4041
40.5085 38.0153 58.6936
44.0411 40.2479 60.2516
44.7955 40.0076 64.0434
42.9827 38.6986 57.869
42.713 37.2681 57.7167
40.7553 36.5327 57.9628
44.431 42.24 66.5714
45.3855 36.2431 54.5197
40.969 37.3568 59.9725
42.6793 40.3502 62.1066
43.8901 39.2991 58.5173
42.0994 39.5618 64.4842
43.2189 39.6692 61.4259
39.7382 42.0051 67.3083
41.9721 40.4591 63.6136
38.5583 39.0016 61.3422
40.502 38.9028 63.6818
42.7707 38.2231 61.7863
39.7649 37.4216 59.7094
40.7095 38.6082 61.014
43.5032 39.8189 65.135
46.982 40.7856 66.7579
44.6863 39.4478 61.8896
44.7284 39.958 66.0712
47.6755 43.1495 67.8995
36.3745 34.2473 56.0004
41.2102 37.3955 59.1866
40.5018 37.0438 62.4939
41.3192 37.7262 61.6519
40.898 39.2469 63.2257
40.6593 38.8609 64.1972
45.6199 39.6611 69.5368
44.0288 42.853 69.3865
40.8838 38.5634 64.7101
37.4479 37.2836 62.6372
41.9418 42.633 70.3851
46.6901 38.7711 63.7381
45.8116 39.1464 62.7677
41.0782 38.0228 64.2335
38.8352 37.8163 65.2532
41.3323 37.1789 63.8015
40.6391 36.0313 62.0568
40.0872 34.9932 61.7426
41.8623 37.1836 64.5947
42.6695 38.6631 66.856
44.1864 38.2844 62.227
37.1735 34.033 62.1513
40.6715 38.8727 67.1807
39.0127 36.6647 64.2634
43.407 36.3168 63.8071
43.1898 36.5935 62.9349
44.7202 39.8915 69.2369
44.4771 41.7761 71.5013
49.5381 38.791 65.3615
40.0356 38.1375 69.8269
42.8185 38.5629 66.6221
42.4706 43.788 78.2017
44.464 38.5157 66.1013
44.3307 37.7287 68.3898
39.2471 39.3861 71.2122
41.6086 37.4302 64.6891
42.7507 38.4211 67.1855
40.575 36.2295 66.1279
39.4295 36.4761 64.5421
38.9447 38.6601 68.9786
42.9025 38.4526 66.2272
40.3489 36.349 67.1279
41.9931 38.5763 68.9874
38.5583 36.5753 69.6179
45.1439 39.4874 70.4445
45.664 37.3503 67.6386
43.6763 38.1542 68.1592
39.8389 35.938 68.6045
39.9401 35.5788 65.7566
50.8871 37.359 70.3169
44.6033 36.084 65.0365
39.9219 36.1187 68.8443
43.2107 38.8266 75.3422
43.0737 38.5532 67.7597
41.3173 35.8543 66.8979
39.2398 39.8551 75.7599
44.386 39.3155 71.0118
38.0006 35.1076 68.1579
37.6947 37.412 67.6809
39.8505 38.205 70.3782
37.7178 35.7364 68.2415
36.1172 36.238 67.3839
34.4529 34.813 66.5031
32.4121 37.6993 71.9941
35.1734 35.7493 69.2106
35.0959 34.2417 64.9223
34.2059 36.0216 71.143
38.3738 37.2046 68.6546
33.6934 32.1141 62.7524
37.5296 39.4139 78.1396
40.3021 38.0992 70.3905
34.3515 33.0349 65.1907
38.7291 37.1672 76.1373
39.8631 38.0008 70.3552
34.5927 37.1091 76.5136
37.5759 37.5849 71.9352
36.7374 34.1799 65.109
32.9259 33.6804 64.3686
33.4703 35.5753 71.0289
35.0234 37.405 73.0401
36.6491 34.6866 70.8878
28.9467 35.9961 72.0965
34.4226 34.5105 68.0136
33.0269 34.7979 68.1193
33.7154 34.491 71.5509
34.8569 39.1725 76.7933
34.1086 34.2765 68.0957
33.2647 34.422 69.9192
33.0519 36.465 74.8102
28.2126 31.8559 65.8
36.6021 35.6819 71.3037
34.2391 37.1952 76.9126
35.9312 36.1692 72.4721
33.1532 35.7074 68.702
32.3106 33.9775 66.5878
27.8914 32.3988 69.0485
31.0685 33.9906 73.7623
31.7671 35.2546 70.9655
31.15 38.5555 78.3888
30.6927 35.8905 77.2777
33.242 37.044 75.6232
31.6619 35.5107 70.9935
31.4426 34.9133 72.1798
30.5518 33.7065 71.6339
32.7794 38.7616 78.5988
29.8623 36.4684 75.9193
28.5548 33.6902 70.154
31.2668 34.1146 68.3888
28.4877 35.3709 76.7022
29.5683 33.4328 73.5811
31.3162 37.237 77.3238
29.8413 35.3254 74.0428
28.3714 35.1402 78.1537
30.6614 37.0149 74.2791
31.3557 35.9035 75.3181
29.2884 35.1186 76.5253
30.1264 35.6802 73.2596
28.8235 35.1225 78.0885
30.927 36.7899 76.2977
31.2342 36.6464 75.0009
27.6085 31.9068 70.6691
28.8519 34.8931 73.597
27.9849 35.5456 76.4915
28.2012 33.9026 74.8043
27.9308 35.5521 77.5924
28.8105 35.0563 77.8652
27.9711 34.801 76.3402
27.6122 31.8769 70.4842
30.6543 36.7087 81.3731
29.9177 35.872 79.0581
32.445 37.5372 81.4033
27.5627 34.5758 78.6964
27.383 33.7072 75.3653
29.7832 33.2953 71.7704
27.4481 32.2415 75.9191
33.1654 36.6204 76.2248
26.456 34.8758 79.6399
29.0577 37.0859 80.6006
30.4893 32.9574 72.3182
28.6991 40.2227 91.9844
29.2303 35.6589 76.6302
27.3581 33.099 77.0089
29.4181 35.6589 82.7124
29.1751 36.6668 82.4626
28.4957 35.7125 76.0742
25.2702 36.193 80.6121
30.9896 34.0052 78.1931
28.8172 30.3992 71.463
28.1622 32.477 72.852
27.6142 32.5561 72.955
32.5243 32.5879 79.0802
31.0681 33.1583 71.4035
28.9391 35.0473 81.4217
31.1043 34.3893 78.586
30.1191 34.6359 80.6956
27.8578 35.3544 79.8043
28.6401 35.4333 80.1828
28.0719 35.5555 86.0294
31.4214 37.3957 81.6869
27.1857 34.1874 82.8454
28.5762 35.5296 80.0424
28.1375 33.3751 75.1061
29.1566 33.9954 80.4307
27.3328 31.852 79.6792
28.4468 36.6961 86.7003
30.0553 33.5828 77.4172
27.9209 34.0062 82.951
29.1826 32.899 77.8536
28.9551 32.9186 78.1552
26.5097 34.3207 77.1178
28.2815 32.5056 74.8052
27.2284 33.0987 77.0882
25.5382 31.8309 75.503
27.3001 34.3199 82.968
26.9672 32.1906 81.4381
28.6032 34.8666 80.7288
27.856 32.8658 78.2016
28.6199 32.2526 77.0466
28.9696 32.5058 80.7162
28.7352 33.7404 77.5176
26.505 30.9794 75.375
30.9849 36.2544 84.091
32.8474 34.152 83.2298
31.2931 32.8315 84.4072
26.8659 30.9066 74.0425
26.4808 32.0711 80.4481
28.4638 33.2047 77.8226
26.9069 34.8163 87.6638
27.491 33.1275 75.13
27.4431 34.1768 88.2431
28.9065 36.0512 85.1873
26.376 31.4397 77.6253
27.699 32.7016 80.5641
31.8458 33.897 80.4702
28.02 31.9489 82.6621
27.1512 33.8275 84.7917
31.3617 36.4388 82.0399
27.6261 32.712 81.6849
26.4935 33.6091 85.8678
