# pn-170911/CsIIA-39-KOKB-1280-1959.psd
# Power spectrum* (dif=0,1,2) (really just |FT|^2)
# NOTE: only the first half! (symmetric)
# weeks: 1280-1959
# 5 clock-days, 2 excluded
# PSD: 1441
54891.9 1.4085 0.0223656
3.91981e+06 43.3849 0.00844537
1.13027e+07 228.268 0.00918647
977020 42.1246 0.00883371
1.0971e+06 74.9352 0.0150453
449516 45.1199 0.0116999
742576 86.6948 0.0300709
299171 51.1262 0.0291625
142702 35.3707 0.0175718
129431 44.1487 0.0227463
133728 34.3214 0.0218429
54187.6 30.4622 0.0216128
77866.2 36.4301 0.0330872
93180.9 42.8731 0.0241941
135472 103.793 0.12015
50967.5 55.5393 0.0443317
67052.9 65.4212 0.0664193
59369.1 42.4755 0.0779633
33272.1 51.8629 0.0667599
21930.5 39.5605 0.0957082
33254.8 66.6183 0.140008
37786.8 48.666 0.109693
24556.5 57.4124 0.149659
29775.2 70.3429 0.219156
63580.4 138.036 0.36586
31793.4 62.4794 0.186132
12396.9 41.5143 0.123393
35136.9 85.1103 0.288181
28266.3 82.392 0.312868
6822.8 29.9793 0.124134
5621.78 29.5722 0.137782
22551.5 88.4667 0.361653
21128.3 77.6661 0.366968
20459.4 81.4029 0.465449
12309.4 76.5954 0.4363
8545.63 44.5514 0.258574
8155.45 38.7838 0.210109
21175.6 97.0588 0.645914
9182.07 33.4373 0.274662
14868.8 93.6514 0.702501
8413.4 50.2685 0.355218
10258.1 44.3876 0.406888
3745.02 19.4614 0.127503
11340.7 62.9725 0.616444
6958.76 36.6678 0.306033
5842.38 44.0524 0.383955
7959.18 71.415 0.724879
2158.46 13.7252 0.135782
2521.29 36.2909 0.429454
4721.21 40.8933 0.547358
1602.54 46.542 0.588735
3368.83 34.3204 0.416835
7416.23 69.3856 1.01775
9669.76 82.4565 1.0595
2797.98 28.1257 0.363211
5519.88 82.2466 1.112
3170.4 26.2669 0.366962
6017.43 99.253 1.37418
4496.5 84.0633 1.36509
3682.41 54.3307 0.901061
2919.4 52.042 0.919996
5055.44 70.1528 1.23507
3432.8 35.0058 0.60084
6031.59 80.6477 1.54176
6121.78 94.7466 1.94216
2144.5 49.2726 0.855652
3356.35 74.699 1.52776
1251.68 47.5931 1.06182
6809.98 111.233 2.43576
3271.62 52.2586 1.2866
3192.48 45.4603 1.09067
1888.43 33.5063 0.748191
1742.67 33.1713 0.887934
2457.01 33.1598 0.861389
3612.07 63.7361 1.55424
2401.17 73.2199 1.84692
2857.95 42.4603 1.11943
3285.58 89.564 2.32842
2778.66 80.0719 2.28746
2708.81 68.8714 2.1128
2710.19 71.4097 2.00016
2745.11 65.7933 1.94085
3316.37 72.2909 2.46319
1071.89 40.0699 1.20185
1116.31 39.9701 1.30576
1222.07 47.8367 1.73453
1190.21 29.3827 1.18045
3632.71 89.7594 3.1706
1382.89 43.9145 1.66639
2509.95 91.5587 3.28079
3676.26 104.103 4.00324
1985.34 61.4816 2.68488
1994.57 51.85 2.10239
1133.64 27.9616 1.04145
1416 71.5466 2.90354
1521.73 66.3867 2.82289
833.459 37.1806 1.60415
1404.25 53.4881 2.25744
2291.5 97.5773 4.54683
1340.04 53.5118 2.65611
556.501 25.6446 1.23298
1896.26 87.767 3.98557
2581.07 95.4742 4.67198
2401.61 76.5639 4.02441
737.649 34.0577 1.72243
1345.35 58.9595 3.14113
674.372 24.0673 1.22923
411.392 17.6736 0.914589
845.258 20.8423 1.22429
574.37 34.2794 1.85152
1252.57 60.7778 3.8112
823.723 47.3539 2.70484
675.284 24.9451 1.59049
1247.14 67.4984 4.00295
762.167 40.9723 2.68577
827.007 31.9646 1.89284
485.558 27.2857 1.77129
792.936 30.6786 1.89645
986.063 47.5283 3.54893
821.494 93.3541 6.18675
901.285 44.6818 2.97977
385.746 22.8417 1.51113
691.815 26.8532 1.98216
996.663 34.9225 2.32131
673.505 36.3738 2.73914
651.965 46.5198 3.40216
773.38 101.964 8.21101
1398.44 66.9051 4.77562
1136.58 52.9121 4.08347
1216.07 66.4326 5.49287
892.029 77.1438 6.3526
949.68 42.6733 3.31768
1186.08 94.8955 7.91468
547.737 36.4332 2.65314
645.247 38.4569 3.46802
398.361 47.8918 3.67091
773.911 91.2278 8.35508
991.621 70.9118 7.27011
955.617 64.5554 4.93386
595.603 68.7192 6.68138
669.091 55.5124 5.21019
625.193 33.3154 2.5217
527.679 62.6785 6.42324
843.933 48.8595 4.16018
504.321 52.1515 5.41699
864.964 77.0919 7.47287
457.526 39.8953 4.34632
486.684 34.1914 3.60286
574.1 52.5512 4.93632
395.581 25.8719 2.90356
533.362 43.2301 4.50803
382.568 14.6044 1.35238
703.699 52.6364 6.26734
387.281 52.2071 5.28448
176.107 15.2851 1.78664
754.136 62.2357 6.79903
427.027 38.5586 4.67506
336.922 21.8342 2.47957
254.058 29.1307 3.55243
660.775 50.4749 5.99833
932.536 90.7701 11.55
419.642 30.3835 3.47079
479.873 60.4833 7.1302
536.034 53.4638 6.94022
516.031 54.3842 6.70981
266.06 21.3795 3.08005
447.078 50.5724 6.36954
198.402 27.187 3.84187
448.326 36.7016 4.96431
309.608 39.3081 5.62335
394.169 63.2296 8.56672
461.357 54.7054 7.74281
280.478 49.47 7.14609
556.559 59.0821 7.78747
412.43 75.4083 11.3801
779.154 80.4306 11.2561
314.071 48.6021 7.47232
285.128 22.4685 3.17297
423.708 22.2368 2.85557
319.401 23.3717 3.29858
608.446 49.621 7.5704
373.484 39.6152 6.82321
374.248 57.5135 8.95715
526.578 40.3998 6.03057
210.435 12.2313 2.30246
770.198 91.6896 14.7903
228.288 14.9836 3.40114
325.642 54.4844 7.95897
215.476 45.7772 7.87699
618.753 78.729 12.8559
320.591 47.7386 8.2186
195.216 39.5799 6.71179
188.888 44.7178 8.35687
284.907 42.8709 8.16437
507.123 56.7813 8.87679
323.069 47.3467 8.11101
474.22 88.8145 15.7529
161.812 20.4264 3.82101
136.476 22.3272 4.24841
151.295 20.2581 3.87978
210.882 38.1356 7.67932
236.202 29.0845 6.90894
586.011 72.8972 11.7735
144.113 25.5925 4.51054
344.377 48.6111 9.31558
88.431 25.8127 5.24849
228.392 52.124 10.9016
192.155 51.5897 10.4439
264.374 44.2523 10.4443
613.543 78.3628 14.6419
236.747 31.1741 5.86161
440.248 67.6541 14.1729
500.239 63.5113 13.6948
474.423 56.5538 11.3055
228.17 32.5673 9.0115
341.295 37.9689 7.23682
311.871 47.6245 10.438
300.069 40.6858 9.34527
251.89 56.5397 14.4632
398.26 76.7292 16.3213
220.241 56.1891 12.3685
188.613 18.8138 3.70532
75.1341 21.5993 4.46577
128.658 19.7588 4.7544
187.856 24.8162 5.31124
193.371 36.9484 9.07713
157.274 36.0283 7.4567
370.427 88.8611 20.8449
96.5228 23.2533 6.14083
389.384 52.7777 11.2601
249.011 40.5749 10.6488
169.26 50.4194 11.5254
263.79 43.0823 11.9137
204.96 47.9919 13.6575
185.777 58.219 14.1331
257.168 40.6301 9.40598
380.312 68.7474 17.2015
159.565 41.3256 12.8165
176.081 32.3944 7.27433
180.286 32.8694 10.2357
274.61 43.1418 11.8537
228.384 47.2894 10.8227
276.734 60.3418 14.8738
61.4747 16.4462 5.08022
250.771 56.7395 17.7847
114.424 25.2205 6.38746
103.3 19.7627 5.55225
108.162 37.6425 12.5718
128.433 23.3333 7.5876
338.075 66.256 19.3904
121.692 14.8086 3.37857
161.067 41.0878 11.3354
65.0482 43.9817 13.3418
159.029 29.2961 11.0065
299.087 71.9534 19.973
169.523 41.9727 10.4859
148.469 44.8692 13.8667
65.6379 28.8991 10.3858
233.67 43.3939 12.6191
95.1042 23.6144 8.38718
154.722 35.4245 11.3655
164.335 42.6057 12.7354
133.163 44.252 14.0609
191.051 29.1417 9.1462
96.3397 33.4274 10.7121
152.924 29.7865 9.14365
133.544 35.219 13.7926
185.797 53.2119 19.0648
95.2612 21.807 7.99222
79.149 14.9578 4.73974
119.084 35.4528 14.2564
105.573 23.2581 7.62974
211.082 40.6544 11.8596
241.314 54.082 17.4959
123.552 22.5477 6.12801
140.203 22.7391 7.86764
201.78 43.343 15.8138
90.7658 22.8342 7.14695
138.291 30.9687 8.87463
239.989 83.7061 33.9471
159.133 34.0973 11.721
168.581 35.161 11.1116
163.146 37.2759 15.0878
138.218 19.7533 5.56575
161.961 44.7902 17.3293
182.447 47.8836 14.6394
162.273 42.134 16.8391
109.319 41.9446 19.081
217.657 58.7207 21.0786
103.169 19.6491 6.99811
118.649 39.0167 15.7055
74.8602 14.1628 5.44658
138.94 53.7493 21.895
170.244 49.7634 17.1078
143.865 43.4814 18.9365
41.2798 11.2857 6.26734
91.814 43.5781 18.2737
142.158 29.2218 11.2354
86.0826 12.3021 3.82984
129.448 30.755 11.8445
143.346 25.4445 11.2573
99.409 25.9755 10.3778
122.068 34.1787 14.4394
61.2441 25.0676 10.3177
253.35 86.8843 35.0222
125.13 35.841 15.3942
87.0395 24.6994 12.7379
113.529 50.5442 22.7197
139.011 32.3689 16.5341
100.052 46.02 20.2789
91.0394 41.7128 19.8233
154.826 43.7895 15.973
268.005 94.0931 38.9455
82.7579 38.2497 17.434
109.274 55.7934 31.5475
130.108 57.4661 21.4827
105.721 31.476 13.9905
67.7205 19.1193 9.07601
81.8767 16.2055 8.14052
124.474 45.5822 23.2089
207.085 53.7259 22.5587
28.1155 11.8052 6.26084
181.375 62.8031 26.9292
89.459 23.0593 11.8507
154.635 69.5446 31.6337
125.203 28.6018 11.595
97.9074 30.9704 17.7552
86.5884 25.1333 12.4234
148.139 41.369 16.5637
90.6307 37.2227 22.703
198.39 67.1728 26.7157
76.6525 41.7546 19.7463
69.7241 31.2426 18.4643
74.3033 22.0488 15.2616
143.282 42.4242 21.8194
116.787 40.4406 17.4004
202.518 68.2879 28.8578
109.08 46.348 24.6267
185.394 75.9643 44.3336
51.8202 35.3315 20.3992
69.628 31.4378 16.1996
64.068 36.8637 21.1707
82.2984 32.3743 21.6652
34.6419 25.3137 9.34392
34.0496 23.3205 14.2148
25.5304 12.2691 6.50233
95.5257 45.9972 27.23
56.5316 6.21943 4.29147
78.1457 19.025 7.4119
66.1383 24.2259 12.1025
41.2414 15.5771 8.89014
161.936 75.3286 41.4436
48.1877 28.887 21.4512
53.2725 14.507 6.82583
51.7753 17.5937 12.6701
84.5856 32.3023 13.9176
63.8187 24.9521 11.9656
89.7406 42.3823 28.6568
90.5628 45.0669 22.9634
93.6349 42.5697 25.4774
75.3993 25.9644 16.4676
57.3036 15.1392 6.06971
101.339 35.9676 22.2107
46.0658 26.5884 20.3706
123.311 64.9141 37.6993
63.3507 26.2923 20.2346
77.4824 31.6934 12.4155
86.1533 43.5507 23.1086
74.7947 47.8149 29.1821
57.8382 41.6636 30.258
32.1288 10.3044 10.2149
87.0829 26.4326 15.5975
48.6705 10.9341 6.53665
78.3479 20.5321 13.8868
98.8 42.3018 25.7665
100.418 23.6323 13.2601
121.248 57.7676 37.2169
65.947 29.3919 17.8517
34.835 8.28438 4.80403
68.7151 24.9658 15.9327
25.3263 11.3618 8.43642
38.0763 27.8172 17.5823
36.0271 39.1245 31.7439
89.2201 37.1095 18.9702
42.349 26.3405 17.3198
73.9718 33.2949 27.5862
68.8899 24.0434 14.3026
46.9864 16.9534 10.5798
76.5541 34.8204 25.9298
65.2471 51.5867 33.2098
63.0127 33.9432 19.7279
37.0872 16.7118 13.5179
39.6184 16.9101 12.2636
88.7177 48.5726 32.73
66.7976 22.4965 14.0124
53.591 26.0667 17.959
43.9687 22.795 13.287
31.3516 19.8717 13.2593
65.4187 21.1088 12.1141
33.839 17.7274 11.492
73.4327 60.6619 44.9622
68.1303 36.6045 27.1967
62.513 34.8501 26.875
32.3199 24.684 19.6897
70.3558 34.0788 25.8809
98.2353 34.7841 21.0249
30.1481 12.8025 10.072
52.7421 27.9262 21.6345
123.317 95.309 67.1931
31.9773 22.8432 18.6113
66.0635 39.973 35.3611
42.3504 11.7927 11.0436
71.7191 19.8975 11.4646
47.047 28.2072 26.4174
134.608 65.1987 42.8516
53.7999 39.3643 34.4441
19.0308 10.5952 14.1582
68.1159 44.1946 27.6719
97.1608 40.7593 28.3235
19.5238 6.83778 6.77886
28.1116 15.1608 10.6155
72.7662 37.9466 32.9218
120.565 82.836 54.8186
61.4225 43.1902 42.2907
50.106 25.8558 22.1101
42.3578 24.9622 27.4957
21.7981 7.24166 12.0964
119.917 62.9327 37.2471
28.7868 15.4682 13.4414
39.6568 32.0239 24.442
29.6173 4.41368 6.57849
52.315 20.4034 14.0543
17.1311 9.06444 10.3108
39.9455 23.8023 18.6057
10.2968 8.48543 8.00036
34.7368 16.135 14.3321
36.9432 27.8568 27.7184
55.0418 32.8175 28.095
77.1529 40.3498 31.8198
24.1978 9.28441 3.43041
29.6886 31.0499 34.8613
59.1902 28.7377 16.6988
22.6706 17.3768 16.4734
56.7829 35.7745 32.617
40.5772 12.1881 8.76519
41.8888 19.5323 16.9855
17.1405 14.2202 17.1401
31.8038 15.0409 15.8385
53.3714 27.6829 21.744
40.1437 19.6029 16.2943
66.168 46.2442 33.798
28.1813 39.7352 35.916
19.9849 8.02233 8.94955
58.8117 28.8563 23.6384
26.2376 20.4286 20.3216
42.2616 27.0757 27.7315
21.3878 12.6559 16.9415
57.3029 24.8228 17.3474
31.5221 11.8401 12.0674
58.5673 37.8239 38.4961
56.3305 38.1154 49.8644
81.7007 49.9556 34.0805
23.4885 9.06689 3.70224
45.3337 19.2196 13.8454
28.4495 15.0686 23.25
17.82 17.0413 10.9589
12.7904 8.85917 9.23128
47.4862 36.1609 30.7011
64.7697 41.4136 31.9718
40.5202 16.9985 13.7247
44.9016 30.4989 31.1068
46.5729 20.6831 19.5372
22.8528 9.55119 10.6377
39.1344 35.7596 38.4806
11.9515 14.8726 15.152
40.9473 37.6267 42.1033
31.9899 15.9737 9.44646
5.99146 16.6002 15.8493
27.2107 23.6723 18.6051
34.0873 35.1213 42.9027
56.8056 30.2807 20.5021
38.5216 34.3908 42.4395
36.4438 20.6092 19.0156
29.8387 27.0059 25.4206
25.5769 13.5203 17.2534
34.1932 24.9661 31.021
56.7348 27.2623 24.2882
23.3316 23.6208 29.5817
38.1983 5.29812 6.5563
46.8216 23.2777 17.4143
29.4774 19.2856 21.5864
49.0704 20.0471 18.5012
34.8949 16.4643 23.5751
77.5034 41.769 33.4764
21.0095 25.2744 25.8738
20.9099 17.6412 25.7805
32.4934 7.69274 7.6121
38.0479 36.1069 33.2124
32.0532 11.4167 9.4818
12.0766 12.1942 14.4582
17.7009 5.90566 7.86556
14.724 10.0559 10.5452
14.3688 9.47524 10.9981
54.5339 24.6843 13.5427
57.7621 51.0189 47.4446
33.2381 36.7197 45.5713
35.7719 35.8884 50.6676
77.0186 71.0159 65.669
20.4847 8.05761 9.02763
30.5356 24.6464 32.373
37.243 10.6034 12.5846
29.1194 10.3165 8.56178
18.5882 12.0542 18.6767
27.2174 18.0262 20.3965
27.0248 18.9265 24.6284
26.4272 21.1301 17.1918
36.3277 17.5928 21.9114
39.3772 40.9964 47.2025
37.2652 29.4858 45.2555
25.9116 14.3758 10.0833
59.7898 53.643 50.5437
61.5561 66.0201 84.9146
10.4673 5.23748 20.225
32.922 37.8199 34.0313
23.4442 15.1593 24.4687
17.0184 18.8542 27.0068
45.0311 15.327 14.033
29.4269 34.1051 24.8325
18.0357 19.1785 28.1261
28.0097 20.7194 32.298
63.9534 50.5369 41.5989
16.191 13.222 20.9551
17.7862 7.20056 18.287
37.0499 25.4372 27.1108
17.4021 12.104 17.5749
14.201 14.7951 24.9315
28.0422 24.0266 36.3804
25.7464 18.1888 15.6626
24.2061 32.6218 45.1768
50.1335 32.4721 30.9153
26.6442 29.4413 31.7203
23.565 15.9836 18.8254
11.3937 9.97234 15.6593
8.79564 10.7552 14.0522
52.0999 67.26 60.6634
22.6844 54.633 100.012
52.0092 29.9545 27.7383
19.6845 17.9459 24.1741
38.9049 28.9526 43.9576
34.7412 27.5776 27.8868
11.9106 7.64242 11.1261
24.0321 20.3589 29.595
31.4473 15.286 22.1118
26.0073 19.9975 28.5342
28.7032 13.0188 10.4635
13.6299 10.8884 18.4822
24.3379 10.9481 8.82807
30.9438 13.3161 17.3155
20.353 8.86026 12.4865
29.7426 16.7296 20.062
22.201 27.9422 41.4581
24.635 17.4297 16.6445
9.57281 9.42026 16.5807
14.7677 5.48034 11.3706
29.9272 19.6211 23.3235
32.5831 18.7108 21.6149
24.1865 26.0593 39.6343
17.8208 10.1245 14.3823
20.5029 11.2083 9.37425
20.9444 27.5887 36.7153
21.2296 15.1649 17.3472
7.51318 4.08947 13.7402
37.9174 32.3983 35.6291
34.7017 34.5314 44.8555
11.02 15.839 24.3922
12.831 12.8228 24.2944
12.4885 6.77698 14.5839
22.4172 10.0509 15.7874
27.0946 20.6456 16.7104
21.6931 19.6324 35.7047
15.6002 14.8328 23.0495
35.5171 22.1441 20.3327
23.1447 21.7527 33.4058
30.3913 20.2242 28.2227
23.8862 13.9004 17.8174
13.9344 7.98326 11.3862
9.97731 19.5441 29.9952
32.9233 30.6625 53.1582
23.3892 15.0559 10.6382
18.6771 10.7207 10.9546
12.3048 7.80517 17.7943
24.3614 16.155 18.1312
6.75873 5.85863 11.1436
23.1092 17.0646 32.3113
17.2052 18.5222 16.7775
24.4481 27.3075 37.9147
14.2784 4.56764 9.14953
29.6013 15.307 21.191
16.3304 11.9397 30.516
23.091 19.7645 17.7766
16.1292 27.1232 36.2376
11.4401 6.98846 8.7775
12.1857 18.2757 41.4428
30.3844 20.4618 27.3631
26.6263 9.36621 9.13814
17.7566 29.5573 77.2686
44.5358 27.2951 15.7332
34.7776 43.3184 50.1852
11.6471 8.83316 23.304
24.8297 24.5988 31.4957
16.4287 13.3256 32.6435
28.2451 12.2045 28.8121
24.9515 17.9441 15.8775
14.1485 16.3139 30.2471
19.3876 10.1093 10.5523
15.9209 13.1203 28.0308
47.2977 36.8271 41.0604
25.6937 19.3861 22.7533
12.8438 10.9235 22.4603
17.8119 25.4428 35.438
11.1812 8.07464 23.1053
39.6641 32.4255 36.171
26.2226 38.2889 70.0385
29.2849 30.8142 50.7869
43.4944 45.6123 63.3825
11.4929 7.65229 10.7159
14.7058 21.5229 41.8671
20.0348 13.4028 27.0228
35.0245 27.6524 33.5818
19.2317 8.92566 18.009
14.0104 14.0285 17.7488
27.5778 24.1355 43.5331
23.0036 26.4515 39.2243
14.7562 18.5145 39.6388
18.2777 31.9399 56.1187
17.5652 6.14765 11.8574
7.92446 8.5357 16.5656
16.0363 6.54998 13.4053
22.8372 16.4602 13.5148
15.4083 14.4034 25.5531
26.5025 15.3836 22.131
9.71658 13.2312 29.6372
20.2222 39.1127 62.8066
20.8295 11.7985 17.5574
17.2541 13.0881 19.8779
5.77038 11.7821 26.3448
24.9741 16.7647 17.1318
21.9525 23.4099 45.9947
11.3724 6.05233 9.03783
19.3799 19.9571 34.6737
8.71808 5.78308 13.0876
21.454 20.464 25.5654
11.9552 8.17999 24.6273
22.9023 15.989 18.9021
18.5904 20.3616 36.3011
9.6561 7.55015 14.9214
9.3177 8.12241 18.5152
8.57713 10.4291 29.8709
27.2207 42.1024 61.8956
15.2377 12.7927 29.1458
21.6468 37.6928 70.3903
29.5268 33.402 61.7526
25.6306 29.4654 42.1013
8.35943 8.91732 34.5472
17.7213 21.14 14.3845
10.0244 11.0433 15.2801
14.1633 7.29578 17.8276
7.14402 7.00473 9.90429
15.0716 12.8875 34.2708
11.7209 12.5458 16.5864
10.2387 13.7167 11.409
14.37 11.2753 16.1122
20.6728 43.5335 85.6523
16.1204 5.92065 16.1545
10.8015 13.0008 24.7446
10.9698 14.7177 30.2514
20.4461 20.5334 45.0253
14.6396 14.7512 20.9081
21.7004 24.9041 39.9815
18.9745 29.9586 47.6223
10.0346 8.66796 31.0242
13.6848 6.70091 9.66696
10.7161 5.70222 16.9769
10.7091 14.5179 14.4261
10.8686 9.82934 16.7319
18.2611 11.942 24.5527
16.1691 20.5252 39.159
10.9296 16.5935 24.9057
8.54101 4.12928 14.2226
11.0441 6.34823 8.96205
16.1041 25.2046 38.3292
11.1531 17.2366 32.7362
14.3218 13.5228 27.1004
6.37663 6.49305 22.0438
10.3304 9.16338 20.4422
21.8992 26.5822 36.1471
15.7366 10.6268 19.9639
9.49288 5.34415 8.38331
13.3255 16.1845 34.1798
15.5931 14.1884 27.9441
15.3327 10.2675 24.647
14.9311 27.4263 42.2144
12.2208 18.089 35.4179
14.4318 8.41821 15.8148
16.1615 19.083 32.6666
14.0931 15.293 37.1051
18.1198 22.2922 25.972
8.18409 7.82889 21.9041
16.0718 18.3418 26.3599
17.5424 43.1188 58.8528
15.938 28.8917 73.5564
13.7693 24.1905 41.5932
9.06232 16.2332 54.6732
17.3543 6.06115 11.6056
11.4834 6.45273 15.6411
8.52833 5.38973 11.4032
9.42648 10.9094 23.1291
16.0824 23.8947 56.4046
9.98075 9.89106 32.2906
15.3354 12.7931 16.2964
9.50394 11.2261 23.0479
9.65321 9.43035 42.2649
20.2788 15.9951 20.8662
12.7664 17.0933 37.2851
21.3414 17.7614 24.0387
12.3519 3.35537 12.1563
13.1994 14.1899 25.1699
23.256 31.7444 52.6735
10.4972 7.91408 19.9921
22.482 42.9353 75.1084
9.72321 1.93764 11.5018
11.6811 25.7409 59.7773
18.8774 14.9373 18.4695
17.0871 16.3475 28.6193
11.158 16.9962 40.543
8.26784 7.95954 32.6673
17.4483 17.3477 42.2078
18.6944 18.6601 28.3735
8.9967 12.4834 23.0232
9.74109 17.6113 31.3928
15.6436 19.6261 25.0364
11.2889 40.4791 108.856
22.4026 11.3878 13.6458
15.9267 12.2103 21.2812
12.6964 12.2756 28.9532
11.4528 6.40149 14.323
12.3367 10.4145 29.7387
18.7282 20.343 33.5529
5.94929 9.10138 31.7645
10.5502 9.49327 29.6177
24.1281 32.9883 44.7585
8.31742 12.0963 22.9183
10.3957 12.8756 37.4465
15.2023 11.377 17.9034
12.1112 13.5379 34.7503
8.1974 9.84327 28.436
9.11949 9.40187 22.7919
11.6452 8.41123 18.7792
10.9932 9.14102 12.8675
9.58805 3.46695 15.7653
12.1033 16.1327 40.1305
11.7275 13.6456 34.4257
13.2524 9.29972 18.9987
14.209 11.9477 45.8488
28.8705 43.9237 49.1814
8.02788 4.66439 9.99984
14.1244 29.1955 78.1082
19.8541 18.0201 29.4488
9.53527 15.7787 84.0902
22.5432 26.3929 19.5813
4.13396 9.10282 13.3854
8.75177 4.86015 11.5028
10.141 8.15313 24.8065
14.7196 20.2618 28.4051
4.21756 6.9739 26.3203
7.21731 7.33243 11.5566
8.14739 7.79056 13.0194
6.8586 11.0425 33.4816
13.7475 13.1557 36.4652
16.8508 21.6898 47.0429
14.4515 13.918 27.0098
7.77429 11.8868 16.6383
6.27487 10.2579 34.2951
10.3426 8.56311 18.3735
8.64997 15.4052 34.9096
12.0911 19.35 48.5544
14.8508 11.9005 15.9535
9.0824 18.2502 35.456
7.90072 18.9376 74.7038
19.8496 28.9198 42.2454
7.97479 9.159 23.2619
4.80267 6.22782 23.5585
11.0354 9.95464 33.6353
18.4889 26.5727 42.2184
8.26713 7.9621 20.898
9.05312 14.5409 45.8246
10.223 15.6572 25.9054
7.77546 9.57034 36.9903
11.5457 7.69782 14.237
13.2107 29.1096 85.7322
19.8654 18.5874 27.4939
8.97526 4.60143 12.2881
8.37996 4.68644 15.7346
13.4829 12.7897 15.3773
10.2847 16.6768 35.7624
4.74419 11.414 37.6658
7.81716 6.28652 18.3269
9.89129 5.14541 28.7135
11.69 12.2278 17.8714
31.0824 71.1111 101.473
3.92454 24.8471 77.982
8.48636 4.82272 9.46261
10.1246 7.83384 22.2934
6.93793 11.77 47.7077
7.88525 8.22239 20.8397
7.43327 10.7263 27.4574
10.1108 10.8485 26.5117
7.19064 10.8776 24.2943
14.227 13.6083 28.0872
11.594 27.4641 53.299
5.4776 5.2431 21.5886
11.1267 9.71893 14.0555
5.34564 7.07339 24.7119
8.88271 9.16635 29.3867
13.0259 8.45114 13.3912
7.73012 9.53035 27.5921
9.85986 16.1003 43.3231
4.75699 6.90092 29.1154
9.20198 38.2789 112.379
22.245 11.1748 15.3055
7.61584 8.74334 35.3079
9.60715 12.649 44.0367
