# pn-170911/CsIIA-33-WTZR-1280-1959.psd
# Power spectrum* (dif=0,1,2) (really just |FT|^2)
# NOTE: only the first half! (symmetric)
# weeks: 1280-1959
# 5 clock-days, 0 excluded
# PSD: 1441
108797 0.404901 0.0310904
874654 10.5568 0.0180328
1.16503e+07 313.398 0.023565
1.67167e+06 47.0152 0.0262219
662932 28.1997 0.0199986
477968 57.0427 0.0165938
307794 27.8355 0.0234633
156037 28.0118 0.00954712
264993 39.2903 0.0397301
210516 39.3624 0.0264484
87997.2 30.4788 0.0368032
89579 43.6149 0.0391029
39168.6 18.8447 0.0450833
85994 57.1987 0.0678964
85418.9 49.1853 0.0446869
47993.4 38.6289 0.0418834
59007.3 56.9934 0.087443
30810.2 44.4945 0.0881944
15757.3 44.0784 0.107461
20918.3 30.7581 0.0379896
21555.7 22.9856 0.072593
38397.9 76.5877 0.129322
49852.3 65.3449 0.150121
17330.8 20.7033 0.0755316
37905.9 75.492 0.236034
10246.7 32.0837 0.0727244
11724.7 25.0486 0.100379
10526.6 19.7441 0.0784711
9360.48 27.143 0.0859696
24774.2 64.2802 0.239299
19591 75.017 0.305214
12044.3 45.6835 0.278987
10168.7 41.3703 0.273364
8615.47 25.4142 0.168134
10500.3 48.4246 0.306148
24225.5 125.197 0.853567
8618.29 69.9696 0.491826
5521.12 27.7342 0.127718
5289.3 26.2949 0.154666
11492.7 71.9753 0.579976
8244.04 54.4836 0.538798
2216.51 10.4875 0.119237
4169.91 28.205 0.308512
9014.92 47.8197 0.421891
7611.81 48.8998 0.471763
3838.71 46.5665 0.397808
4729.62 46.884 0.489295
7306.16 54.6025 0.647733
4642.41 23.8941 0.263161
3145.13 31.7226 0.373431
5499.19 55.5102 0.786196
2867.36 23.623 0.328227
3572.66 36.7773 0.540299
2065.58 25.46 0.323538
5059.96 54.8259 0.762122
4984.27 44.9736 0.661852
2471.79 42.4798 0.755276
2340.63 22.7551 0.309246
2798.51 36.4087 0.657012
3131.08 37.8616 0.526263
2375.96 36.1231 0.702585
4416.38 52.6273 0.914859
2776.23 56.0512 1.12462
2573.56 29.5757 0.52892
2226.98 31.723 0.639795
846.431 12.9436 0.328993
2957.97 43.6267 0.931179
825.531 12.3244 0.390699
1392.42 15.5438 0.395794
2737.73 45.5415 1.00137
2392.7 35.8414 0.738079
3296.43 91.5892 2.16454
2439.66 27.1217 0.685202
1785.61 29.0903 0.692354
2894.25 62.8398 1.82204
3404.63 59.2321 1.31192
689.313 17.3024 0.509394
3147.57 76.6087 2.00516
3251.82 63.933 1.69812
2950.87 60.131 1.79481
3108.15 59.8877 1.84434
1836.55 43.1171 1.44933
2041.65 46.2793 1.52073
1812.62 48.3172 1.5177
976.348 20.691 0.734877
1553.37 32.3747 1.20946
1317.15 29.7747 0.995471
2072.77 50.4158 1.6663
1379.82 23.9334 0.805259
1816.05 44.3216 1.53398
2186.79 55.6126 2.07254
640.646 14.7758 0.625699
1404.76 34.2918 1.47149
2189.1 78.245 3.09213
1589.92 65.3141 2.8255
719.45 27.484 1.26737
1066.92 17.1173 0.697982
971.48 25.669 1.12799
1433.23 44.0043 2.02221
896.642 32.8877 1.57157
1644.32 66.1849 3.14034
1508.33 43.3379 2.11259
2268.84 83.488 4.05763
1488.34 38.6326 1.77292
1820.86 75.165 4.15423
1222.48 56.8645 3.17295
1925.97 88.4867 4.90554
787.462 21.4351 1.12879
293.245 23.2656 1.5195
2508.14 103.202 5.45934
842.784 32.2046 2.02764
274.254 18.4179 0.995674
574.299 23.4193 1.3459
684.227 31.5765 2.02579
1118.1 45.4387 2.6971
970.411 57.8922 3.43462
1209.13 44.9794 2.92748
1005.99 75.7026 5.0329
772.162 38.9331 2.55648
912.545 50.1033 3.11024
613.157 22.8742 1.53522
922.206 31.5901 2.17076
740.075 32.2324 2.44183
602.257 39.0794 2.92534
634.097 29.9284 2.2689
122.524 12.9521 1.18963
1291.74 53.9665 4.31865
520.553 30.6819 2.13821
1213.72 64.2966 4.80021
478.129 22.9905 1.82619
350.767 12.3607 1.30188
1216.55 77.74 5.6865
330.571 28.8356 2.40256
571.146 21.8771 1.99046
426.032 21.1767 1.94112
313.416 16.6222 1.54537
1067.14 63.9054 5.6788
246.665 28.0091 2.68824
1423.33 85.3589 6.7445
640.426 53.3235 4.93201
625.461 52.8457 4.55175
712.198 47.2835 4.59128
387.629 42.9847 4.29959
330.324 27.8789 2.99481
418.838 41.9251 4.5766
738.779 51.3085 5.00267
307.8 21.9594 1.90536
519.259 57.2211 6.0854
296.577 21.5236 2.05651
642.375 41.2346 3.94962
596.96 48.8862 5.04319
499.565 39.658 4.75442
359.65 37.349 4.47443
472.718 55.4152 5.65194
472.891 25.6137 2.58882
589.139 56.1776 6.19322
638.826 58.172 6.76098
191.531 16.1428 2.46557
691.986 55.1928 6.34922
463.239 54.0705 6.78266
363.61 41.1668 4.95424
312.967 42.7256 5.34335
291.163 32.6281 4.20676
384.426 46.6537 6.18489
510.359 51.4898 6.289
482.157 30.873 4.10806
337.977 42.1603 5.75502
338.925 36.3419 3.91324
944.975 123.296 17.0765
389.814 54.284 7.99081
391.355 27.9492 3.26254
521.764 72.3472 10.1131
407.646 52.7697 7.29687
173.503 25.3085 3.45368
719.438 63.709 8.94582
514.977 50.8313 7.32453
451.03 46.8317 7.29344
487.445 58.0022 8.06682
301.256 51.1405 8.04399
882.837 116.829 18.6742
411.676 37.6707 4.89349
526.02 42.9797 6.13687
330.319 34.951 5.22348
283.225 34.7116 6.4006
569.096 80.1889 13.9079
222.09 26.3998 3.87997
444.32 51.8025 8.04363
318.361 59.4248 9.71606
142.002 32.1217 5.51549
509.179 55.9118 10.0654
349.133 22.977 3.69711
427.811 54.7711 9.04651
324.564 32.3514 5.42693
253.757 57.3522 10.0705
311.928 37.5579 6.36197
175.812 44.2207 8.1728
333.989 30.9738 5.35266
325.72 49.7345 9.78177
257.734 32.0923 5.79981
442.468 65.9979 13.5037
178.607 25.4801 6.20218
422.589 43.9241 7.13425
473.388 48.2268 8.97454
267.244 39.5376 8.46662
234.219 37.5728 6.84342
358.962 41.9923 8.31397
284.751 38.4875 6.70655
414.861 62.1701 13.1008
466.524 57.0969 12.8357
248.214 54.3907 11.7155
326.813 43.8147 7.71053
253.045 56.7135 10.6571
233.647 31.2314 6.87655
205.853 26.9115 7.3382
308.428 38.49 6.97994
70.2035 8.45119 2.037
359.859 57.6381 13.8362
205.62 40.7798 8.31123
440.424 65.795 12.1905
365.948 63.8624 15.0421
339.69 65.3674 13.9618
359.788 77.0894 16.8152
226.606 43.3054 10.6372
174.98 21.9787 5.40299
126.172 19.9011 4.46851
177.16 49.7494 12.9152
195.349 29.2296 6.2006
283.662 69.6329 16.9619
205.609 26.2044 7.01541
176.462 18.3091 4.01829
218.287 28.3396 7.32555
200.633 30.3756 9.01774
251.14 44.5901 9.60057
135.689 25.2 6.70956
171.939 30.3151 8.06794
277.307 48.0487 10.6903
137.239 18.9786 5.18121
318.188 69.5236 17.9692
178.042 39.2257 11.0147
81.606 48.0942 13.0016
99.5523 21.4276 5.46979
140.918 37.8023 10.4541
306.026 61.179 19.0834
249.272 63.0315 15.2104
149.735 51.3495 13.9245
252.279 42.9545 11.8531
166.129 46.3995 15.64
167.459 24.6173 5.96932
219.477 34.3827 10.1024
119.355 20.0493 5.34081
103.445 17.6099 4.60875
85.4703 9.3746 3.26165
194.004 28.5411 8.83573
293.873 96.8489 26.5997
263.024 64.4843 20.8045
214.714 42.9317 12.7304
247.159 48.8167 16.1324
202.411 35.3147 8.66274
60.379 8.4742 2.55328
256.623 43.8563 13.8498
205.892 53.5968 17.4471
322.77 65.8455 21.3404
299.343 82.0979 23.8858
154.107 32.3853 9.62633
134.015 22.1265 8.2925
209.182 51.1652 14.11
78.0093 26.1451 11.5212
385.467 84.1322 26.6999
115.698 34.1657 9.47986
65.7155 38.9048 14.4627
185.5 34.4595 11.5537
129.126 22.2103 7.31327
170.396 53.4485 17.9851
232.776 53.6627 18.0256
46.6105 12.5443 4.72081
194.591 36.0531 13.059
92.0678 32.4231 12.2581
389.858 99.9598 32.6898
91.8294 15.9273 7.50704
304.439 91.5564 29.9299
168.348 46.8825 18.6046
116.462 28.0047 10.7349
99.6898 18.4099 9.02646
60.0661 18.3706 5.00589
91.0537 28.1481 12.0916
214.538 69.9545 25.8307
167.679 54.1672 22.3669
228.458 75.3974 23.7034
55.2669 19.8138 7.37838
54.4234 17.233 6.78683
109.481 22.5995 9.67978
123.673 49.7197 15.6196
66.3882 25.5723 10.336
131.732 75.8541 33.4863
178.055 61.8049 24.2794
106.998 20.6707 7.61682
73.8167 14.7461 5.12443
83.874 25.8328 11.7661
37.4107 15.9044 8.55177
56.4663 19.0097 6.55226
280.795 103.501 41.4844
85.2737 31.2035 12.6003
109.809 42.0579 16.3702
49.2752 13.8788 6.91114
146.889 37.8125 15.746
38.2321 13.6838 6.54526
64.6737 14.7197 6.06789
151.95 74.3558 31.2768
41.9712 23.6234 14.2315
160.241 34.6027 12.3212
136.307 37.2791 14.3265
97.4435 24.2022 12.3397
170.374 40.9814 16.9613
148.67 50.2589 22.6376
86.7502 17.1724 8.86168
68.4512 23.962 10.7943
94.9794 15.4665 6.36071
81.895 29.7501 12.4895
105.228 52.4521 25.4625
59.3203 29.3403 15.0778
85.1082 16.893 7.9743
125.761 48.3138 24.7141
83.761 32.2194 13.8621
136.84 41.9212 20.9334
202.76 64.719 25.4365
56.0189 34.4762 20.0274
139.41 42.8706 20.0343
65.4345 49.1007 24.9853
44.1295 21.1318 9.55782
77.4052 37.0784 18.2593
56.5198 30.7783 17.0271
110.084 30.8167 15.5561
88.8263 19.6815 10.5928
84.8159 31.4427 15.4639
29.7292 14.1383 8.10727
49.0592 29.3468 15.6133
80.093 27.7515 13.7076
69.6439 18.719 9.96293
59.1332 39.438 18.8815
69.9378 25.2209 14.1465
140.39 25.257 10.5718
70.7543 22.1291 12.975
89.8071 30.3817 13.8729
152.344 69.5523 35.3029
56.8433 35.2477 22.8931
71.2141 10.6452 5.1998
89.1174 38.602 19.5431
81.0893 27.7443 16.03
30.714 24.1626 14.0115
51.0538 13.8719 6.62103
71.1073 20.9159 11.594
40.5733 19.4238 11.8268
96.8089 42.1615 28.0939
39.6284 9.49832 8.41881
136.754 36.5094 16.5585
111.444 54.8438 33.312
129.356 51.6124 26.3533
90.3899 56.5982 34.4804
110.465 32.1345 16.2593
41.3493 10.0545 8.72206
59.3165 17.9312 7.08385
103.464 59.3204 34.1896
74.9552 36.3355 25.0066
26.1944 12.7296 10.3117
76.1691 15.3544 6.43172
53.6987 22.5306 14.9871
24.3573 36.1359 24.5026
132.752 45.4491 26.9334
66.4161 51.5601 28.5925
172.564 65.7137 37.8718
37.8144 17.9439 11.2522
56.902 25.4375 13.6767
61.7721 18.1894 12.707
62.2539 22.7808 15.6412
70.685 20.2864 8.50236
80.3864 47.7803 31.5139
21.2113 9.79503 8.03415
23.2384 19.4152 20.2555
126.559 56.4783 30.6296
114.146 40.748 25.2627
52.9837 19.1852 14.0125
91.0889 25.5159 18.4833
174.132 64.8358 32.3509
83.0746 35.1438 25.115
82.6981 26.4815 19.5743
23.1059 9.91109 5.76233
39.8769 14.43 14.0197
66.9703 24.7902 14.3043
34.8083 15.3824 7.59141
61.2556 39.8778 33.3173
87.8308 31.7186 22.3077
73.2161 39.6835 30.7998
83.1741 46.5519 33.9483
74.6498 34.4049 18.1873
99.2784 77.9149 49.4779
35.4247 16.9573 15.5161
78.3035 26.3388 15.9651
53.8177 35.6477 28.6523
77.3431 48.1301 37.698
74.9465 37.6588 23.3953
55.4683 33.6635 22.9551
37.2275 29.2061 24.3544
75.8731 30.3406 21.6507
53.4751 25.2257 14.3396
58.1811 24.5166 20.8887
15.1075 26.9102 23.7178
152.018 76.2156 54.0741
42.2708 24.5653 23.453
99.1584 65.2176 42.9377
60.9952 23.198 17.7142
74.473 48.6252 37.8159
35.927 20.5636 18.3812
35.2432 15.7748 14.974
44.917 32.2005 17.201
69.1753 35.4854 27.9184
36.2987 25.2324 17.9601
65.8935 47.5816 34.3286
101.999 63.1172 56.7675
75.7971 43.6352 25.9816
81.5887 63.1656 47.9232
46.1495 31.1033 24.0438
99.8733 37.4615 26.7051
87.3331 50.6051 45.1632
19.2366 19.9562 20.2273
37.8929 31.4112 19.6137
52.2795 33.965 28.7877
34.2798 21.7814 23.1139
42.7829 21.3247 16.4532
84.8718 47.7933 34.9149
82.2103 53.404 41.6963
38.0044 20.3104 14.1666
62.0569 25.7058 18.7417
35.9756 15.6434 19.8466
94.5788 61.0475 45.9601
45.6859 37.1426 34.1045
59.0694 30.883 26.7678
46.8457 56.8101 42.4365
35.23 14.8015 15.7901
75.1281 41.1957 26.7736
35.111 22.3599 22.4873
125.079 69.568 58.2006
81.8135 45.0596 38.6589
46.3441 16.5219 21.7015
85.7168 60.1727 46.1199
36.2973 44.5139 43.3255
90.5511 31.0885 20.7111
66.4371 37.6753 35.0779
57.0071 26.2889 27.315
46.0006 32.3553 22.8471
96.39 55.2623 47.9483
25.6325 23.4171 26.0599
26.0028 16.0327 9.88383
34.788 31.7385 29.3932
53.2348 28.8857 33.3074
46.3771 33.3556 30.3721
52.1119 21.1696 17.9525
95.3663 59.4977 47.0389
50.3094 38.4425 36.6641
18.11 16.868 10.8493
18.6835 12.6281 12.7138
87.9093 80.6183 74.3194
37.6249 12.9147 10.9152
72.7017 40.1491 29.7372
36.3542 18.6848 15.4415
30.1201 36.0233 40.2234
69.3202 64.7327 60.8791
19.546 11.86 13.8291
31.8464 27.9481 27.8109
19.11 25.3217 26.0682
60.3283 68.0746 54.0359
17.3648 8.60228 9.97593
11.4524 25.9572 27.9254
40.5978 39.5855 42.1122
42.9854 18.2502 13.0531
45.1389 58.5671 62.7487
33.0999 12.7953 20.9323
64.0363 27.2513 24.5242
29.5829 11.5291 13.9664
57.6869 24.0453 21.5318
26.5692 22.1693 23.1707
47.686 27.7517 33.5827
86.9433 38.7074 27.9287
77.3473 41.6655 44.0135
27.7745 31.2771 29.3417
84.7729 52.027 44.0604
29.4762 19.9433 23.8795
37.6709 24.2289 30.5624
40.7127 16.37 16.3685
30.0124 22.1124 21.2753
27.7792 21.3147 17.8716
41.5291 30.7309 28.8163
21.2409 29.1645 43.5235
45.7921 36.8332 35.5715
26.6722 33.6566 37.4285
45.1526 30.9694 28.4162
38.1121 16.6818 22.1785
37.1386 21.9291 18.791
26.4717 12.086 8.89086
49.5465 45.8963 53.1609
31.4464 10.5993 14.8968
54.289 35.274 44.1961
15.2735 15.6918 33.0299
79.5128 57.923 63.1378
67.5543 74.0013 58.4498
15.2698 11.9591 20.3976
43.6226 27.5551 32.1751
20.38 27.6507 32.2295
35.5207 53.3398 46.8371
19.9227 13.3493 15.5603
28.7819 37.9607 40.0469
35.0426 34.6008 45.7304
43.9911 25.3247 25.2858
33.6634 42.4814 46.8834
39.0086 45.7036 52.6912
30.9662 19.9412 22.4835
19.8982 25.5724 32.1999
27.9107 16.1098 30.4536
64.1935 41.2647 42.6036
42.6197 30.1719 41.6445
51.1003 36.087 35.5332
45.0354 30.2285 42.6053
46.8362 32.7712 25.4828
68.0316 38.7291 33.6926
46.9471 42.2214 60.2109
35.918 28.334 26.5822
27.9887 18.1828 20.2419
26.1609 37.9284 57.2993
70.497 48.2957 57.586
24.5911 51.7176 72.0016
61.7653 44.8719 55.035
43.4457 22.2354 22.904
50.7137 60.5057 70.6927
35.3349 27.5656 38.3588
33.5754 20.718 13.199
20.3019 19.7061 15.5772
35.0415 27.8806 28.1451
16.9253 21.005 42.149
66.3626 66.477 72.3576
19.5305 13.9201 18.9265
41.8314 61.1182 85.1014
65.5782 32.1496 33.2016
57.928 37.7101 41.1816
27.0599 30.1234 38.1469
47.2684 48.6362 70.0515
31.9113 28.5197 57.5111
30.0994 28.6507 16.5699
36.4944 32.4113 33.68
8.69118 8.63369 10.1924
23.638 21.9481 33.506
41.989 41.351 49.1788
15.0366 17.048 25.4398
29.843 19.8277 15.1961
20.8783 18.1812 25.9562
15.2307 16.4505 16.0994
24.593 25.666 34.1488
40.1517 47.8853 58.4375
52.1595 38.619 59.6251
34.3469 31.4449 29.7444
32.6004 29.811 44.8826
32.9721 23.5532 24.0825
29.2744 29.7333 52.5102
17.2873 24.7332 33.9087
10.3237 8.46247 10.7097
18.1715 29.449 47.7485
33.8886 37.8416 42.6585
20.271 17.0225 27.4614
44.6379 42.7966 49.7815
13.425 15.8546 22.2928
16.7713 22.4114 37.883
39.6071 24.112 19.7929
13.6291 12.5 14.0576
9.68155 15.2761 33.5376
62.5221 61.3966 71.9674
23.1693 28.7752 46.2781
21.4821 22.6036 36.4499
35.8406 21.7805 18.1605
29.9449 30.7811 43.1826
35.3427 27.0133 40.1646
29.1023 25.1814 34.745
26.605 29.5087 41.5479
10.8744 31.2278 37.5331
22.8522 10.6282 9.18402
26.9928 21.5596 28.1415
18.8478 18.937 31.7881
17.1197 29.7165 37.9611
20.6186 42.7811 57.7215
16.6398 19.3429 41.8399
35.8834 16.2551 12.4482
38.9699 45.5808 77.9516
29.0256 23.0151 35.9824
19.1985 15.2355 16.6597
16.8564 35.6472 56.0905
23.0995 15.674 20.1265
32.0483 16.5323 21.4695
28.7527 33.6426 47.3542
34.9948 38.228 55.0755
11.3821 34.5914 45.269
12.5667 10.2006 27.6383
22.6169 19.0128 16.0554
15.6817 39.359 63.5109
21.4313 19.2454 52.9926
37.5574 20.5415 30.4672
33.0834 23.2583 24.1007
16.5851 28.6773 41.6618
20.3871 17.7539 39.6471
29.7435 17.2544 29.5029
37.9844 38.1838 68.3323
37.8687 33.7032 28.6623
16.825 19.2237 25.9762
26.9124 26.8163 42.0108
22.3314 19.3627 39.2212
16.2414 14.3889 16.0408
13.7919 21.2713 38.3815
32.4039 33.7888 48.1788
19.1585 32.037 46.1623
29.3085 24.2283 30.8413
22.0342 32.5169 74.4786
41.7113 27.1222 28.2308
24.7285 25.1278 32.7569
16.1629 19.1227 35.9336
20.5487 11.1821 22.8057
25.4621 23.3701 27.4822
22.253 29.3076 52.075
28.6079 33.7138 55.9928
14.7019 25.2898 26.1275
15.7281 18.765 31.6261
43.5753 37.0754 65.3047
12.5424 25.4923 50.5836
36.9084 31.7589 41.4429
17.4602 9.85649 18.6206
12.3562 16.5076 18.9207
25.1694 24.3996 31.6285
26.811 26.056 47.6017
9.43752 27.4594 56.1166
25.2457 33.526 44.1973
12.2455 9.92395 30.6971
22.4728 16.7363 18.3952
15.4932 20.3936 38.4953
32.9048 37.3444 61.7282
26.1162 15.0423 24.5783
7.51985 9.1143 21.5051
17.64 20.5937 34.5574
17.6413 20.5664 25.34
14.5703 15.7213 23.9706
17.8785 8.69749 11.3972
15.9645 27.2139 24.946
15.4058 35.6349 60.9055
24.5867 25.4289 49.7775
7.76202 7.32212 14.3432
9.28026 16.4541 37.3699
33.3249 43.063 65.0404
23.5531 8.20782 15.69
15.954 25.288 59.3292
18.0173 16.1849 27.1099
23.5129 29.5335 35.6699
11.0752 9.97286 26.4514
25.4987 19.2682 40.9623
17.6925 22.7708 27.0909
21.9596 33.5575 60.5845
19.8283 29.8029 45.6293
20.3768 24.4169 38.3729
13.5691 11.3501 22.1026
10.6705 26.8557 48.8429
23.0543 26.4866 45.4528
18.8314 13.8775 20.027
14.5646 19.5111 38.8839
20.987 13.398 23.4638
31.9328 32.5852 56.0424
18.2245 8.52677 16.6191
25.8094 52.5922 82.2202
22.6283 17.5724 35.9575
16.0542 14.0519 30.0519
22.7946 21.6032 33.3135
16.7997 37.4708 58.5605
16.4068 17.1562 43.7705
29.9272 29.9735 50.4163
28.6224 31.3021 58.6555
35.802 33.2127 39.1634
15.9005 13.4216 33.3612
13.2141 20.8175 32.4848
17.7172 27.8716 65.3151
8.93012 8.72981 29.2899
23.4926 17.1802 18.4571
8.41131 16.2905 19.2736
12.1843 23.4177 55.7891
30.7955 31.0849 68.8761
20.4251 22.7326 27.323
16.0672 23.7918 44.7926
19.186 26.8479 47.3062
30.4891 26.6393 39.354
6.52881 13.7463 33.5874
18.4386 22.6901 57.664
11.9598 9.84738 22.669
21.3489 25.4545 42.3214
6.35133 15.3741 39.6896
14.0913 25.271 53.39
24.2105 28.4672 52.2465
9.92636 16.5485 31.5747
13.7513 26.9389 34.8611
9.65252 34.7169 49.9012
11.8202 15.9048 31.9131
16.2002 27.7914 51.2526
12.5751 13.3738 34.8579
15.1345 33.2076 75.0815
19.2132 10.7323 35.3873
29.9225 25.5399 38.5654
30.0876 33.1884 65.9899
30.4455 33.5164 60.3101
15.4157 13.731 23.1783
19.3036 34.1445 52.2662
14.5311 9.79326 22.4418
19.6119 17.049 29.5054
10.8119 16.1121 37.0322
17.0329 28.4231 53.4976
16.7065 9.26286 17.8183
12.9839 19.415 59.5846
17.3489 28.6168 44.8215
4.73559 8.54259 43.8612
36.2994 35.1513 37.8445
13.6454 14.8649 19.7718
21.6613 71.137 144.565
25.1119 27.8253 37.4471
17.86 21.7417 40.5445
17.6611 11.6519 27.3153
11.2034 26.792 55.8125
11.454 17.8067 36.8706
12.4908 23.5395 57.3781
12.0364 21.3719 47.46
20.054 28.1367 74.2624
24.7675 24.0929 34.3339
12.6158 16.344 28.2058
15.4838 20.3996 53.54
17.027 29.9439 51.296
11.9364 18.3048 31.936
5.36749 14.1751 42.2546
14.3813 30.5602 57.7466
8.80159 23.4217 48.5856
17.5898 12.9484 26.6032
10.217 18.1482 33.4861
9.17238 16.1955 40.0607
15.4333 41.3947 113.173
37.1427 30.0049 46.1117
10.132 27.7325 54.6503
14.8572 5.3214 20.2371
13.5734 27.4435 72.9613
35.9172 27.4835 29.5229
15.9805 21.0692 36.417
21.6356 28.7631 77.4408
11.3392 17.0773 31.1898
15.19 8.27009 25.1092
8.86504 14.7291 46.3736
21.8253 20.4032 19.1435
10.1137 16.1599 38.3609
13.3357 6.51151 10.2163
8.03618 6.51463 16.9016
8.27888 10.5072 37.8344
32.5684 25.6808 45.5867
15.3847 23.7327 27.3843
16.3376 34.0228 90.8665
20.8613 23.4861 74.9651
19.7213 27.5063 51.2579
20.9058 18.926 31.4686
17.588 15.5782 41.0412
10.2379 17.6847 30.5594
12.3648 11.6181 39.5692
22.8298 21.206 42.4824
15.1383 24.8265 57.0118
12.6829 14.3167 30.2974
7.82636 7.50842 24.4846
12.5316 16.1906 46.3668
10.7452 17.4878 30.5725
15.6666 17.6687 29.3543
7.68817 22.5164 56.6442
16.3882 26.9269 44.2406
10.4892 11.8958 24.7339
14.6693 20.3049 49.1782
12.7226 28.1446 53.0255
11.8252 20.8413 50.018
10.6822 12.6861 31.1155
8.2814 17.859 31.5144
12.7777 16.7006 38.1739
13.7224 17.9383 43.4117
8.37985 7.21735 16.2903
6.87617 8.79483 17.6346
10.3589 14.7734 45.3452
14.7482 21.4963 47.6494
14.4786 11.4138 24.1954
9.78786 18.442 46.7635
10.364 27.0845 59.8575
22.0178 15.6375 34.5638
17.3521 22.6285 59.043
19.1375 19.3481 34.0358
10.4309 14.9913 35.1164
14.1279 16.7347 47.4075
9.18603 17.5262 42.7741
14.8642 12.6756 36.7748
8.98023 21.1214 43.3987
16.4512 18.5638 26.8128
15.3887 25.8502 53.6427
10.4133 8.602 27.1126
8.44346 20.7756 69.4091
26.0839 34.2596 52.5445
9.73525 14.6123 41.0232
17.2683 11.4025 16.1865
12.6353 21.5972 49.7363
16.1637 19.7937 48.9018
8.60833 12.8918 25.0298
10.234 11.5893 33.6639
5.70565 9.16796 28.5095
9.29377 8.66097 19.0117
4.52106 12.8691 28.8057
8.19346 18.5963 49.8595
15.0663 9.95391 31.5665
10.8062 8.90997 15.9186
13.3517 14.1448 36.2919
19.6497 27.629 63.2456
13.8863 18.06 36.2825
8.12019 11.2074 37.3745
8.37481 10.3934 37.6632
16.4439 21.8952 34.4744
6.34766 19.5747 57.6945
8.5567 7.53205 33.0865
10.9174 16.5976 50.6978
17.2565 16.612 38.5109
12.7761 20.1808 34.4838
15.5023 27.9524 66.7732
18.848 14.5821 31.2013
10.9787 23.3701 48.2913
17.866 16.7856 33.3575
11.7465 19.2848 46.6694
5.22423 15.086 59.793
6.20011 13.5316 37.1842
10.4623 6.07728 12.7549
