# pn-170911/CsIIA-24-CsIIF-1280-1959.psd
# Power spectrum* (dif=0,1,2) (really just |FT|^2)
# NOTE: only the first half! (symmetric)
# weeks: 1280-1959
# 39 clock-days, 13 excluded
# PSD: 1441
147117 4.28935 0.327732
3.35758e+06 77.769 1.62274
1.63807e+07 345.505 2.1884
3.29824e+06 130.067 3.32792
2.04956e+06 102.639 1.81945
1.11883e+06 130.743 2.0103
978508 103.713 3.18664
705206 130.6 2.28694
517932 88.5977 3.61554
377475 82.9101 5.41378
434213 132.195 4.16851
280993 82.5777 1.70379
275213 108.022 2.50746
214240 109.956 2.22402
222623 98.1267 4.06735
257641 149.164 3.54163
104539 102.89 2.83532
130747 87.6969 4.57832
132954 118.81 3.12971
111071 123.992 3.217
84604.1 86.5662 2.04073
94832.8 116.277 5.03726
100030 170.276 3.93431
80290.3 140.801 4.20556
66896.3 109.048 4.46292
75961.6 100.598 4.27147
79525.1 129.351 5.18503
65109 97.8981 2.219
56647.6 102.303 3.02196
61333.7 91.974 4.55825
41208.3 115.646 3.56725
51381.5 89.2171 1.91002
69066.3 111.449 3.30925
49448.3 102.419 2.80243
53378.7 117.211 4.13156
43428.9 97.1457 2.73555
47002.3 83.5735 5.07371
34842.6 130.428 2.98413
32459 108.766 3.43773
49901.8 107.683 3.59722
31753.9 121.732 4.68743
29467.5 94.3159 2.84542
26578.7 94.4901 3.36515
26430.8 100.927 2.89525
28495.5 91.6628 3.86781
23269.8 87.8113 3.81801
35780.7 84.6427 4.3334
23631.7 72.4821 5.60403
21985.6 97.8885 4.13039
26039.8 80.5357 4.58372
20528.3 92.9502 4.2638
26363.2 106.929 4.15258
25136.1 139.339 4.17985
18797.3 98.6365 2.22506
20619.5 73.2141 1.77406
24112.1 86.0735 3.92876
19379.8 99.7676 4.00689
21074.6 104.177 7.01117
20592.4 117.003 4.24627
15552 87.203 4.87629
11471.7 78.6511 4.12227
12672.9 93.9068 7.96827
12890 80.5013 3.77674
17568.5 91.8208 5.14103
15061.3 101.935 4.43478
12808.7 118.869 6.87733
16875.6 86.5062 3.71681
15818.1 94.1852 3.82361
19139.6 108.122 7.30506
13772 80.2286 2.7712
10748.4 108.854 4.57049
19761.3 133.327 6.25726
18238.7 134.535 6.87751
18606.4 118.615 4.43033
12214.5 89.3813 4.47901
11899.7 98.4313 9.183
11195 101.383 7.0632
13209.5 101.916 4.88278
12638.7 122.796 4.20966
14958.1 98.9294 5.47292
11820.8 68.8548 6.97027
13346.4 136.457 5.18328
8044.49 136.384 4.19373
10802 96.6127 6.5277
14420.9 146.174 7.2164
9010.56 113.143 6.78234
9616.64 80.0779 6.7736
11402.4 85.4763 6.40615
7137.12 109.589 8.42867
7946.24 71.8565 6.15235
8687.87 103.004 5.58062
7534.44 101.54 6.57951
7890.39 110.465 5.82088
6711.78 89.6778 7.83583
7171 56.9685 6.92507
7562.28 82.4727 7.68792
9375.49 100.976 6.17974
6823.98 133.843 8.92533
7772.58 129.559 7.02284
7058 107.053 4.73534
9294.34 96.3948 6.73934
7552.93 90.4187 6.98402
6477.43 70.5209 4.7567
6334.55 80.7621 6.80752
9155.11 101.388 5.32128
5721.93 72.7992 5.20752
6460.62 80.4564 8.41101
6675.97 82.7478 6.69743
6388.4 95.1999 9.20274
6445.2 90.0756 7.32315
6766.62 113.214 9.91454
7564.52 115.577 11.703
4710.78 89.5187 8.80651
4132.68 80.2074 7.30856
5491.15 103.33 7.77065
4339.45 97.6448 10.6204
5385.8 84.1571 5.46905
4332.29 84.8598 6.13274
4703.59 92.4678 8.86223
3362.38 76.6171 6.32997
3173.65 84.8631 7.38626
4697.99 112.971 10.6875
3720.05 64.0201 5.7746
3073.37 58.7152 7.73053
3010.49 81.8228 8.80862
3629.84 74.4116 6.34766
2825.08 74.92 6.35956
3974.36 88.95 7.28577
3195.3 70.8395 5.38227
4100.6 69.9501 7.59416
2483.58 58.2431 5.71919
3679.8 104.174 11.9275
3677.94 76.403 9.29565
3890.75 102.134 7.77062
2904.96 75.859 8.10432
2533.37 63.1505 5.25914
2949.61 79.8827 8.53202
3773.66 85.2659 9.12053
2288.64 86.7277 11.2251
4120.17 105.159 11.8068
2482.31 80.8006 8.76524
2979.63 69.0371 8.2661
2284.53 75.1165 7.99502
2380.55 82.7475 6.77145
2423.11 102.954 10.3841
2827.18 113.51 9.92957
2296.02 86.7932 7.3624
2845.07 91.3626 12.6738
2320.62 92.1751 13.8716
3140.25 95.6777 10.2086
2052.53 80.076 10.6974
2648.29 81.2266 12.3216
2114.55 90.4977 13.0141
2280.65 72.117 9.5663
2976.98 65.8854 8.27476
2444.05 69.2143 9.32539
2483.92 93.7155 10.84
2150.66 82.5622 11.4446
1873.74 73.9314 7.1922
2259.34 83.4021 10.3917
1809.37 75.0086 10.3182
2965.77 85.6335 11.8984
2918.29 79.3336 10.4765
1926.04 103.957 11.6799
1814.25 96.6837 15.2012
1947.89 75.0887 11.7634
2707.69 74.5617 9.82829
1703.16 90.8169 14.7964
1863.27 96.6788 13.8491
1741.3 89.317 9.6017
2430.34 93.795 11.4156
1484.18 82.2219 11.5176
2178.83 86.4526 12.3504
1684.45 90.5382 11.7083
2826.92 90.0813 12.8197
1812.6 91.2264 14.825
1613.31 89.774 12.5451
2836.91 102.09 13.4638
1776.63 60.3263 8.94555
2404.22 102.034 13.7365
2799.94 100.817 16.4843
2480.29 79.7259 15.0636
2149.91 84.2612 13.1954
2084.07 72.6672 10.3017
2940.89 91.4369 12.5352
2461.47 78.5736 13.5619
1803.54 65.7129 10.5487
1973.3 87.3071 13.8106
2407.8 103.078 16.1021
2442.46 101.232 19.0355
2069.2 67.5352 12.9857
1506.95 55.5427 11.853
2311.04 84.3272 14.7004
2054.05 70.496 10.4845
2259.64 103.74 15.6258
1991.2 85.8914 16.6981
1940.96 102.277 19.5487
1728.96 74.2667 12.8874
1570.78 65.2746 12.2093
1771.71 88.6687 17.2038
2131.36 101.921 20.4988
2379.65 76.1601 12.8686
2118.33 55.9943 10.7452
2513.1 100.459 18.4185
1735.25 78.2584 15.43
1884.96 91.5939 19.2139
2221.03 59.2326 14.1206
2610.63 83.1176 19.3184
1805.78 84.3736 18.6012
2112.7 75.394 18.1176
1787.95 77.3159 13.1566
2043.7 77.1362 18.8171
1844.94 91.5669 17.4571
1662.46 68.7917 15.1946
1822.01 85.8346 15.2384
2122.24 72.944 16.4399
2155.16 93.2558 21.6511
1902.57 80.3101 17.6453
1467.1 67.4732 16.439
1627.39 73.589 14.2607
2005.97 76.4452 17.0457
1456.85 83.9082 19.3186
1622.23 87.9561 20.8529
1657.52 80.5928 20.1935
1436.36 59.4911 14.0291
1603.65 76.3591 15.9527
1381.67 84.7213 20.989
1160.89 97.862 21.8499
1652.48 116.41 28.2157
1572.05 77.2238 18.5745
1731.82 68.5418 20.4356
1449.89 64.3196 15.4036
1753.96 77.192 21.8693
2070.05 73.2078 16.7944
1654.09 61.9206 18.2928
1492.47 88.238 23.2566
1515.97 72.9014 20.3484
2104.59 88.377 23.7249
1521.44 56.2301 16.5271
1427.17 95.9117 22.8213
1603.29 73.6063 18.9778
1309.16 60.7779 15.2869
1828.22 76.6314 21.5554
1760.36 94.765 22.1952
1202.35 78.6185 20.6222
1462.61 89.6566 22.0381
1356.5 98.8662 26.6372
1190.99 56.3113 16.2573
1461.15 98.753 24.7943
1369.69 88.6914 23.2546
1332.48 73.2203 20.5398
1312.41 79.1598 26.9655
1399.33 99.1351 29.7002
1424.48 70.3374 23.7653
1247.72 80.5066 22.0558
1320.95 80.8073 24.2791
1364.59 86.3285 26.1096
1159.45 53.0646 18.6244
1270.14 97.0133 32.0723
917.519 70.575 21.3353
1529.7 75.3779 20.4528
1408.41 80.702 24.0642
1005.97 76.1823 26.9883
1018.72 57.9707 16.3069
1043.34 73.3005 20.5029
1249.51 80.7546 25.8279
1144.47 103.298 28.9897
1059.54 99.0393 31.3862
1003.09 47.2002 17.4319
736.073 72.963 27.754
1158.09 74.8753 25.9198
968.227 94.9938 31.0309
958.909 91.821 30.259
762.032 62.1359 26.7765
1097.36 75.8716 22.825
1496.43 66.7056 23.5629
1476.88 103.477 39.3783
1363.23 76.5305 29.0598
797.938 61.8134 20.5189
1032.82 68.3701 23.4985
1268.57 60.2719 23.4839
601.359 71.482 25.9913
1372.46 64.9704 22.877
1641.98 80.9383 34.0409
1845.66 61.7268 26.1273
1135.67 78.7085 26.4734
2608.67 66.3842 23.6888
2129.61 68.8612 26.0235
888.325 68.9178 24.9022
1262.77 63.9656 27.7948
3390.48 62.0788 26.7662
1961.78 85.2162 33.1032
1746.58 75.0079 34.4404
782.778 66.5204 27.8306
1286.22 100.061 37.9737
548.102 62.3408 24.4751
1121.86 62.4606 21.8406
925.836 68.3331 29.6708
1106.89 68.4621 34.2972
1198 84.4223 36.5894
814.02 79.4367 32.0637
409.166 58.5 24.4692
977.831 75.7008 31.2344
1036.14 89.6056 35.5335
623.62 65.2161 30.5057
1049.27 64.0681 32.739
1307.95 77.1094 34.1445
1387.51 75.5754 35.8046
642.781 70.2267 29.7846
704.557 71.0162 30.1164
1095.1 45.959 19.3761
758.982 58.1606 23.4795
767.122 77.9473 34.2132
1024.66 60.2802 29.9688
1120.89 85.1786 35.6004
761.627 68.401 33.6341
885.034 75.8778 34.1564
803.239 62.7334 30.2773
1015.47 70.9439 30.2085
922.278 47.5333 23.6699
863.019 74.8897 31.2793
1124.96 64.7632 29.2075
759.143 53.3651 25.0794
1128.16 46.4588 22.4508
791.144 81.4707 38.9738
730.092 45.2281 25.8292
1169.02 112.637 52.7517
736.127 59.8687 27.6676
1149.3 84.5995 37.9963
1780.5 65.911 30.7987
1045.46 57.4106 31.0943
894.014 72.023 36.3857
930.41 64.6732 28.1064
1008.71 65.787 28.6187
1331.68 44.7686 23.326
691.876 70.8759 37.3012
1292.61 79.3202 37.4015
645.609 77.375 36.1702
777.893 46.9781 28.8145
1096.61 68.4198 44.2348
920.289 77.6449 36.304
823.776 72.4088 38.8833
943.444 66.8805 35.3863
1159.07 62.5542 33.2875
884.488 70.5846 35.7669
818.251 90.9054 50.1582
617.971 77.5493 39.7021
1086.65 59.4606 33.7494
817.555 73.0177 39.8858
905.892 96.4411 47.653
981.288 54.9695 31.7789
710.457 54.357 28.938
598.94 71.5841 40.1957
690.683 66.7367 33.8862
746.658 51.7684 30.0446
757.41 76.1187 44.364
661.083 65.235 39.9634
961.2 69.79 35.9673
907.49 66.2527 38.7906
779.054 60.28 32.676
772.787 83.9359 50.4042
972.046 58.6045 35.8811
596.606 75.0472 38.5309
790.508 62.1513 43.284
641.04 53.6357 30.4554
985.078 70.1057 43.2743
829.748 57.9648 41.813
1371.52 62.2428 34.8598
613.185 68.8745 44.7497
928.279 63.013 39.0425
1118.93 69.9557 43.2434
767.889 62.2111 35.396
641.162 80.8016 52.4002
779.891 81.9304 48.1279
535.795 47.7735 33.1027
951.31 94.227 49.0833
536.193 57.9656 35.9812
888.13 55.6726 36.6062
836.675 69.0778 40.9183
559.882 68.4445 41.5069
980.237 63.5167 48.7773
901.916 75.9199 42.8628
648.802 111.599 66.9546
697.423 72.5731 48.2282
955.72 81.871 50.6889
735.125 60.7916 41.3702
655.656 58.9943 42.5443
632.97 66.0243 44.7188
1039 58.3357 36.7605
740.84 67.6652 40.0553
712.854 60.5341 43.2602
643.575 72.7495 47.1093
1077.16 45.7489 41.1367
874.964 77.1061 50.5995
1126.21 69.15 46.5506
588.297 66.9987 50.2276
683.982 45.4438 34.6017
564.609 58.9679 42.5228
601.691 51.6164 36.5771
674.369 72.7094 44.3497
864.768 111.626 67.1256
775.167 62.5513 46.1667
549.171 61.9159 41.7127
576.355 74.3151 51.6153
664.014 63.4668 44.1863
505.068 46.3443 38.792
627.324 54.466 41.2144
438.18 73.9783 52.6089
879.959 55.715 43.4216
519.944 59.4192 43.1775
867.432 47.5422 33.1146
668.984 66.1903 49.5187
675.873 67.204 47.1977
505.806 70.4927 60.0599
584.763 54.8296 44.3725
723.661 86.9394 56.7746
821.178 57.3784 46.6352
767.435 56.0128 50.1881
730.119 68.7639 49.2209
408.327 93.6284 71.8426
410.027 37.7484 33.1865
499.356 67.7996 49.5581
431.352 50.0995 46.9794
665.538 81.2839 65.1359
713.415 68.4753 54.4964
416.461 64.8534 51.5689
642.644 87.242 68.0858
712.047 78.1122 67.6297
426.093 57.2937 52.1563
477.804 80.9988 59.99
415.555 68.8809 44.5043
708.425 66.1678 51.2932
493.855 50.99 39.891
427.307 62.283 45.5719
553.692 43.8786 39.3821
616.456 53.2446 39.8473
383.57 57.6659 55.8959
483.164 52.5723 53.0969
503.765 62.2962 52.4517
512.614 54.109 38.3478
498.552 73.2199 60.2375
516.03 55.6966 49.4749
510.273 51.6942 48.8986
268.052 73.0606 63.0783
475.401 69.9117 55.641
319.522 51.7949 42.9542
526.355 82.2442 71.2016
453.842 94.1435 88.0389
375.174 47.2 49.8628
360.956 62.2254 55.6181
195.8 56.9256 47.8694
361.425 55.4379 45.2593
454.718 50.9041 41.6045
227.896 54.515 47.5547
497.074 58.5248 61.7863
581.454 45.7537 35.6304
655.849 69.0119 60.3526
560.117 46.1563 47.4436
496.769 58.0927 57.7307
357.155 54.5936 48.9146
467.644 55.4427 50.2689
413.737 72.2231 66.2625
405.208 64.7852 66.9291
363.162 53.4285 45.3783
456.067 65.5441 66.0102
468.641 32.9683 36.0535
384.65 61.4651 60.0789
285.827 71.2038 58.2045
504.651 74.1715 62.9239
937.386 63.4486 66.8275
389.386 41.2167 44.7022
372.237 76.8746 67.5887
652.275 59.7918 62.6927
699.744 59.011 56.3354
818.166 70.5028 60.2089
542.423 72.6995 65.43
614.04 69.4055 67.8433
462.527 63.9065 76.7895
807.037 80.7625 66.1564
655.404 78.9662 82.7584
639.157 69.9519 61.9977
611.884 74.7389 62.7226
698.494 51.9016 51.1446
633.8 66.4764 69.5225
731.21 59.937 62.3124
748.417 73.9375 58.0231
383.875 64.5212 67.7434
524.718 58.2522 63.15
399.303 77.8227 80.9969
918.93 58.5741 61.6738
456.262 58.509 68.1224
356.693 70.1741 75.9192
510.319 84.489 85.5013
604.744 61.9523 55.8425
402.091 74.3938 70.9633
392.161 36.8526 45.7499
410.244 43.5457 55.7408
506.541 41.6069 46.0632
514.934 53.2265 54.8445
693.856 31.9803 34.7546
533.251 43.0153 50.7239
404.283 55.6855 59.0912
397.449 54.2482 45.9634
576.782 50.3617 41.9258
526.608 60.8634 78.7434
347.328 42.0114 52.3419
585.745 63.4426 70.277
472.376 52.2043 59.5688
364.89 61.5235 58.7007
331.184 55.12 61.8852
595.783 60.9505 67.3264
633.32 76.8567 74.8693
770.37 63.949 63.2178
339.574 44.2055 66.6574
606.382 115.399 105.015
519.43 42.9737 47.9476
383.685 74.8107 79.928
332.106 62.8827 74.5672
363.231 64.9953 70.4831
396.392 50.0378 57.1257
633.444 54.0319 67.1224
601.821 58.9523 63.3237
421.988 63.1242 81.544
454.439 57.5923 71.5412
565.208 69.8463 77.7218
538.895 43.8684 53.3892
471.21 50.9694 49.2966
385.244 46.7441 57.7541
219.675 77.1505 85.2599
557.576 80.4021 89.0553
547.517 58.7234 71.0207
350.911 46.576 65.8064
425.762 69.801 65.7389
488.123 51.0284 50.0791
535.017 77.0402 85.733
513.389 73.7179 86.8915
335.298 62.8727 71.3818
514.06 51.7324 57.0853
502.906 54.1987 79.6148
395.124 76.1322 90.0903
586.842 89.0616 112.332
473.886 69.7941 95.3124
384.994 64.7151 77.3453
455.226 48.7516 53.0605
419.252 63.9895 64.9338
507.694 66.6986 73.5025
226.905 59.1514 74.7069
363.617 54.3704 63.7842
340.302 49.4656 82.4859
378.788 59.8727 85.7812
381.039 63.3094 98.9151
337.979 79.2811 97.9868
459.132 76.129 94.9884
511.019 46.071 60.3366
403.143 57.6361 64.9788
361.567 31.3668 45.281
455.447 36.8974 56.9902
378.581 67.7796 74.298
404.007 46.9856 64.9571
385.536 50.7655 65.6234
478.159 61.5784 73.8568
434.316 61.046 86.8256
394.422 44.9967 61.9202
803.2 60.0189 80.6603
907.545 45.5774 57.8185
330.028 55.4182 91.831
309.949 74.0655 83.3564
472.541 61.261 85.3311
443.434 38.4794 55.7781
432.605 57.3786 77.8948
440.116 63.659 69.3728
549.979 93.6761 113.023
409.337 77.1058 94.1023
417.086 56.6656 77.5191
480.81 70.0031 96.5493
382.167 51.2192 76.9244
408.129 45.9817 74.5483
576.813 57.9537 65.7795
510.15 55.0711 77.8601
800.127 72.6565 94.3562
293.306 44.4235 67.8241
361.801 53.4179 77.8471
305.239 64.7944 84.7493
418.211 64.3621 80.393
348.976 36.6309 54.3947
471.612 69.9761 107.642
522.571 67.1524 73.466
454.27 55.7922 100.96
387.989 56.6302 73.7807
222.102 63.628 90.9263
221.975 32.1016 51.0473
397.677 78.0279 84.3393
423.5 47.3246 73.5884
352.108 56.3222 76.658
281.179 42.3242 67.4947
451.39 70.5269 91.3459
328.865 50.8189 73.4806
216.2 55.4524 83.5716
350.329 43.8353 67.5371
237.379 40.7883 54.1307
289.893 62.6971 104.148
295.764 53.1172 77.336
293.456 33.8046 57.5673
240.892 28.9666 43.6828
280.514 101.167 133.953
232.925 38.1893 77.12
398.519 63.9149 95.0846
245.363 51.1231 68.7832
266.32 59.9659 118.449
232.465 45.8546 76.64
198.858 52.3004 70.0532
338.153 43.5797 70.7312
324.333 69.2016 97.1252
517.815 78.104 124.742
428.965 68.6494 99.6305
269.636 60.127 79.4554
208.009 54.8214 99.2539
355.329 47.4638 78.3549
269.439 62.2398 106.04
305.047 46.982 62.2476
354.062 41.8015 66.8538
455.035 46.3459 77.9643
337.143 61.4768 84.0609
393.33 55.7746 93.3612
321.858 74.8346 95.0418
326.699 67.5178 96.6362
247.99 68.4979 104.498
276.509 54.1209 88.2128
276.719 47.0942 78.1716
251.692 39.2706 76.1536
336.081 57.4649 82.5698
248.22 43.7312 65.3754
303.353 63.9097 116.831
376.754 61.2207 91.8554
259.598 38.143 60.2737
252.327 62.9756 87.2381
374.787 41.9523 71.0369
385.536 57.1966 87.744
284.679 40.5007 80.0416
379.686 55.136 86.0539
385.025 38.7198 74.7762
320.449 55.1547 95.1585
357.477 47.3836 89.4218
250.081 61.5637 106.418
288.175 58.6626 89.1932
192.475 54.2373 85.6661
245.558 44.9525 82.8187
230.849 51.8358 93.3007
244.667 81.8719 122.968
356.994 48.7173 90.9375
348.827 73.4205 131.275
339.956 40.6211 62.1704
769.878 80.5988 127.452
504.172 39.9326 57.2814
218.376 52.5214 85.4182
404.945 50.2344 81.0287
510.181 37.8575 71.233
341.17 56.2218 112.571
477.997 44.1515 76.2972
367.874 83.4084 143.14
481.956 55.0103 75.8392
331.656 45.734 75.7188
270.553 38.9074 77.885
294.197 59.78 97.498
286.041 46.1394 82.4099
287.663 56.995 75.4151
236.561 41.0244 74.0254
237.909 57.6434 86.5232
333.076 54.0002 95.6802
188.856 50.6063 92.4084
316.058 53.2547 73.388
254.577 48.2961 104.928
371.391 66.6659 104.757
296.617 50.8652 96.8408
292.54 60.4207 128.031
299.292 50.9688 80.9763
441.591 67.6983 111.397
333.143 51.1846 88.3981
323.56 46.8238 93.2696
342.895 51.1507 101.265
402.88 46.2171 88.8793
393.797 44.9048 82.4886
201.749 56.9881 105.753
256.232 43.3641 61.8715
280.948 48.0914 99.9179
300.519 36.9486 78.4524
255.705 45.056 80.09
320.922 35.8345 84.2317
393.163 52.468 95.0272
283.859 65.7209 101.377
395.203 59.0964 98.4574
286.315 45.8244 80.4448
380.976 47.7988 96.778
378.787 64.3387 141.682
413.844 64.1677 108.577
311.593 63.3652 102.264
305.51 63.0486 108.345
381.403 65.5841 123.004
405.807 64.22 145.553
244.865 45.0454 62.0803
236.549 69.0663 135.625
248.145 58.0797 85.6752
259.497 57.724 110.184
250.381 44.7624 95.7896
317.108 35.8036 73.8135
274.841 48.3784 74.0294
287.366 35.7043 69.6338
378.628 62.7313 134.027
293.845 62.8148 109.432
463.894 34.8613 74.4911
481.571 58.4385 106.061
460.31 55.2111 95.7387
243.541 42.3673 84.4953
354.148 67.5422 135.969
174.503 38.827 90.55
348.658 52.0284 109.021
336.266 39.6606 97.2249
343.882 63.2329 116.523
215.811 69.5519 132.585
227.047 63.8353 102.408
283.402 57.7199 101.321
388.811 51.5708 116.251
318.782 36.4864 92.8241
364.614 62.1901 113.052
400.284 56.8085 102.434
330.418 53.7966 109.41
221.145 55.564 115.982
255.452 57.1519 126.717
203.714 54.535 101.657
253.466 49.4337 88.458
235.129 62.2549 127.696
267.191 55.8747 97.036
290.078 46.4591 104.474
272.446 53.2346 111.38
361.661 56.3906 100.021
400.875 75.8773 181.724
147.786 53.5935 109.641
123.522 59.1685 112.266
282.923 57.1415 113.805
264.679 66.1268 129.5
231.666 52.0716 105.532
232.331 49.6438 91.1883
145.567 64.8585 129.657
333.241 42.894 80.5136
298.844 44.4188 108.847
286.495 61.7878 109.453
361.372 50.1768 105.597
252.052 54.776 135.829
199.6 37.6016 74.8653
182.709 47.1092 111.065
139.753 55.5264 111.547
362.468 30.8098 95.7602
158.556 41.878 105.681
309.055 46.7077 72.6818
353.792 31.7786 94.5738
189.319 55.3784 92.8813
182.373 55.1151 119.323
167.8 45.993 90.3997
400.913 66.5581 143.379
311.659 58.1284 104.565
244.042 69.0943 146.355
230.482 48.5783 98.0411
253.961 53.2902 127.278
206.083 58.2379 131.53
255.149 37.027 95.2381
209.726 61.7659 115.992
284.69 68.5705 137.143
338.508 58.176 148.692
278.278 61.3246 131.045
245.885 48.9584 106.159
186.93 42.9998 109.741
298.478 66.4104 123.078
230.358 51.7515 123.226
394.358 55.6716 100.798
246.106 73.7466 165.191
275.078 75.7201 168.503
386.137 40.7544 73.0219
266.858 37.1289 89.0941
253.924 36.1302 79.993
270.354 52.0643 127.541
310.763 41.6585 100.057
420.876 42.7965 84.8584
191.391 38.03 90.7968
278.28 51.8684 101.588
305.141 37.7262 85.3066
304.195 35.8016 85.3886
254.55 41.577 95.4889
316.637 52.4075 122.914
181.778 58.8486 138.742
367.486 50.8455 130.866
296.843 52.6001 90.6593
314.88 58.7803 103.456
215.592 34.4257 73.1588
263.681 63.8039 112.865
182.387 44.3448 119.528
325.59 97.893 223.074
225.212 45.3466 104.224
192.176 47.6893 146.852
239.717 52.665 108.405
165.824 49.1003 113.882
225.739 49.5238 124.817
251.18 30.6444 104.008
231.165 69.4042 102.814
295.084 50.9137 122.716
197.522 47.0359 109.392
206.762 60.6506 102.492
309.329 59.135 121.913
266.699 39.2199 130.257
239.074 42.1932 129.266
301.805 63.7768 142.217
278.552 59.9697 122.886
344.826 37.2857 107.012
270.995 60.0435 122.478
325.371 43.0699 114.205
460.511 62.0633 116.692
262.75 43.5051 106.405
268.641 101.18 224.45
220.53 40.1501 99.7203
331.013 30.696 103.113
258.805 51.7806 96.3427
280.195 35.1059 101.587
346.284 49.1443 91.713
221.408 50.8396 131.37
339.174 57.5694 129.352
253.455 42.3265 123.653
478.068 42.7043 109.556
367.626 44.5386 124.361
239.813 50.1717 130.191
347.435 67.1562 135.705
183.459 33.5384 82.2207
376.731 69.6955 170.991
234.618 34.2275 113.228
298.749 66.4148 103.552
344.639 62.5962 153.582
398.762 67.0102 177.235
136.915 62.9257 145.138
309.429 61.5063 133.969
336.379 63.0356 138.13
