# pn-170911/CsIIA-32-CsII-1280-1959.psd
# Power spectrum* (dif=0,1,2) (really just |FT|^2)
# NOTE: only the first half! (symmetric)
# weeks: 1280-1959
# 568 clock-days, 191 excluded
# PSD: 1441
84755.8 2.32015 0.0469461
8.76293e+06 100.778 0.0593017
6.95082e+07 1512.27 0.0910527
5.50994e+06 202.135 0.0693356
1.60348e+07 1298.6 0.158492
2.08802e+06 196.968 0.0834452
1.4438e+06 196.15 0.0886124
1.04697e+06 191.525 0.102399
1.09032e+06 201.274 0.117193
637678 189.476 0.139731
647756 178.336 0.134345
451615 194.528 0.174771
497809 185.995 0.185319
296920 176.565 0.206181
427918 194.431 0.239351
259313 200.337 0.285882
332113 189.065 0.300189
184802 187.316 0.309131
264568 195.13 0.363203
146092 183.724 0.37688
222183 191.956 0.429408
117608 190.838 0.452229
180731 196.009 0.506589
107009 190.07 0.549499
155030 188.675 0.582742
88726.9 191.187 0.616557
132175 200.124 0.688477
77999 196.411 0.722113
99260.1 191.591 0.76576
69653.7 201.145 0.858248
80239.1 181.037 0.828011
59810.8 200.134 0.960209
68241.7 201.757 1.04141
48795.8 191.408 1.05354
55141.9 198.675 1.16987
48298.3 211.195 1.29618
45973.9 201.531 1.27254
41445.3 194.265 1.33432
41131.1 190.964 1.35167
34498.3 185.026 1.38651
34496.5 204.736 1.60087
31822.5 201.38 1.66069
29546.8 190.409 1.65725
29505.7 209.602 1.89921
27435 201.777 1.89609
26552.7 190.128 1.89816
29477.7 211.361 2.17253
24085.4 197.167 2.10941
28045.3 200.171 2.22349
22555.4 196.787 2.29031
26798.3 205.959 2.46436
23900.4 217.874 2.70072
27356.5 214.63 2.79105
19978.8 204.544 2.74108
26420.7 202.138 2.82036
19091.1 197.098 2.85899
24156.5 190.097 2.87041
17768.5 184.471 2.872
25252.9 197.61 3.19236
15671.1 181.896 3.04108
24559.5 208.612 3.62536
14204.4 176.319 3.1609
21803.4 191.583 3.55433
16053.8 210.859 3.96647
20776.9 190.228 3.73907
13842.3 189.349 3.83843
20317.5 198.417 4.14745
13166.8 190.913 4.06413
16998 180.825 4.0086
11962.4 184.78 4.2561
15268.8 186.729 4.34212
11539.8 183.237 4.4273
13843.4 194.683 4.79798
10990.1 197.362 4.96681
12359 186.018 4.86814
10053.8 181.656 4.91353
11179.3 189.974 5.25389
8971.23 178.933 5.10456
10165.7 193.817 5.59996
9154.16 184.379 5.50304
8275.04 173.458 5.26331
7368.76 170.888 5.34817
7462.39 170.493 5.44959
7265.28 168.263 5.50973
7646.02 182.997 6.093
6819.31 170.277 5.84086
6794.97 164.087 5.70106
6475.38 168.615 6.10085
7356.48 175.206 6.43413
6326.95 175.154 6.62751
6519.57 158.978 6.1514
6249.86 168.211 6.5675
7006.69 168.836 6.78238
6404.69 174.355 7.17002
7236.48 158.161 6.64538
6130.74 159.285 6.76431
7049.37 158.157 6.90548
5713.34 157.564 7.05118
7488.12 163.566 7.47838
5463.43 172.318 8.0037
7842.13 163.675 7.77436
5414.96 152.63 7.32237
7505.9 158.891 7.89387
5084.23 153.162 7.63863
7162.01 153.706 7.90008
5022.51 148.136 7.77806
6307.07 155.373 8.26313
5215.29 157.238 8.51566
6295.76 149.246 8.25003
4748.13 151.933 8.57494
6038.81 166.76 9.52911
4273.73 146.154 8.54557
5148.45 152.623 8.98901
4088.13 140.901 8.62546
5188.2 151.652 9.27524
3910.77 145.233 9.12293
4150.99 142.57 9.12467
3394.87 138.809 8.97001
3617.9 130.21 8.52708
3264.37 138.462 9.19872
3149.66 137.621 9.33717
3087.48 131.731 9.22318
3046.29 137.711 9.58539
2957.57 138.041 9.9367
2738.51 135.407 9.82569
3065.74 141.803 10.4269
2605.16 121.275 9.00699
2842.68 144.955 11.1372
2630.82 125.686 9.70917
2457.64 125.767 9.86787
2519.82 127.517 10.1192
2603.5 132.881 10.8871
2776.67 123.471 10.2639
2354.03 129.118 10.8052
2931.29 124.581 10.4626
2517.91 126.695 10.971
3166 129.915 11.2904
2494.22 123.522 10.9227
2990.26 118.605 10.7152
2478.24 112.95 10.2984
3270.76 124.448 11.4368
2545.29 108.518 10.1313
3168.5 124.541 11.7983
2558.5 113.682 11.0688
2852.18 119.763 11.618
2535.75 120.047 11.9528
3046.29 116.203 11.7393
2443.95 116.897 11.9413
3182 127.239 13.1428
2166.22 110.637 11.5233
2737.19 112.904 11.9327
2186.3 110.839 12.085
2602.63 108.134 11.7056
1944.55 109.933 11.9596
2539.81 108.373 12.1546
1875.57 115.602 13.1745
2346.73 114.869 13.2005
1652.02 104.281 12.214
1808.53 105.882 12.4423
1775.4 121.018 14.4793
1753.25 104.177 12.5134
1489.19 102.818 12.3824
1633.56 110.588 13.6397
1388.88 100.073 12.5383
1464.8 96.502 12.0967
1383.18 102.456 13.2909
1255.04 97.7477 12.6728
1418.54 101.023 13.1214
1331.71 100.43 13.5004
1340.52 98.9379 13.3058
1239.64 95.0094 12.8164
1285.22 102.523 14.1438
1268.11 90.549 12.644
1193.35 95.597 13.4508
1446.54 91.4803 12.9465
1259.68 97.0184 14.064
1506.51 98.3439 14.2224
1281.11 95.8673 13.9948
1605.33 99.3593 14.8074
1299.63 91.6058 13.8029
1735.14 95.0115 14.3991
1301.87 87.2456 13.4254
1836.37 94.4215 14.5401
1233.76 90.6638 14.1284
1772.92 85.2952 13.6114
1213.74 84.8008 13.4183
1866.65 87.109 14.2994
1224.09 90.4649 14.9254
1798.65 96.7458 15.8821
1211.42 85.8279 14.3287
1805.17 84.737 14.5048
1231.8 91.9073 15.8373
1799.54 95.4029 16.542
1092.28 82.023 14.2503
1522.12 83.1637 14.5393
1075.89 90.3416 16.2523
1488.92 81.5794 14.6862
1001.91 83.1756 14.9299
1282.15 82.6166 15.1437
917.285 82.0468 15.2939
1074.93 79.7377 14.7796
886.664 81.6159 15.3543
990.818 77.2456 14.6414
797.041 79.9099 15.3791
886.787 84.4887 16.2863
742.298 77.9788 15.4689
782.533 74.1968 14.7042
739.313 79.1136 15.8296
743.108 76.6908 15.2985
701.58 74.3426 15.2301
680.659 76.8855 15.9135
716.096 78.1036 16.2415
689.81 72.3904 15.2404
737.585 72.2581 15.4963
746.662 75.1971 16.0989
700.229 75.8274 16.2913
816.019 69.6629 15.1115
739.11 74.5265 16.3085
874.851 64.8769 14.4207
684.721 73.6625 16.4419
985.32 72.4163 16.3863
704.839 70.2659 15.9982
1092.12 72.9912 16.7491
674.427 64.8213 15.1735
1179.18 68.1282 16.071
666.863 67.0337 15.3878
1118.15 63.6649 15.1503
709.154 70.8268 17.1765
1173.57 69.2102 16.3978
665.662 75.6907 18.5801
1160.16 75.6604 18.6186
667.129 62.8957 15.7672
1138.16 64.793 16.3621
630.191 67.2823 16.9734
1114.98 65.4167 16.6956
595.541 62.9369 16.3112
1012.81 62.4351 16.1909
562.668 66.8105 17.3674
919.54 62.8942 16.5918
524.991 64.347 17.2418
809.801 62.1147 16.6499
508.035 62.1316 16.8324
713.579 61.1463 16.6559
465.131 60.9963 16.5229
611.184 63.8708 17.6556
471.641 61.3566 17.3267
501.588 61.9929 17.2776
435.344 62.7195 17.6295
435.614 58.0599 16.493
431.837 61.4524 17.5124
431.997 60.2652 17.6867
441.633 59.7264 17.54
439.5 60.5888 17.8
435.052 58.9749 17.4328
435.432 59.2071 17.8467
404.852 57.0786 17.1001
505.286 60.3756 18.3762
419.072 57.3191 17.5983
558.011 58.0047 17.7944
403.243 55.4541 17.4143
636.139 63.3275 19.5285
425.176 57.8507 18.2206
675.182 53.3927 17.0716
391.44 55.7273 17.762
755.918 52.8537 17.034
403.597 55.3842 17.7676
847.755 54.6857 17.8858
376.477 54.2361 18.065
851.318 56.7149 18.7357
407.504 57.5667 19.101
821.537 55.0456 18.5231
386.741 52.0827 18.0827
843.97 55.216 18.4848
372.113 56.0074 19.473
789.937 50.2736 17.3223
330.896 50.5983 17.5788
750.645 51.2472 17.903
347.038 53.3357 19.1381
690.125 52.115 18.7618
329.808 52.9622 18.695
641.893 52.923 19.0622
300.84 49.4287 17.9739
527.461 51.2728 18.9128
317.64 53.0327 19.4441
465.024 49.2891 17.8884
295.036 51.7171 19.4606
366.96 45.1203 17.4607
303.381 49.5797 18.4251
323.937 48.1158 18.2899
264.07 50.0887 19.1302
281.592 48.8463 19.2257
263.614 46.4805 17.9397
258.856 48.2638 19.0799
248.788 47.4876 18.8639
271.33 49.7713 19.7071
247.823 50.4803 20.1888
317.919 47.4848 19.1211
233.057 45.0899 18.0005
330.087 50.1418 20.3932
275.716 50.2242 20.5139
391.196 45.3888 18.6932
250.472 47.4128 19.5047
425.9 45.6646 19.1384
244.782 48.2785 20.6567
462.954 44.8185 18.6901
258.919 45.757 19.4316
517.681 48.4764 20.8455
265.57 44.645 18.9957
577.427 46.5312 19.9078
263.971 43.9987 19.5005
614.499 43.0817 18.791
264.231 42.309 18.8347
659.318 43.4552 19.2459
261.103 45.8272 20.7404
608.688 43.0516 19.5057
254.762 40.9852 18.5538
594.322 42.695 19.421
266.565 43.9724 19.8135
525.699 41.1393 18.6605
243.66 42.1375 19.7713
476.137 40.9304 19.0653
239.953 39.4359 18.6635
405.087 40.9353 19.5676
241.418 42.4062 19.871
378.736 43.2146 20.8569
216.801 39.0173 18.9938
316.884 44.0075 20.9803
202.712 35.94 17.6406
266.389 39.6434 19.9114
204.827 40.7454 19.831
246.503 39.8141 19.2106
183.796 40.6297 20.8333
186.276 38.1994 18.839
184.694 42.1566 21.035
201.216 39.5463 20.2194
182.766 39.8882 20.1803
212.671 40.7393 20.7648
196.393 39.409 20.2836
220.318 35.5191 17.9916
188.503 38.4352 19.8026
240.876 38.6964 20.5159
205.251 36.96 19.5211
277.992 35.7211 18.7033
201.915 37.6273 20.586
342.272 38.1131 19.8423
196.706 38.0316 20.9109
366.209 36.0528 19.197
218.269 36.2885 19.8791
405.078 36.5163 19.7637
212.518 37.5906 21.3386
428.273 38.4326 21.0011
211.203 36.4977 20.4816
439.805 32.9161 18.6351
216.134 33.7398 18.6214
439.09 36.6127 20.5562
207.424 34.7903 20.062
418.644 34.2738 19.982
217.61 36.4398 20.6535
421.315 33.4374 19.1131
219.176 36.6815 20.9398
365.732 32.021 19.0276
216.292 35.0598 21.0659
366.831 36.2147 21.2028
193.257 31.2066 18.2784
322.973 35.2442 21.1164
186.543 34.4868 20.9211
272.332 34.0616 20.4873
191.409 34.9001 21.0086
219.174 31.8423 19.4105
164.514 31.1182 18.897
200.463 32.5166 19.8322
159.84 32.1836 19.593
176.255 31.9951 19.8288
152.555 31.8943 20.0543
161.464 33.7326 21.3246
157.622 33.4459 20.7935
160.008 33.6987 21.7844
156.64 33.0029 20.9964
157.856 30.9067 19.9767
150.045 30.2741 19.51
182.156 31.5385 20.163
149.6 30.5462 19.9334
195.331 32.0822 21.1026
162.8 31.1582 19.9357
225.518 33.0343 21.9876
160.792 31.5222 21.0556
254.218 32.7892 21.7522
174.228 31.0379 21.5721
291.858 30.5831 20.5708
183.734 32.5499 21.7298
296.458 33.3756 22.3669
192.769 31.18 21.3784
327.295 29.2929 20.7247
199.594 30.482 20.579
320.747 29.7489 20.7097
204.318 30.1541 21.1775
330.836 30.8658 21.3033
205.548 28.9974 20.298
310.084 30.0324 21.3333
199.563 27.804 20.352
291.827 29.8577 20.6355
196.917 29.9757 21.3362
301.361 29.5618 21.6234
194.282 29.5769 21.4568
266.446 29.4344 21.7105
184.075 27.3216 19.4725
230.929 29.4861 21.792
166.241 28.8838 21.5454
207.612 28.0569 20.5461
159.355 29.4485 21.635
175.067 29.2703 21.9628
154.175 27.3503 19.9711
159.392 27.7448 21.244
141.349 27.5219 20.2439
132.429 27.3019 20.7115
132.899 28.4772 21.9849
134.392 28.9912 22.0058
122.861 27.5544 21.0042
123.339 26.3204 20.286
125.351 29.3227 22.9785
140.35 28.7821 22.55
116.758 25.6294 20.2709
140.342 26.6725 20.6312
127.931 27.9418 22.1075
155.329 26.8371 21.6332
143.14 24.1252 19.6253
167.871 26.2386 21.0629
144.611 26.166 20.7951
196.99 26.0022 21.2952
168.36 26.9304 22.1153
221.472 26.7524 21.5303
171.366 25.2117 20.3793
240.67 24.9458 20.7267
182.106 24.6792 20.487
251.214 23.7225 20.0169
174.262 24.8365 19.9814
266.609 26.6577 21.9117
175.368 25.1419 21.7983
263.648 23.7589 20.5719
164.546 24.2286 20.024
259.01 24.0586 20.5289
164.598 24.274 21.0329
255.211 25.9325 22.1908
149.126 23.603 20.1997
241.648 24.5024 21.2109
145.587 23.2155 20.2856
215.578 23.3773 20.8413
146.238 25.7308 22.5535
192.83 25.8605 22.2511
123.072 21.8208 19.6823
167.944 26.0487 22.6172
121.641 22.0748 19.9669
144.321 25.2868 22.4958
113.234 24.1278 21.5568
128.196 24.1882 22.0432
119.969 24.9757 22.2023
106.393 22.3371 20.7895
101.523 24.8364 22.3558
97.4632 22.3252 20.8278
105.71 22.3109 20.3216
102.37 22.503 20.6577
101.347 22.2579 19.9666
106.117 22.3282 20.231
105.096 22.8878 21.8385
110.733 23.8307 22.7467
102.899 21.5854 19.7556
123.844 23.2796 22.4205
113.671 22.6293 21.4059
155.538 21.6657 20.3255
124.322 23.8221 22.655
168.021 21.5843 20.4792
125.116 21.9488 21.2505
196.249 21.7441 21.0037
123.016 21.7014 21.4526
215.951 22.5699 21.6742
140.755 20.9713 20.25
228.607 21.1787 21.0717
137.933 22.1429 21.8684
239.026 21.797 21.258
143.591 22.0886 22.3431
239.762 22.3671 22.3494
139.347 20.805 21.0286
236.237 22.15 21.5244
138.067 22.8569 23.6684
232.097 21.0022 21.6525
118.766 21.0638 21.5436
205.033 18.5487 18.4154
118.114 22.7064 23.7755
188.58 22.7349 23.1224
112.361 22.2697 22.3542
158.017 19.5161 20.2681
101.385 18.7825 19.6177
137.961 19.9052 21.1272
100.991 19.6431 20.0364
123.093 20.9087 22.2081
87.7553 20.1358 21.5429
111.056 21.2634 22.6964
91.6306 20.9482 21.4755
88.8338 19.7 20.5706
80.5739 19.1592 21.1337
86.4407 19.4618 21.1675
84.1079 20.2056 21.2295
78.104 19.9126 22.4605
90.8045 20.8561 22.1775
91.6719 19.253 21.4681
88.8694 19.7406 21.6736
99.2719 18.3427 20.0494
86.5648 19.7817 21.1273
116.236 20.2643 22.0879
93.1635 19.84 22.2952
139.495 19.8791 22.0004
96.8081 18.9677 21.2158
164.847 20.197 22.4174
104.396 18.988 21.3301
170.967 18.8108 21.3922
98.7489 18.4867 21.0782
184.858 20.457 22.8741
102.328 18.2962 20.5408
205.699 19.6331 23.1188
104.431 18.0877 20.7532
207.219 17.3434 19.866
96.4243 17.6965 20.3901
218.323 18.2292 21.1195
90.9156 18.9339 21.9444
218.131 18.4942 21.3325
95.7601 18.095 21.1838
205.838 18.8423 22.0647
90.1628 17.7903 21.0286
186.227 17.9 21.0423
81.4253 17.3297 20.8639
174.499 18.0386 21.5221
79.6323 18.3512 21.7401
140.559 18.3468 22.4641
81.2567 17.8382 21.1984
130.175 19.1124 22.8787
68.1675 17.598 20.8145
105.688 16.5776 20.1867
69.822 16.8335 20.7221
89.2636 17.4221 21.1555
71.4465 18.1602 22.7559
75.6357 18.697 22.2541
68.3428 16.9131 21.4177
72.2058 17.447 21.1056
67.9844 16.8814 21.312
67.7716 17.7491 22.6012
71.2127 16.4059 20.3884
76.9102 16.6925 21.1864
72.0903 18.5863 22.3516
88.5472 17.0979 21.8118
72.4253 16.9999 21.3033
112.642 16.7702 21.7212
71.2741 17.1655 22.6205
126.375 17.1262 21.8315
72.7213 16.8249 21.2423
140.577 15.2393 19.8618
70.5445 16.2036 21.2326
163.719 17.3028 21.8683
73.4841 15.2918 20.2202
167.532 17.0661 22.283
68.2549 16.7883 21.7686
177.774 16.6831 21.4438
75.8684 15.9074 20.5279
189.335 16.1272 21.87
71.5969 17.0708 22.0654
199.341 16.0764 21.8784
70.7311 16.9279 22.5366
189.142 17.2209 23.5563
65.1602 15.8871 20.7623
181.661 16.1003 22.0553
63.41 15.3909 20.5136
160.593 15.7497 21.1783
64.7437 15.4838 21.245
146.469 15.8027 20.9723
55.6497 15.1926 20.9581
123.08 14.4248 19.7221
65.7166 15.8072 22.1526
92.562 15.1728 20.7896
59.7837 16.3668 22.8242
81.9117 15.1941 21.2493
57.6962 15.3331 20.4278
63.0307 14.5787 20.4911
53.4033 16.2421 23.948
62.1636 15.1653 20.9074
56.5266 15.1821 20.8961
56.761 15.165 21.6488
52.2289 16.2144 23.0304
57.0556 15.5581 22.5859
53.5233 15.1141 21.4033
63.5349 15.1446 20.5914
51.4418 14.6695 21.4783
72.1504 14.9294 20.9313
51.7884 14.8929 21.5369
86.6442 14.6509 21.3019
54.2821 15.2523 21.9181
108.278 14.5066 21.9268
51.9164 13.7268 20.1368
122.802 14.5462 21.1871
55.4602 13.7987 20.6458
140.955 14.8137 21.4601
60.4836 14.3841 21.5203
148.45 14.3794 20.719
58.9307 14.998 22.4725
157.018 14.2374 21.114
60.9845 13.9929 21.3984
165.395 13.283 19.158
62.9684 13.5018 20.4291
158.164 15.3808 22.4903
58.9763 13.2235 19.5712
151.757 13.7223 21.6309
58.3393 13.5551 20.4435
142.013 13.8444 20.7452
58.9275 15.0053 23.1671
135.955 13.6157 19.5851
55.4073 13.4814 21.4592
117.648 13.4044 20.0967
52.4854 13.7321 21.6596
96.7905 13.4545 20.3058
52.3501 14.2443 21.6791
85.3217 13.5602 21.8726
50.0415 13.2001 20.4676
66.318 13.2258 21.1209
49.5908 12.6201 19.628
56.555 12.9787 20.7151
45.5968 13.4581 20.8445
47.3311 14.2085 22.5513
44.5932 13.9031 22.1389
45.8584 13.3025 21.0531
45.6772 13.4389 21.0309
48.9991 13.6148 22.2378
45.1143 13.0448 20.2693
52.0996 13.9213 22.2898
46.5 13.2259 21.6453
65.7103 12.9379 20.7201
47.6619 13.3365 21.2815
76.5774 13.9119 22.7212
50.2191 12.2151 19.89
91.4855 13.7391 22.8904
49.2438 13.4339 22.4542
105.329 13.0088 21.316
54.4207 12.7469 20.3969
116.674 12.9755 21.294
52.9984 12.2529 20.9137
122.89 12.9998 21.9404
61.1907 12.6773 20.665
128.331 13.0292 21.46
57.0383 12.6889 20.9117
136.549 11.304 19.1282
62.0629 12.4402 21.2386
131.407 12.0608 20.111
63.2566 13.1919 22.3571
128.924 12.7199 21.383
61.8768 12.5368 20.4202
120.993 12.8501 22.0187
58.4238 11.9955 20.2086
108.416 12.8327 22.4391
59.9794 12.6565 21.941
97.0605 12.6611 21.3119
53.6605 12.4144 21.4342
79.0297 11.3735 19.9517
50.0764 12.4444 22.0421
66.1011 11.5516 19.6961
47.1834 12.2332 20.4044
55.0213 12.0543 20.6187
46.0188 11.4005 21.1835
49.4499 11.6792 19.1584
44.2099 12.1465 21.9933
44.1684 12.6311 22.1182
42.331 11.5715 20.5149
41.893 11.5999 20.9051
40.1675 10.7815 18.2574
45.1922 11.3113 20.4855
44.2721 11.3792 20.7619
52.1192 12.1667 21.4857
42.917 11.2177 20.783
58.1598 12.33 21.5942
47.3514 11.838 21.2844
69.4672 11.5334 20.6404
50.0104 11.1379 20.6062
80.304 12.0382 22.1536
50.8824 11.7052 21.236
89.7842 12.1411 21.4424
57.3764 12.1698 21.8244
95.7531 11.6209 21.6517
62.7949 11.3463 20.7219
105.44 11.6446 21.3452
65.6637 11.8066 21.5237
109.2 10.8678 21.1316
67.5128 11.3399 20.3742
106.081 12.0104 21.4448
67.2499 11.4915 21.5402
115.828 11.0211 20.9626
68.1221 11.9029 21.4163
104.876 11.4158 21.0706
63.4362 11.3753 22.0964
100.991 10.47 19.5272
64.5629 11.3492 21.3553
93.9106 11.7258 22.6201
55.7878 11.2181 21.172
77.0376 11.5246 21.4551
60.8442 11.9429 23.1364
71.943 11.1731 21.0886
51.311 10.295 20.5074
58.2014 11.1002 21.2489
44.0744 10.602 19.5443
51.6288 11.1623 21.8907
43.4531 10.8908 20.9985
43.3743 11.3303 21.2366
39.646 11.0232 21.4458
42.5646 10.3076 19.7125
37.5568 10.6844 21.3933
39.3696 10.7987 20.9161
38.8099 11.0294 21.5611
40.8311 10.7359 19.9311
42.5485 10.8418 22.5431
45.7919 10.4457 21.1122
44.7646 11.598 22.6619
51.7194 11.0319 21.2379
48.8105 10.3065 20.0261
59.6924 10.3858 20.3558
51.4179 10.6504 21.0307
69.7579 9.94 20.7633
59.3944 9.89899 19.7102
82.9749 10.9301 21.8311
56.715 10.3622 21.2507
89.028 10.0263 20.5922
61.6346 10.6422 21.2812
92.9901 10.0189 20.0979
57.0981 10.8724 23.4486
104.48 10.548 20.9134
60.949 10.3666 20.3723
106.157 10.2308 21.1472
56.9662 10.0516 20.315
104.534 9.95906 20.6551
61.8213 9.92972 19.9992
98.4301 10.1554 21.3137
58.2813 10.5752 21.9529
90.1047 11.1488 22.7285
57.286 10.4265 20.4076
80.7033 9.64382 20.2725
55.0016 10.0538 20.5234
70.0448 10.2527 21.1961
48.3862 10.0388 20.679
62.9138 10.3727 20.6811
48.6765 9.95301 21.8927
55.1211 9.62184 20.6919
43.0307 10.659 22.0052
45.8276 9.3166 19.6553
38.3307 9.59003 20.1641
42.1719 10.1236 20.9753
39.8526 9.90759 21.3328
37.3454 9.5919 19.6775
36.725 9.42334 20.6103
36.2912 9.76231 21.3137
35.3952 9.86767 20.4396
39.6734 9.97766 21.4906
37.0328 9.9007 21.9939
44.9496 9.45018 20.2538
40.7504 9.64581 20.8581
52.2709 9.2866 19.8725
44.1893 9.25108 20.2956
61.6329 9.61994 20.3054
44.2249 9.26343 20.4646
70.7544 9.53212 20.6444
48.9527 9.22381 20.7198
80.1395 9.36991 20.0274
52.593 9.63382 21.4907
87.6855 9.22837 18.952
56.9183 9.42609 21.219
94.8404 9.5459 20.9641
53.7429 9.28839 20.5224
97.9515 8.91778 19.79
57.499 8.97411 20.3316
103.697 8.5582 19.6718
55.2959 9.95398 21.9873
98.305 9.02024 19.9757
52.1924 8.97809 20.1134
92.416 9.28262 19.7476
52.7327 9.15881 21.0497
85.7359 9.58669 21.0474
46.051 8.74424 19.6996
79.2477 9.54347 21.8576
46.0401 8.84043 20.3165
71.6102 8.50733 18.6245
39.8777 8.30673 18.6029
62.543 8.03721 18.6011
38.7467 8.67008 19.7117
51.958 9.14684 20.2966
35.9523 9.13233 21.0701
49.1208 8.76542 20.685
36.3006 9.38078 21.6104
37.1103 8.922 20.4966
33.8319 8.90342 20.5119
37.5831 8.51152 20.0283
33.9177 9.20395 20.8609
36.314 8.48584 20.5556
35.2224 8.877 20.4331
39.7075 9.16763 21.2586
36.7037 8.37939 20.0369
43.8878 9.28743 20.4749
36.3302 8.46659 20.7514
52.2886 8.4658 19.787
41.4215 8.59756 19.8955
58.9866 8.61362 19.7272
40.4003 9.03751 21.8366
67.106 8.3434 20.8978
42.7104 8.55019 20.0155
77.1516 8.33839 19.0711
44.4728 8.50027 19.2258
85.5666 8.45119 19.8702
44.722 8.99724 20.3566
98.422 8.45054 21.1465
41.4628 8.28585 19.5527
98.8344 8.8533 22.447
44.0531 8.21403 19.7714
106.162 8.70084 20.984
41.9164 9.40836 21.4617
104.674 8.19686 20.0185
41.9676 8.65486 20.0508
95.1128 8.60709 20.4476
38.4498 8.6031 21.3662
87.2326 8.34338 19.7504
39.1684 8.41077 20.8011
82.3498 8.25844 21.1446
37.3636 8.89363 21.3477
70.7252 8.44856 20.6922
34.6767 8.13149 19.6118
60.2151 7.49457 19.4466
34.3477 8.4442 21.2342
49.7875 8.59088 20.7969
31.5245 8.21141 20.5499
43.9024 8.45538 20.6122
33.0267 8.77624 21.5558
36.3273 8.06048 20.0904
33.325 8.31864 20.0529
32.8648 8.17585 19.7767
