# pn-170911/CsIIA-25-KOKB-1280-1959.psd
# Power spectrum* (dif=0,1,2) (really just |FT|^2)
# NOTE: only the first half! (symmetric)
# weeks: 1280-1959
# 3 clock-days, 0 excluded
# PSD: 1441
12838.7 0.337107 0.00985384
1.5771e+06 39.0948 0.0124735
4.87941e+06 83.9038 0.0121946
1.22609e+06 69.4208 0.0106157
1.11321e+06 53.5726 0.0225493
498277 28.6333 0.0165389
773998 71.6851 0.0174563
270765 20.3284 0.0216531
160463 34.6072 0.0310189
173967 38.162 0.0431931
95216.5 32.9407 0.0278108
102859 44.3237 0.024388
107862 36.2555 0.0411639
61043.2 42.4945 0.0464282
140501 99.0177 0.0743311
89993.4 55.0626 0.0612419
57475.6 42.8416 0.0537789
95666.6 109.241 0.125905
13997.7 33.8331 0.0606154
74136.4 80.0634 0.121243
55949.5 84.7905 0.207316
26192.4 44.6853 0.128233
30008.1 54.594 0.169308
16296 16.349 0.0763168
27613.5 37.9219 0.106818
17809.9 60.3633 0.23257
24807.6 53.5255 0.207111
15353.6 67.2825 0.279064
5992.73 6.67581 0.0401087
20474.1 51.0921 0.257583
6099.02 38.4188 0.22829
18867.9 55.9395 0.163532
8070.45 42.2181 0.139797
19147.1 68.1005 0.354627
14338.6 38.3402 0.225955
2256.87 36.1108 0.191485
23049.1 116.434 0.682896
11445.3 78.7764 0.517491
6608.3 17.7665 0.154282
7189.07 21.8842 0.129303
13543.5 56.6519 0.519552
6448.99 74.992 0.636485
13282.3 86.5113 0.686853
8708.46 52.3572 0.475357
4125.02 41.9075 0.414845
6722.88 24.3907 0.304713
3466.32 18.9142 0.242171
12078.4 94.474 1.09989
3495.08 26.5541 0.283366
6795.9 51.5044 0.536608
4997.18 104.458 1.2196
8922.88 58.1822 0.710298
4050.52 70.1299 1.06213
7018.72 103.095 1.54981
8842.64 95.6965 1.37314
5860.76 45.0294 0.789349
5451.61 75.2673 1.03715
13930.6 141.971 2.31803
3628.77 39.2359 0.48633
2094.96 14.0621 0.328699
5876.62 92.3089 1.44697
5485.63 63.6931 1.16312
10938.7 143.118 2.72046
7203.96 135.904 2.56747
9569.31 129.082 2.43333
3448.88 41.1663 0.968792
8697.84 99.8107 2.12038
3701.6 63.0484 1.27952
2559.85 29.6506 0.740389
1709.82 35.106 0.66276
2265.58 70.6258 1.54868
4645.12 49.8652 1.23701
2896.28 47.8868 1.21657
2324.6 48.8078 1.07583
2515.63 63.782 1.93419
1306.7 25.9062 0.754232
1770.54 47.8427 1.03476
3205.22 97.0927 2.94336
3783.44 102.991 2.78466
5098.8 74.492 2.15721
3391.44 89.5038 2.71991
2503.79 66.9598 1.86617
2407.12 100.857 2.95615
859.232 33.2776 1.07181
1658.62 51.1389 1.96807
2410.23 60.1348 1.90357
2896.2 75.2043 2.52465
1555.59 41.6291 1.63828
1533.13 32.9611 1.1678
1700.93 60.781 2.3535
1684.94 38.946 1.60042
1989.27 56.7911 2.07276
1132.33 48.1957 1.81635
1597.31 62.9187 2.57153
1510.99 55.3312 2.29259
931.528 34.8801 1.81625
2660.44 104.135 4.22227
855.947 13.2538 0.665837
1225.06 33.6192 1.34186
1275.85 31.5753 1.35542
1359.29 64.1484 3.04317
1716.6 29.1861 1.32366
239.438 12.2769 0.752712
1063.41 27.3631 1.72224
4876.64 184.004 8.37174
1503.14 60.4512 3.14569
2984.67 106.051 5.73597
1252.78 47.473 2.61089
1085.88 47.7026 2.67292
733.493 39.479 2.47107
1139.9 62.9399 4.12069
1693.81 52.9201 3.44676
701.603 26.5763 1.40578
1003.36 27.2586 1.37864
1343.4 66.2627 3.91169
3226.59 137.819 9.18353
635.218 64.3804 3.63063
641.743 48.8238 3.04507
1619.79 81.7336 5.88606
924.616 70.4067 4.80993
102.366 36.9771 2.58392
1135.12 84.4004 5.64618
892.486 48.2322 3.17492
1251.81 60.9931 4.51872
869.705 95.817 7.15172
935.883 61.5385 4.65279
642.552 20.606 1.95767
1531.68 84.147 6.27885
475.506 42.7379 3.01849
542.191 34.7684 3.12393
955.365 70.4946 6.31294
563.507 17.7486 1.87362
1199.91 88.9345 6.20116
1245.15 92.4905 7.20429
719.574 66.0275 5.71206
1269.77 62.0713 5.09411
1168.04 88.0562 8.23074
896.144 50.1669 4.084
865.573 83.1045 7.47705
266.348 26.4183 2.83817
1103.12 77.8453 6.29519
1496.68 136.893 13.5946
204.666 25.9289 2.81331
745.735 75.1309 7.16953
1654.65 76.3767 6.34113
1276.42 77.1698 7.59011
1475.71 125.322 12.8817
446.912 28.9226 3.0436
508.647 67.9947 6.5879
310.952 24.4013 2.19186
509.557 43.2787 4.7664
359.896 38.1166 3.7991
221.098 14.1881 1.52337
297.333 47.5641 5.95729
960.09 74.2282 7.50413
390.144 27.7403 3.31399
476.209 44.5443 4.88408
826.87 45.3876 4.73162
1433.72 149.83 17.4588
268.677 24.3655 3.1374
521.951 39.0265 5.88827
844.817 89.2912 10.2463
665.384 48.3205 6.73685
72.5265 19.1964 2.55428
312.759 62.3091 8.18099
760.158 54.3126 6.49534
436.822 78.1459 9.12063
737.432 72.5059 9.81438
728.568 110.761 13.7129
510.309 61.4135 8.97076
948.516 82.7919 9.35788
663.035 105.443 14.9699
447.511 37.6114 4.52445
685.603 60.1096 9.02211
307.85 20.5727 2.4842
314.658 39.7682 5.47983
540.149 94.7824 14.6392
561.551 74.926 10.3422
250.705 20.2225 2.86497
229.058 29.4933 3.6648
828.397 118.583 17.889
468.972 64.7699 12.2143
675.76 49.9688 6.26905
109.863 6.45241 0.9009
397.684 43.6757 7.38583
94.0668 11.6553 1.88394
526.331 43.3149 6.9824
505.551 48.9985 8.46858
89.9676 11.2767 1.72079
160.917 43.957 7.48792
217.823 18.9756 2.88729
468.151 83.4122 15.3983
262.15 18.6527 3.11732
526.599 58.2442 9.54368
79.7849 33.4164 5.61763
350.121 58.3507 9.71914
717.71 88.1933 17.6959
891.872 119.446 20.5056
95.5644 15.3316 2.64986
188.649 25.5158 4.41396
307.701 46.8138 9.00193
137.126 21.429 5.16358
357.395 65.9423 10.9884
326.305 40.229 9.13377
110.326 32.1157 5.0353
169.919 30.2483 5.84561
222.345 27.9783 5.6676
360.447 73.0492 13.7362
274.918 42.3608 8.00161
176.885 74.9323 15.8861
60.6607 18.6064 5.86398
215.129 23.2416 3.94373
337.318 60.7058 11.8677
133.525 50.419 11.0403
154.332 59.2668 14.2341
439.487 59.0758 14.1133
505.616 121.823 26.2886
190.441 33.4482 9.3342
529.625 44.2286 6.91861
715.544 112.87 22.3173
361.165 61.892 15.3593
447.236 48.576 10.4955
135.23 15.4808 4.71038
210.236 39.0206 8.35242
120.784 31.6402 8.30178
213.519 40.0819 10.4976
451.466 62.9173 13.1769
434.829 53.1854 12.7876
146.522 33.0956 8.07655
357.914 35.4246 7.40336
223.061 43.8654 11.7502
247.706 41.7635 9.85633
414.841 98.4584 28.0692
790.111 119.842 27.6187
195.724 24.3836 8.45376
56.4575 17.9565 3.67672
433.895 61.6666 14.7336
53.3387 1.0509 0.404292
241.082 44.5789 11.496
288.802 32.4792 8.89299
74.7773 5.49504 2.46859
48.8486 16.309 3.95091
87.586 21.2944 6.52235
346.548 86.6125 22.291
156.712 10.3376 2.6084
407.432 82.3535 24.9344
59.1934 16.857 4.40792
73.8772 9.71766 3.10691
83.8848 16.4796 5.4702
145.114 19.6485 7.74897
126.258 51.43 13.9232
243.047 49.6643 15.198
303.399 60.7841 17.0673
273.39 31.7695 9.80643
221.327 46.833 15.2442
89.0734 5.22508 2.23197
129.882 26.9532 8.03769
83.2408 66.525 19.4646
223.673 59.1066 18.7734
142.227 13.0809 3.61
376.649 72.3594 19.105
354.928 89.5559 27.7533
196.135 50.6253 20.8879
336.297 87.1252 29.7231
176.812 31.5647 7.06366
72.3454 23.2266 4.96503
165.016 47.1272 15.8987
160.546 30.5907 9.4136
232.537 52.8295 17.5205
200.4 62.3877 23.5975
113.692 16.8755 3.95665
161.298 72.8148 30.2638
262.761 38.2196 10.4168
74.5441 8.98752 4.92813
198.961 107.171 36.2473
222.052 52.7957 17.413
165.309 32.2816 10.2027
316.077 89.459 33.4134
268.827 77.368 26.8516
114.859 13.8442 4.7072
141.533 25.3484 9.01552
184.425 63.7911 21.3811
149.846 36.3529 16.0635
168.617 51.2856 17.7591
154 25.4797 8.59408
200.212 28.6778 11.4431
103.087 24.2518 9.72023
62.938 14.4228 5.90388
30.2549 19.0514 5.65346
129.971 32.1111 14.508
121.047 64.8737 24.6909
158.47 30.1347 9.65833
227.257 54.0281 19.1408
283.39 78.8303 29.1942
56.1977 19.7599 8.69029
53.2449 28.5891 12.1356
109.787 69.0393 29.5045
160.408 27.4939 10.7494
65.9144 22.9844 10.5526
38.0055 14.8655 10.277
159.67 39.2019 11.1443
119.501 32.0784 12.7913
99.4833 24.0524 8.90838
207.357 50.8395 22.7238
82.0964 29.3427 10.6082
149.506 60.5957 24.0987
52.1867 36.3031 15.2177
159.456 87.8297 46.4118
172.98 24.1748 8.63841
50.6087 23.5937 8.64942
94.6069 14.6522 4.35846
61.6195 22.2999 9.49825
145.74 48.4421 19.0706
202.013 55.9678 32.1286
125.359 75.6475 29.8897
172.525 89.7489 41.6773
239.712 63.4277 28.4389
88.0729 73.0316 39.805
378.474 102.072 38.3277
152.011 42.3425 21.3226
97.9795 25.3628 11.4859
113.051 21.1967 9.31203
108.753 47.0239 28.263
207.96 72.3749 28.6207
211.817 78.1366 40.3662
93.9481 54.7507 23.832
75.0716 21.815 12.9736
318.645 95.0205 41.2058
133.243 44.7897 29.0823
110.822 31.3163 16.7898
177.087 54.7394 27.5697
59.6968 36.7682 21.5409
108.336 26.8965 7.64368
179.587 83.6619 44.3084
64.2021 31.4156 12.0697
13.1087 6.15154 2.017
60.7576 40.641 19.2712
128.556 56.9512 37.9086
88.3379 24.0702 11.9121
115.266 28.7643 12.7837
144.527 31.264 15.4915
67.2886 19.1853 16.3992
112.609 71.3812 29.6451
56.4444 17.3076 8.79729
73.0211 43.1744 23.2703
55.9826 18.5912 12.7292
55.1148 13.2509 9.16291
89.8567 58.2685 34.0912
25.1324 6.16204 4.4984
76.8395 43.2425 20.8437
61.4915 20.1896 12.2469
59.0108 21.3353 12.5797
166.521 52.7744 25.8336
128.225 44.4263 19.6997
156.955 74.1032 46.9656
64.1973 8.87702 5.33763
210.784 60.9391 33.9728
71.6867 29.5893 18.0866
85.1057 36.9902 27.0036
77.8691 21.5136 12.3688
82.3208 31.4018 10.4462
171.173 103.538 65.1053
68.0287 15.6592 10.3017
69.4309 40.1028 31.0531
126.413 68.5168 37.3477
55.1114 26.6054 14.8318
56.3075 27.9891 18.4058
99.4543 36.1628 18.6872
11.4065 25.9788 19.5079
64.7038 9.89562 5.16999
67.3461 18.0281 13.2345
70.858 49.1 29.0476
28.6055 7.86514 4.92683
71.2588 36.5564 19.2874
19.4566 18.6932 11.3249
37.2156 15.8756 13.0467
81.6523 69.6837 39.708
42.3856 42.5466 36.734
112.918 45.3936 21.8044
28.8513 19.7889 17.4441
110.811 47.0657 33.4531
121.523 57.0045 32.7019
30.2502 4.15113 5.41862
154.509 66.7165 43.3518
60.6877 17.2518 9.80071
105.537 22.46 13.5915
77.3109 41.5129 23.8235
95.8434 39.3432 29.7774
45.5957 28.2734 25.6234
112.699 40.6785 30.8726
74.3304 52.8494 29.9945
69.0191 35.7302 21.6956
76.1454 29.8754 22.8453
16.882 12.3641 9.80396
38.5129 12.5897 10.9673
42.2163 10.2557 8.87659
109.524 33.2617 22.3376
61.5454 23.2275 17.1458
162.177 79.4442 48.4497
18.471 5.21585 6.44106
83.5413 38.4427 27.0695
66.9061 32.6248 15.8424
43.0755 30.0619 25.4621
119.01 57.1808 48.3034
40.4224 42.0789 36.1642
110.138 74.1911 44.1584
33.5572 33.4016 28.1303
19.0636 10.524 13.1224
89.3321 30.6844 22.9981
23.5811 12.2771 10.6149
28.8823 10.2777 10.3951
74.915 27.0122 15.8557
77.5164 45.3573 35.6126
146.767 58.3722 50.0428
93.2702 61.6369 34.9318
65.589 36.2347 32.9042
73.5563 62.2052 49.7924
182.261 85.6136 62.9556
68.3808 31.3681 23.8617
85.2298 45.9903 30.0907
33.2154 13.4905 11.5191
10.3834 7.18744 7.56249
58.0842 20.648 19.0232
34.933 13.7818 10.411
42.9669 36.069 36.3592
48.2851 55.8418 37.569
26.923 9.9326 12.2251
43.3946 26.3174 19.9884
39.1866 20.4896 19.6487
121.997 74.7776 65.7293
25.3948 37.6326 25.916
52.6008 15.136 14.0437
51.6157 31.6295 19.3109
80.4529 54.2138 56.4989
85.0934 32.049 16.7185
37.6327 18.1368 11.3056
61.7712 30.1336 32.7828
8.53544 2.73059 7.99195
32.2405 47.0597 30.6066
23.0676 40.4693 31.248
31.4353 17.8 16.6465
21.2905 13.6667 12.696
59.0353 44.7115 39.7285
31.8849 31.3368 20.649
44.4524 42.7498 43.9856
71.4527 35.7833 26.8803
18.2751 37.8803 30.2151
20.5093 17.9322 20.6375
31.5023 37.2802 34.3538
61.41 14.8164 15.5139
61.6524 29.7651 26.1164
67.5475 48.3156 37.5791
16.8943 11.9918 17.4271
58.5596 27.0842 22.2
73.9914 39.7059 27.8662
29.9319 20.6705 13.5166
28.8244 42.715 51.9144
89.2044 50.9807 42.5217
79.3378 42.0442 43.6883
47.805 31.9919 25.7501
44.6975 17.7444 22.1705
23.8717 19.6174 16.9652
53.1376 55.2271 52.1837
109.667 43.9538 33.6747
25.0217 43.414 32.4304
28.1444 19.5009 19.5317
85.7121 62.6701 53.8046
32.2031 14.4007 13.3359
52.3898 53.474 63.1945
78.8317 34.7234 25.7394
18.1669 27.3712 29.2729
43.6082 29.1742 27.4479
37.3038 9.68346 11.7326
90.1627 53.207 46.7899
47.5341 13.9178 17.237
48.5337 22.8534 23.0524
24.2498 25.5105 26.6538
32.841 7.47457 3.58695
28.2148 6.85174 8.71747
96.2028 88.2164 84.8883
15.1964 14.0543 22.8235
102.397 69.7554 59.8834
61.3099 26.982 31.4447
36.2845 22.4196 17.3015
47.7379 34.937 54.2261
20.0865 27.498 16.6289
20.0502 10.6259 9.61114
22.6204 22.8426 31.2028
51.4501 28.553 24.7727
74.896 38.9462 42.2242
33.9142 28.7152 33.5805
54.9626 35.4964 37.2689
28.2656 8.51666 7.44962
28.2128 16.3677 21.6718
46.0748 51.6328 39.5429
33.2301 23.7078 37.6617
68.8271 83.3405 66.3076
9.24236 16.6045 32.6395
48.1693 22.0949 18.172
87.0212 54.4398 60.7247
6.88213 6.43703 8.81342
11.4867 9.41809 13.9252
20.118 13.0631 17.1762
46.7997 33.7186 20.0047
62.0949 72.3103 74.6646
39.3862 16.5311 19.0405
24.3793 23.796 33.6105
41.0547 32.7029 49.6141
29.0452 22.8381 25.5295
37.809 24.6893 16.1645
22.9762 20.1448 22.3459
58.236 41.1183 46.1254
5.549 20.5261 19.9303
22.4607 50.2225 62.0909
58.59 27.576 25.5673
33.2848 30.5297 29.9615
45.6618 30.0293 32.9652
17.7426 19.3134 33.9689
39.445 20.6137 36.4686
41.6952 58.4902 65.6262
39.7428 22.3608 34.6589
69.101 71.7849 69.666
25.215 6.68969 7.73223
15.7464 43.6919 65.2912
62.2648 24.2217 10.8442
72.4515 43.2304 37.7727
34.8808 31.1594 48.0443
37.1965 23.3648 21.7537
7.5554 8.4727 19.226
46.6263 29.1557 34.3081
25.1474 12.945 8.73907
23.3116 13.5796 26.8288
11.0334 17.0601 13.0969
29.7441 22.7933 19.5238
12.6056 24.0722 40.3818
28.2513 21.2575 23.1559
22.5925 6.95088 13.8752
13.8879 11.8052 24.3376
54.5022 46.5844 61.0696
9.11155 14.741 15.2972
11.2881 8.64956 16.6459
32.2346 26.0935 24.0187
36.3073 34.3838 37.9641
69.0403 36.0799 33.961
21.5701 29.4541 36.9208
21.9519 12.4371 17.0568
47.4209 21.4967 28.3363
18.5769 11.1652 15.5356
36.9731 11.0208 14.1699
31.5451 30.3175 40.5944
41.5597 17.6687 21.9127
39.8349 31.0897 38.2455
24.106 14.6881 24.7208
6.05845 15.6372 15.3421
39.6244 39.5227 44.5282
20.6784 18.254 24.8762
36.7827 33.0013 40.0983
37.3729 27.6428 36.1024
14.3692 31.8942 46.6332
21.9846 11.3513 7.44733
19.3268 12.7864 16.5749
30.5598 20.9568 22.0476
27.9838 35.4127 55.9378
27.6154 24.6728 53.5443
29.1503 14.4423 11.3281
38.4817 35.5675 49.6079
40.2779 34.2702 42.3084
18.4144 10.6033 27.7967
61.5172 50.2866 53.7098
39.9405 28.3888 36.2975
33.2156 29.862 40.271
28.2197 32.7879 44.4748
43.1799 73.409 92.4507
20.9088 5.46682 17.1556
26.1377 47.0137 51.0592
7.91467 20.2543 29.2624
37.5928 47.2578 84.1759
15.5621 26.1143 24.3554
18.5638 20.2046 35.3877
28.7918 9.68196 17.5316
12.5304 21.934 36.1927
34.7455 22.0912 20.9682
29.2094 14.0714 29.198
10.5708 23.2214 38.3422
43.963 14.7759 6.56593
23.8359 18.5152 20.863
11.6325 28.365 45.7761
20.3838 8.50639 16.3752
16.1962 15.0925 19.344
69.898 77.8245 91.6673
13.5833 19.3015 25.7487
18.1239 12.2582 31.6862
17.0682 25.5924 30.782
9.14427 14.6166 16.8418
11.2953 26.5924 53.4855
37.9731 33.6933 60.0413
68.2928 29.9336 26.2042
13.8308 5.66258 7.97607
20.066 23.6407 56.5792
43.5034 38.3768 45.4362
10.4349 29.9575 36.4686
17.3839 16.2551 21.3447
12.0376 10.2026 15.8734
26.3549 32.8801 46.9776
17.0887 8.78427 8.93614
19.4164 10.3222 13.263
7.91488 11.1775 13.8335
13.031 32.0465 56.1982
20.959 29.8794 43.3667
23.5668 9.34402 18.941
36.7979 17.1528 30.4518
18.1489 27.9806 33.2584
12.018 10.8691 18.3369
7.77906 18.7099 40.0259
33.3376 38.1265 55.3117
33.1621 38.9252 48.9532
5.30863 8.93491 22.8505
27.4354 11.5908 20.9004
20.3512 24.6038 45.525
34.207 15.8282 24.5655
41.8926 57.2234 90.9661
29.5644 19.5096 24.9687
37.4984 21.2859 27.135
34.8379 31.7699 65.4294
24.552 17.2423 25.4544
42.9512 27.278 38.6741
41.358 36.5961 49.8762
8.56948 15.8169 19.7309
23.5641 13.6458 25.9191
2.46199 5.6123 13.0619
20.1108 17.5756 31.026
15.1693 14.537 19.4077
14.7259 7.45317 8.79987
5.43292 10.8888 27.0431
40.7458 22.5193 19.4576
5.56907 8.16513 14.7049
18.4211 6.86336 18.0863
42.8952 31.444 48.2382
14.3988 16.1709 38.1124
32.5503 35.4274 68.0915
41.1583 24.3027 17.5607
19.1275 13.622 11.2555
45.7536 55.2739 91.5625
21.0238 7.97725 11.0925
13.3117 20.7602 40.8073
7.90764 16.8688 46.3954
28.8214 22.8385 21.9053
34.3167 36.2287 50.8982
18.1351 19.103 38.7782
16.2721 25.4531 33.4689
14.3316 7.23255 16.8803
24.1733 10.829 19.0545
38.7889 25.8745 35.8028
17.6095 14.4671 37.592
9.80016 13.0805 19.3258
23.295 33.3958 62.2745
8.19028 15.1351 35.2195
18.4701 22.7875 35.9299
28.6417 18.3423 28.9277
8.26222 24.827 36.7601
13.2059 8.31753 15.6791
13.6657 12.8545 34.8932
20.7225 12.3306 17.927
12.6254 9.02662 19.3116
22.5092 13.883 33.1488
12.755 17.7494 20.4908
14.5661 7.12858 24.2993
2.01279 18.0614 35.8501
23.753 19.9198 23.2154
9.48725 13.45 25.2546
19.6951 14.9863 44.6749
18.4616 7.86154 12.3111
23.1409 24.2945 27.7478
13.4055 5.63863 10.286
9.13256 5.13186 8.08723
21.5936 15.4541 24.5436
15.3461 20.322 44.8137
26.7542 11.7817 28.6743
14.2312 14.7902 33.0165
17.4703 13.8284 14.7851
7.51777 8.621 19.1645
12.1918 11.2517 13.9385
15.3485 16.8373 41.0941
21.5956 25.7405 31.4831
9.09657 12.9567 19.6822
5.97042 6.17985 14.1205
12.9631 25.938 61.782
21.81 39.0533 64.1783
15.5527 10.3233 12.4693
6.79263 5.37461 13.6928
9.67491 29.3123 43.9064
16.3502 17.0017 58.3458
27.744 28.002 44.1081
32.3297 17.6416 35.5089
20.1909 16.9403 26.2291
17.6969 26.0184 41.3796
27.1171 24.4547 43.2533
13.4709 7.93124 22.8314
14.9449 29.2319 47.3289
24.7551 24.7592 48.1804
12.108 20.9745 57.9508
8.747 9.3809 20.663
6.63283 6.4338 12.0282
6.22212 13.02 21.5409
12.268 13.0269 15.8358
15.294 12.5426 13.0634
13.586 23.3135 67.5305
22.3373 33.0142 57.8976
34.2262 21.5443 28.5584
13.1425 6.55448 20.4622
21.2787 35.4408 66.7452
12.8786 29.4503 46.7301
12.6079 7.42587 13.1179
16.3474 14.8108 38.2517
4.17973 22.4565 42.9739
30.291 20.4734 26.0809
12.6153 11.365 20.077
4.28813 14.3195 43.5491
22.4583 33.2166 59.8948
20.9228 11.4854 23.1037
25.3523 22.9739 62.3361
7.54482 8.04172 7.2989
7.73568 7.51706 14.496
10.608 3.01735 18.0846
13.7613 11.0466 6.47222
5.58341 28.741 71.5374
26.5372 10.2565 19.4639
20.7148 7.71542 6.11291
25.3956 24.7818 44.0049
20.6585 25.763 45.9709
19.7563 24.8364 63.6237
21.4749 22.6317 39.8789
3.51138 20.5445 47.7637
16.1763 18.855 67.3252
9.9908 9.65612 16.4136
27.5423 29.4259 33.7421
10.4883 10.6076 30.0238
3.18833 0.924284 15.329
14.1765 31.092 48.8037
12.3241 14.0132 62.7886
24.7694 40.6288 54.9064
6.62246 18.2228 27.4065
6.61145 11.3438 25.5231
21.638 15.2184 37.679
13.4707 22.5404 55.0231
18.3117 18.8919 34.758
5.11442 5.77369 10.4115
5.21865 9.46911 15.9808
14.3727 27.0394 61.6054
18.5552 8.60773 12.4597
12.902 23.2669 47.6477
9.86711 11.2379 20.6338
10.5997 5.89863 11.2863
6.53244 4.89323 8.96895
8.09838 17.0777 59.0254
14.9314 22.6573 50.8395
12.2117 13.312 23.4738
8.20513 25.2776 36.7326
10.6166 13.0607 38.6624
16.9374 10.2998 54.3526
19.2316 25.6257 36.9798
22.6865 19.6072 21.8476
13.1959 17.8633 45.4164
5.90211 9.10001 18.7042
6.80047 4.80425 11.9371
9.91192 15.9537 33.8301
14.3237 8.34367 38.1062
25.896 14.142 22.1762
11.3219 22.3491 55.7987
13.9259 24.1137 43.108
9.4218 22.9266 46.1076
13.4411 4.65864 26.836
26.0106 11.0233 13.1352
18.2707 9.6517 11.3378
12.1318 8.57896 36.6839
12.8478 25.367 39.2468
9.22968 8.34044 26.6505
11.6118 7.286 13.478
11.1564 15.0705 23.8682
13.2427 24.9363 97.8128
23.8873 17.4856 10.6202
19.2407 14.97 32.2037
16.0336 19.0965 78.0449
13.7827 41.5282 57.9059
8.96107 2.88804 22.4447
20.5978 23.2104 34.1129
9.39738 13.7163 41.0807
8.54056 20.8287 28.5017
13.7629 14.5922 38.0568
9.02875 23.7989 67.0311
17.5558 7.81588 19.2081
11.2902 11.3828 20.8831
3.79639 3.0054 28.8441
11.0344 25.1047 37.0127
9.4772 5.73363 13.632
2.93606 16.967 50.2828
18.6099 29.624 59.5338
5.88289 28.05 58.6307
10.5443 14.1508 48.1522
23.7424 26.3627 62.1166
20.3767 20.7571 23.8443
9.44286 5.37381 13.9693
6.19001 23.0804 65.6137
7.27407 20.7159 51.0861
24.2898 9.2396 15.4728
10.5095 8.8622 22.0242
5.49269 17.197 36.6182
5.97045 8.61423 26.1507
11.1715 4.37161 20.6539
15.3836 8.94121 15.6871
14.0003 8.42266 19.4701
4.49092 4.50771 11.9833
11.5023 9.86187 47.2374
8.30921 6.81833 20.0235
9.0904 23.0573 39.5627
10.6937 6.79218 6.39974
9.5124 19.5025 60.0983
9.72475 10.2001 10.5861
4.80367 6.67257 17.7985
11.2719 4.63129 19.4184
18.0868 19.0118 33.9193
14.3791 17.3661 49.8257
9.92421 19.8214 50.3832
13.1447 9.4976 3.23108
7.7125 21.3741 58.8992
13.9826 8.8659 14.8859
5.65615 10.1657 42.8808
11.2491 14.0527 16.2328
5.94788 2.74883 22.0972
3.62192 12.2354 21.084
4.99837 6.96799 7.55101
4.10286 16.1419 70.6689
14.1818 19.3235 24.9294
