# pn-170911/CsIIF-65-WTZR-1280-1959.psd
# Power spectrum* (dif=0,1,2) (really just |FT|^2)
# NOTE: only the first half! (symmetric)
# weeks: 1280-1959
# 7 clock-days, 12 excluded
# PSD: 1441
4988.1 0.683825 0.0952625
445564 6.49803 0.0453042
1.16728e+06 22.5992 0.020133
1.6544e+06 79.7868 0.0422137
298841 15.227 0.0753547
234468 23.5375 0.0504758
219242 36.9928 0.0238398
132537 31.0466 0.0324124
75192.8 25.5129 0.0955622
71265.6 32.8341 0.0928787
95007.7 43.5201 0.0177137
82541 37.2259 0.0278729
34350.6 21.0773 0.0576928
54117.6 40.8629 0.0739978
19085.6 19.6038 0.0150179
26403.7 27.2091 0.0434136
41353.1 43.3372 0.198179
17417.7 24.7737 0.0410676
22037.4 31.6282 0.101812
13459.8 16.0114 0.0485423
27704.9 39.7304 0.10425
19509.3 37.8419 0.156361
12535.4 22.3495 0.0747041
7821.51 20.2231 0.08628
14817.7 48.5838 0.179921
14394.1 35.8588 0.199589
10765.5 29.2088 0.213272
9659.17 34.7593 0.127614
7635.11 28.9908 0.0970775
9813.88 38.1117 0.21641
4752.73 18.1436 0.0871368
5566.65 18.5282 0.0975877
10269.8 41.6074 0.331736
3493.91 16.5126 0.157695
3207.55 19.5621 0.222551
1726.69 14.2525 0.109986
4991.53 34.9401 0.239629
5680.89 34.6481 0.279243
5930.04 40.945 0.315142
7714.86 59.6772 0.550879
2288.63 14.0086 0.192403
4700.02 33.7541 0.325428
5668.13 45.0204 0.576224
3918.88 34.6504 0.480221
1957.26 15.2448 0.150255
2834.6 22.1047 0.198818
2505.56 21.011 0.26417
3328.47 34.0555 0.477227
3700.9 28.1916 0.344688
4488.64 52.4352 0.822621
4236.78 40.3355 0.616677
3133.62 31.9403 0.345862
5355.3 73.3356 1.04608
2302.05 30.7632 0.411758
1516.74 22.8973 0.581617
1403.56 15.4068 0.248372
1999.05 27.5674 0.465915
1251.09 16.8248 0.294497
1649.47 23.5284 0.415516
2507.62 31.8042 0.656662
1571.78 23.3076 0.406949
1441.9 29.422 0.606268
2733.34 46.0607 0.831087
1049.54 15.7165 0.419838
845.17 19.0924 0.458898
803.517 19.9728 0.348651
726.016 17.6781 0.390557
1709.34 27.9162 0.691759
1636.69 31.8822 0.783454
1296.33 27.5633 0.673888
1003.05 25.0512 0.776538
1189.4 28.8771 0.463137
1088.93 34.1858 0.858681
1401.29 24.7653 0.833399
1805.9 41.6447 0.950849
1558.22 40.5458 1.32143
1689.1 35.9237 1.01702
604.81 15.8939 0.45659
871.025 21.4379 1.013
933.238 20.0627 0.816808
508.78 18.4478 0.604918
1421.52 38.4596 1.19666
663.91 20.2686 0.704511
1382.85 39.8634 1.19554
903.985 21.6134 0.64758
779.791 28.5119 0.989364
650.968 21.8072 0.786088
1238.19 46.3176 1.69998
793.688 33.1607 1.2593
900.921 34.756 1.46529
1241.9 37.3657 1.18787
1016.03 35.2178 1.62912
515.619 13.7781 0.670202
523.066 18.2036 0.908508
590.229 17.0261 0.999672
844.878 25.968 1.18549
572.095 21.7406 0.679312
503.51 16.7975 1.06869
173.763 6.21701 0.233009
658.113 22.327 0.902373
848.463 38.892 1.89673
761.045 28.2587 1.49185
800.885 31.75 1.79629
562.104 26.9635 1.41144
379.472 18.3364 1.1841
860.377 37.8385 2.01945
593.125 29.5312 1.54904
781.527 36.7012 2.17759
610.643 25.3402 1.39261
552.278 28.8532 1.39886
776.835 38.3406 2.6085
253.048 17.0249 1.22367
413.924 26.2753 1.50285
678.449 38.7648 2.15729
415.822 20.489 1.28503
393.005 20.1623 1.09341
571.275 39.8419 2.89185
410.832 24.9363 1.69071
425.267 28.2095 1.80586
270.812 25.3178 1.8679
723.851 37.3661 2.46608
395.99 26.452 1.92511
430.892 29.2932 2.04722
430.6 25.8339 1.78956
465.804 31.4075 2.48709
392.726 30.3143 2.35934
611.501 43.9079 4.11002
387.13 17.9227 1.27324
685.468 43.0458 3.29093
466.057 33.6553 2.96878
172.518 16.8622 1.44204
385.796 23.9061 1.7344
418.611 30.7618 2.32256
305.565 27.96 2.15559
369.819 23.4495 2.23805
266.415 16.0719 1.66922
197.727 22.0025 2.11212
314.269 24.5784 2.43919
412.636 36.409 3.22516
243.411 19.5564 1.71743
324.721 29.7917 2.46847
305.545 24.1284 2.72812
234.119 25.305 1.92104
481.106 48.9347 4.02723
319.421 31.8386 3.23306
454.112 36.5389 3.63288
301.804 23.7761 2.70623
569.475 56.4525 5.30055
329.183 33.5552 3.41672
357.146 35.5122 3.72052
319.223 32.1471 2.98358
285.093 28.2951 3.17066
300.686 29.283 3.06668
356.846 31.1442 3.31632
604.078 63.9211 6.00066
192.642 21.021 2.54738
272.158 33.9864 4.13508
376.009 38.5605 4.21092
234.745 18.9751 1.82839
195.256 17.9658 2.09211
581.784 65.7882 7.92607
297.12 37.064 4.6252
154.093 17.2789 2.04539
210.989 25.8353 3.78621
126.617 15.6092 2.20845
292.301 30.0473 3.58588
228.115 32.5092 4.6406
136.172 20.6884 2.94577
196.869 31.4779 3.98566
226.468 22.4692 3.03837
161.761 24.4426 4.1128
296.799 34.1425 3.94092
259.656 32.359 4.52219
279.072 40.0035 5.19603
193.069 29.5572 4.26342
218.011 26.9984 3.64511
150.824 24.5055 3.63741
217.718 28.9509 4.38547
231.802 32.7313 4.5365
141.159 27.067 4.53073
182.633 23.802 3.89374
117.472 20.2177 2.9859
114.507 11.2557 1.46421
106.655 19.1173 3.32792
85.0508 19.2624 3.53414
75.3288 10.4537 2.32991
295.527 36.956 5.51179
400.091 62.1258 9.84512
186.89 31.1855 4.97051
162.628 24.0793 3.6895
217.069 45.498 8.41341
348.294 49.8156 8.21655
98.1841 13.7162 2.79083
194.474 30.5475 4.57984
235.316 31.872 5.72062
155.54 23.6834 4.05466
244.035 35.999 6.28897
160.612 28.7253 5.28187
170.618 26.91 5.85032
312.26 43.8887 7.157
114.499 24.3775 4.40209
76.4404 15.8978 2.84967
182.921 29.6312 5.49732
242.16 46.6534 8.67224
131.496 22.1859 4.10611
136.053 34.1469 6.85181
167.955 39.8737 8.21551
125.918 28.7228 5.55662
121.279 20.4124 4.1564
115.446 21.4643 4.07544
156.375 28.2534 5.65875
146.315 31.2892 6.69334
136.531 19.9068 3.02164
111.588 24.1342 5.1624
89.4891 18.5301 4.39094
203.847 55.7574 11.2198
137.454 24.9092 5.39064
41.9071 13.0168 3.80775
190.982 32.2475 6.59422
230.041 45.12 10.1568
102.969 15.9855 3.58226
171.734 31.3507 6.0827
159.869 39.392 8.29167
80.6809 23.9842 6.64342
163.845 22.6275 4.81139
111.199 22.0674 5.24252
64.1011 14.7674 3.36547
220.462 48.3882 11.137
110.061 31.7659 7.6758
47.5321 8.84838 2.57951
147.036 31.8659 8.3089
115.603 28.063 7.93352
206.005 46.3246 9.49398
159.56 40.4676 10.5611
85.675 21.5669 5.17008
83.3714 21.5601 6.13447
50.6914 17.1189 5.12056
203.738 43.0593 12.5631
104.594 27.1465 7.81807
90.2952 24.761 6.55919
126.381 40.3723 11.9146
100.654 28.5203 8.12911
109.243 19.0659 5.56832
122.281 24.3815 6.09824
92.6943 21.3231 5.69166
167.29 42.6296 9.96794
190.786 53.6074 15.9464
157.199 51.7653 12.4681
118.813 29.3182 9.11361
98.1802 29.1187 8.62382
106.729 31.3957 10.3591
95.6284 20.8171 4.97585
134.747 37.6794 10.6106
100.995 23.3027 6.1345
59.0887 14.2826 5.13337
57.5536 12.8807 3.96847
166.592 41.0544 11.8447
66.6778 22.5488 7.87859
76.2875 14.6258 4.22908
84.4617 23.7782 7.81974
93.7814 29.4202 9.27038
72.9616 19.0146 6.60948
93.4748 29.2836 10.2311
184.325 53.2496 16.8797
72.1686 22.9575 7.10711
81.7284 25.5543 8.73416
121.449 31.9575 9.69259
101.585 32.0181 9.90377
63.9298 13.0923 3.96466
136.926 47.2584 16.9558
157.955 38.4278 10.359
76.2565 28.1892 10.3778
48.8663 14.0703 5.55314
185.346 64.5939 22.9478
112.733 26.7275 7.587
73.4651 25.1571 9.00207
73.1195 21.7259 8.12452
57.4517 16.2336 5.19869
57.2753 14.6014 6.32163
67.7649 19.679 7.75809
74.1176 31.4554 11.9237
80.0201 21.2799 6.71235
46.8642 11.8702 5.55715
64.2767 20.4493 8.28256
94.3923 41.1149 14.1466
152.092 54.8588 23.1474
110.415 41.3677 14.3009
118.48 50.3076 19.059
37.7936 11.9597 4.52969
56.1757 18.2745 7.32567
58.9592 22.4938 8.08169
63.5047 30.0343 12.5357
106.321 36.9737 12.7092
40.9013 15.8962 8.09745
40.4716 11.0882 4.77727
123.201 41.4 17.7945
136.957 53.1152 20.7269
58.4572 22.381 10.1196
102.392 39.4995 14.4609
65.5494 29.1351 10.6955
55.1033 17.4876 7.96335
47.6674 16.871 7.84537
108.562 35.4845 15.1829
44.46 13.9374 5.19296
42.864 24.22 10.573
68.0937 30.0915 13.3216
66.7782 33.7235 15.392
78.8093 30.9424 12.5414
42.2739 23.262 9.77993
28.7652 14.3539 7.41141
85.9417 25.463 9.98532
54.526 14.3454 6.71872
76.611 28.5054 11.7025
40.773 21.8074 11.9635
96.8349 36.0727 15.2865
55.1658 24.7582 10.8664
43.7615 24.5611 12.2415
56.5305 23.8683 10.5327
66.5456 27.0892 12.6887
97.154 44.626 18.8554
29.7637 20.7467 11.32
26.6812 12.3376 6.71133
74.3106 31.8055 17.2151
91.1151 38.1855 15.9279
33.7911 18.8926 12.4192
128.249 52.1398 21.5658
44.7678 17.3815 7.90675
58.1101 25.3189 12.8114
34.412 17.8426 9.40012
80.8336 29.6893 12.5518
45.8495 19.9984 11.0624
50.0193 16.7568 7.89105
28.8973 13.7851 7.66935
27.1002 11.6728 6.61388
54.1096 31.9315 14.9812
63.4166 31.7592 16.6068
59.8618 31.0435 16.2503
55.7533 24.2081 11.3846
52.2292 25.2503 16.1198
91.0979 48.633 23.0899
49.1566 22.2906 11.8784
47.9811 30.954 17.3982
40.4437 15.0427 7.28047
22.0402 17.4648 10.7953
79.7837 37.5378 18.4363
72.5748 33.4957 18.8949
56.4237 22.9787 13.863
20.4803 8.49918 5.70373
81.1263 37.1579 19.4869
33.9607 24.7629 13.2247
59.216 35.1311 18.0667
75.311 42.1523 24.6932
57.0016 37.1267 27.4984
136.747 53.5692 21.7709
57.509 36.0043 23.9034
44.4849 23.7129 17.6777
36.5984 19.2574 9.38284
48.1928 26.0836 13.0506
42.0418 26.0341 15.5001
38.7721 18.5273 12.7312
41.2559 17.3278 10.587
49.6266 21.8319 11.0564
56.0503 22.2623 11.6603
47.3092 29.0562 18.3686
36.9119 17.5399 10.918
63.1263 34.9219 21.0136
65.5603 47.9726 30.3213
49.7497 21.0241 10.4643
42.5388 18.922 10.3388
49.1037 38.3405 24.4225
65.209 28.0538 14.5994
55.2414 29.7036 17.7422
51.2164 33.5231 21.341
39.0774 31.3105 23.108
46.1698 18.9669 11.1832
57.8743 30.2932 21.0337
87.1252 47.2811 28.3064
53.719 23.3125 12.4715
33.2259 22.7612 16.7539
61.9252 34.4371 22.8141
37.6559 23.3034 14.2374
46.7712 29.7519 19.3759
37.4429 20.7523 16.5917
38.2377 17.1273 10.5985
56.9591 32.8166 18.3981
39.9245 28.3554 23.1884
76.1506 35.365 19.6432
35.5651 27.1183 25.1577
53.6377 28.5663 19.8205
77.5819 49.7752 30.1025
46.9928 17.7238 9.00902
35.398 28.2821 20.1363
20.3039 19.1911 14.7021
53.2166 36.265 28.309
52.545 30.775 20.3698
25.672 15.9824 9.251
30.3672 20.6383 12.6898
32.4588 26.129 18.62
25.7879 21.0807 16.7698
32.6546 18.0386 12.5387
52.0865 35.9625 25.1182
47.0916 25.5681 19.1609
33.6942 21.0239 13.9936
39.7192 24.9766 18.473
30.0867 19.537 12.438
41.5419 35.9667 31.037
68.5109 33.4095 25.2445
59.4825 42.5197 28.3727
42.3242 27.412 20.172
14.691 8.58791 7.40662
46.2478 26.8899 16.2794
28.8823 18.0329 14.8204
43.0584 32.7845 24.1559
23.8964 23.764 17.0508
38.6722 30.2848 23.5003
42.9278 29.7044 26.7719
30.7649 21.244 13.1399
36.9149 30.4651 27.548
65.8689 41.1959 27.7354
63.7584 38.4725 29.6248
78.711 54.527 38.2357
43.033 29.4115 24.2875
26.3586 14.4798 12.003
79.6349 43.3759 30.9375
22.7841 15.0593 13.6712
64.3559 54.8207 40.6972
31.2218 23.5715 23.5142
34.8137 19.8434 14.0082
35.8224 28.5519 23.9098
12.912 18.8227 20.8824
42.4964 19.5989 11.692
33.0878 29.0794 26.1866
56.5611 37.6083 31.2688
38.1609 24.4876 14.8212
31.8778 25.433 22.597
42.9027 24.4779 20.9035
41.9092 30.958 29.3091
54.4895 38.6033 26.1007
24.5191 24.0534 20.5588
21.0824 16.5468 16.2021
41.3883 26.3097 23.7154
40.8478 27.8174 21.8915
57.3648 43.9952 36.9698
14.5425 12.6761 15.3909
32.8699 30.5482 21.358
26.8007 18.4371 20.6791
21.5286 23.921 24.76
63.9249 29.6804 19.0503
28.8969 17.4351 14.1276
35.4431 39.1172 38.6617
27.8514 16.9411 11.8573
26.047 22.0778 23.4406
50.3773 41.9171 32.0834
28.9599 30.5245 25.5747
33.3383 29.5378 30.1304
26.4768 15.1914 14.4133
53.3207 36.8294 28.3364
22.7478 23.9455 25.9767
19.524 12.0579 8.49013
24.5921 21.0707 19.1271
15.4196 18.292 19.4924
16.2108 11.3101 10.6441
12.6534 13.7621 17.2609
21.5537 11.7252 7.4624
31.8512 35.7264 32.787
23.4014 17.3887 18.2572
26.2672 17.3908 9.24663
40.3002 48.1986 45.4624
38.5061 26.4226 28.0704
30.7966 36.8678 36.5811
23.8248 24.9891 29.8362
64.2062 51.6641 46.7414
26.9999 21.1206 21.7301
47.1716 38.8317 34.8698
22.0598 24.411 28.7354
37.8392 21.2125 14.6656
13.061 14.919 14.4299
16.738 17.2934 26.5591
42.6008 35.3803 28.4102
27.7041 18.3976 13.4326
12.9351 19.6102 21.2102
31.8371 33.9619 35.5259
37.5938 29.2209 31.0466
47.7048 35.4618 33.2313
31.8747 32.6702 32.387
22.4708 13.6653 19.2376
79.3104 56.614 45.6656
19.5517 18.0556 20.1662
19.3986 15.6188 21.3596
46.4471 34.8252 31.1422
33.1405 24.3489 24.1475
44.5303 41.5698 41.3918
34.0774 33.3134 44.6418
59.5206 47.0218 32.4275
52.9218 53.8708 54.0394
14.7053 13.3482 16.3609
11.4635 20.0633 28.2872
20.486 24.2693 27.131
15.8462 19.1524 25.0397
29.9208 18.605 14.0837
13.3964 14.6662 19.5489
36.2322 37.3207 40.4162
46.4299 34.8245 34.9189
35.5228 33.108 38.0077
48.4608 61.1432 78.6272
44.5133 29.8886 28.5347
41.4727 52.0606 62.1562
30.475 28.6034 28.2886
25.4101 18.5317 19.4425
29.7315 32.7476 34.2311
22.9853 25.1332 27.0293
29.3382 35.9784 33.9443
17.3926 29.8187 43.1805
27.3842 22.4577 24.76
50.3791 38.5852 38.1122
24.2769 17.2377 21.7983
9.30874 17.4644 23.7016
15.8386 14.929 19.2607
49.1358 56.4868 70.8972
30.0076 17.0685 23.3395
31.4551 33.8217 31.9614
11.4114 10.5026 14.5737
20.4427 21.077 29.3034
40.7541 53.4837 50.7224
35.6928 27.0081 25.0138
14.0959 33.4287 47.4081
32.1367 20.6292 18.7122
18.504 10.0113 9.55889
31.4986 36.6869 41.7274
29.4229 41.6748 65.8208
32.1688 20.5246 19.157
21.6721 32.6797 33.8647
36.5891 29.6435 29.1479
19.3345 29.9576 42.9912
31.2305 33.1478 35.1454
29.8421 29.8043 41.8855
28.7531 28.3669 28.2868
18.5219 20.8151 25.0383
20.1638 28.5531 41.7332
14.9338 22.3008 32.271
16.4855 23.8895 42.9996
27.1644 36.0278 56.1574
46.5635 41.1927 43.0337
11.1217 8.51751 11.5075
22.8367 27.5514 34.2758
39.239 45.5118 43.704
15.5019 35.0881 57.4769
28.4259 22.7097 33.4674
47.9798 52.6334 49.1859
14.433 15.2835 20.1118
14.9599 22.5846 33.4162
11.7269 13.823 14.7041
6.27181 11.9272 18.3414
17.3089 29.7231 44.8389
28.6653 29.7293 37.9501
34.5533 49.0507 53.8511
23.9063 26.0819 41.6168
42.7123 42.261 50.4236
44.4293 43.1135 47.6898
23.5708 30.14 40.0632
19.6833 25.6676 29.1051
11.3416 16.4328 27.7208
14.8979 10.8514 13.3073
13.3099 23.0023 33.0951
29.4859 42.2841 55.0602
27.7199 28.6645 45.6694
22.1782 21.6681 18.2791
13.2149 23.5452 38.0941
22.2861 21.7817 27.1362
24.8268 28.1314 39.7911
27.22 36.1497 44.296
19.9047 15.5891 22.2048
16.117 20.3748 34.6877
27.7804 30.7654 37.6841
24.3078 36.6224 55.8134
31.4412 31.9143 40.7709
29.3819 29.2906 33.6743
13.4978 16.6211 24.1449
26.4438 30.4325 37.402
23.9516 30.3339 31.4167
26.5955 47.1366 78.8045
33.4616 46.9191 54.6038
17.0224 32.857 55.8006
15.5753 16.9222 35.7093
29.2416 41.1053 54.5325
10.706 19.4871 41.7047
27.9159 24.8011 30.8677
14.4294 11.5254 25.0751
24.4674 25.8569 28.6241
30.5516 61.3768 82.0856
35.9594 41.7679 61.634
37.0254 39.2358 43.2495
12.374 15.2825 30.4386
13.6944 21.3603 29.2593
28.6962 39.2922 58.5943
14.139 10.7658 16.1698
28.7813 39.0518 51.3421
12.8745 20.5963 32.8977
14.6196 14.5393 17.2116
10.6209 23.814 47.8817
21.6895 30.571 33.629
11.5827 24.4071 49.5502
25.8112 22.146 33.7968
24.2602 24.9608 32.2068
16.3238 27.0644 56.4262
42.5676 58.0358 68.7271
18.0127 21.2808 40.7129
40.2536 37.9181 43.0334
18.1074 35.6756 54.0503
13.8172 12.1493 21.7352
41.5946 61.7562 94.76
21.4829 28.5685 44.5157
15.0806 18.8636 33.8052
15.6379 20.2817 21.422
10.7009 24.5617 61.5502
28.8811 26.799 39.222
32.6653 34.9512 47.9016
18.0889 15.6175 14.8576
24.0471 27.7445 34.6119
6.69819 8.258 22.1952
26.2384 45.253 69.7464
18.2892 20.903 26.6439
18.1121 16.3765 16.4746
21.8906 25.9062 39.2676
14.1748 31.8092 63.7903
14.8687 19.3705 49.4394
26.2691 36.382 56.6859
30.1315 40.9136 46.3129
25.4337 39.8906 58.8536
27.8531 34.1936 49.8655
21.0568 37.1476 67.5596
18.6744 28.3064 47.8861
19.1504 18.4514 27.2437
9.73675 10.2925 20.0823
35.9713 59.062 94.2374
14.2314 19.1182 45.4851
12.0641 15.572 28.6408
23.7902 34.657 65.3374
23.5946 35.6611 58.6572
18.685 24.9372 44.8621
23.927 28.1962 39.8049
12.9389 17.146 25.0544
16.1683 24.7744 53.7963
21.7788 33.787 39.728
21.2074 32.7024 44.8392
12.1153 12.7319 26.3259
7.25012 12.1158 31.8904
23.3901 31.0355 35.4048
20.645 26.3451 41.2031
7.59452 15.6441 37.9235
19.7514 31.7909 55.013
16.026 16.043 31.1154
28.5047 30.054 46.6529
37.9556 46.0394 63.7088
16.6478 26.5718 64.5275
14.3537 22.0914 29.3458
15.8795 12.6306 24.1407
25.5553 35.5716 62.352
17.328 27.7666 44.8769
27.6826 47.6667 69.1026
14.6102 20.3264 43.0615
16.4425 23.3137 35.3137
9.23117 22.045 42.1059
18.3154 32.0641 60.3398
11.9345 18.1239 41.5837
20.9305 29.8769 48.6401
24.9435 37.2056 47.4329
13.0881 20.5293 39.0668
24.1995 42.1444 54.6632
17.6781 32.6515 74.1498
13.8285 16.9893 41.4971
27.2892 25.0465 27.8134
19.1071 40.2083 85.9847
11.2634 16.7334 42.2379
22.9996 28.9483 40.2592
11.3397 19.4309 28.4107
22.3203 31.031 44.7701
5.34527 22.4604 59.7654
23.6894 28.0131 51.1776
23.378 47.0311 94.2676
36.9897 44.2536 65.1751
15.6921 20.5889 54.2925
27.7665 33.0993 42.8007
12.6752 32.8986 50.143
6.34464 17.4058 41.1652
12.4929 14.3394 30.8093
11.2555 14.5665 24.1455
7.74672 16.2174 37.7794
18.1968 36.4732 56.5455
11.7153 22.897 51.3309
18.5809 37.8295 70.9906
20.4022 22.1278 27.7072
6.86301 23.04 48.5107
13.7787 17.7082 34.8534
25.5935 53.874 109.401
23.14 30.1054 53.0663
9.26961 20.2883 44.015
11.5079 23.6264 50.4553
24.2952 34.2961 62.8268
15.0842 20.6702 42.7487
19.1992 22.5967 40.1737
17.6736 35.3233 58.0392
20.4688 28.4983 53.6661
24.4752 48.4049 86.4893
22.905 36.4666 62.3694
12.1092 21.0957 37.9
14.241 37.1104 87.6099
19.4394 43.6197 84.5694
21.0733 24.121 46.4817
11.7333 28.2423 67.1487
30.3143 35.3734 49.6583
13.9143 35.3345 60.6175
7.63781 20.4497 46.3223
11.6251 16.5474 33.4925
15.7882 19.8236 38.4349
16.6706 42.6203 98.749
22.0599 32.9563 64.0138
14.6075 12.4682 15.3537
7.67008 15.3704 35.6877
8.53091 23.3966 71.854
16.7909 9.81493 15.6715
14.581 19.7136 28.5003
10.5289 15.051 39.7356
7.50659 21.6893 42.9384
14.5409 16.6186 38.2341
13.1055 15.9188 36.7516
13.5915 23.1309 37.6293
17.387 23.3421 42.3916
21.5498 44.9853 90.2218
18.9197 31.4692 45.3554
13.8136 26.8641 45.5117
13.0252 25.3318 53.297
9.10847 22.9825 76.9537
23.4309 48.296 76.6089
20.2351 49.2307 139.401
21.8561 49.9115 100.023
21.6075 25.5409 42.1367
11.3371 16.5218 16.9363
9.74888 25.9894 61.3642
18.9448 31.3962 52.499
9.50821 17.6137 51.9039
17.4875 26.093 44.0011
17.3962 28.4597 54.216
16.6376 35.6454 61.8765
11.989 25.4293 54.0807
12.6739 29.8165 52.8887
6.99965 22.8531 77.5255
15.6354 30.1681 70.6614
19.2709 23.7754 35.0264
13.1962 28.8754 55.6948
11.8 23.1917 43.9966
7.90022 21.4988 85.6072
23.8187 33.2684 43.2516
12.0842 29.9976 80.2289
15.9717 23.5423 45.7765
17.0911 38.4935 79.2802
16.9168 31.2896 44.25
10.1008 20.2212 50.1915
12.641 29.0423 66.1242
10.4887 25.5909 60.1963
17.6914 15.3289 36.4701
15.3556 32.7907 70.8126
15.3009 30.434 63.0591
12.3732 23.2709 67.5823
22.1968 34.0561 66.3006
18.0319 30.4898 80.9073
20.0874 48.9154 103.944
25.9581 43.4255 94.062
16.8473 29.8763 54.2243
18.083 38.4347 74.2843
9.3552 17.8305 60.5371
9.53671 20.1219 49.7212
21.7106 37.9785 78.0872
13.0094 22.2804 63.9228
12.6261 19.5782 42.1046
9.47838 18.8153 50.0513
15.4456 43.6161 96.5182
18.6574 20.9742 44.4775
15.2728 38.709 64.7023
16.6374 46.9145 105.158
11.7339 14.4106 46.9416
14.6075 15.1583 26.913
9.97937 19.6901 48.1603
8.22159 26.187 60.5254
6.50139 22.6971 62.5245
18.1952 18.5158 29.0742
11.8418 21.9997 59.0942
21.3502 40.2411 86.6855
19.7006 33.5816 64.6782
18.4582 36.2767 93.4887
20.9911 31.2422 48.7509
8.62953 14.6757 32.0652
5.50807 19.9486 40.7732
10.2244 29.0496 67.8901
10.6663 14.5974 43.9734
14.3345 34.3317 68.984
15.6309 37.954 100.812
18.9593 28.0994 57.6026
9.11524 19.2044 58.7577
9.18099 13.7074 44.874
13.0756 16.5066 30.0216
10.1156 23.9556 54.9358
19.6678 37.3645 99.7403
24.4828 36.4599 42.4327
9.21537 23.5616 60.1233
7.98654 25.6756 71.3762
13.47 25.0005 74.3921
12.8699 26.8839 70.6627
13.0463 10.6576 33.1753
16.138 36.1629 68.5865
9.28059 16.7497 45.1382
18.3991 42.8506 94.2238
18.5483 42.9888 112.775
10.2442 20.7423 30.0932
6.05749 10.7403 34.402
9.43133 15.3696 60.3531
20.6869 38.1685 70.0471
10.1439 22.584 61.958
15.6943 31.6923 93.8309
19.7406 34.0066 75.0183
27.3178 72.9531 144.196
11.3766 35.0013 93.8442
15.8508 27.3068 96.274
15.8806 25.5361 58.1001
18.1667 35.1208 50.2018
8.2561 22.5135 66.2664
8.91992 19.4449 44.8577
11.5621 38.4421 99.6913
17.3931 26.049 47.2216
11.4831 42.9745 117.556
15.6044 20.7111 32.5855
7.17213 20.6669 60.4466
