# pn-170911/CsIIA-39-WTZR-1280-1959.psd
# Power spectrum* (dif=0,1,2) (really just |FT|^2)
# NOTE: only the first half! (symmetric)
# weeks: 1280-1959
# 5 clock-days, 0 excluded
# PSD: 1441
14625.7 3.65703 0.0188181
3.49307e+06 55.1253 0.00143219
1.84767e+07 591.583 0.0121568
3.16648e+06 39.6946 0.00205312
1.66693e+06 193.112 0.0153192
1.85457e+06 115.995 0.0172905
300772 19.3491 0.00487408
434983 26.2544 0.00633496
261647 45.7645 0.0159377
304102 69.5742 0.0277203
262206 67.9882 0.0282027
243158 51.9924 0.0257216
167439 42.6491 0.0270169
78441.3 28.8099 0.0265382
125834 98.4206 0.0852421
58586.5 46.4273 0.0467107
86946 93.4143 0.117838
116908 69.252 0.101971
65457.1 18.2231 0.0323351
106578 107.379 0.183215
34104.5 28.6591 0.0572112
40464.3 37.2896 0.0833492
56838 90.5889 0.200381
26488.3 126.509 0.332284
26245.7 29.9683 0.076549
24965.6 95.6079 0.285467
59932.7 62.3169 0.215257
19088 40.8033 0.149378
4541.79 22.9747 0.0849545
14798.2 51.4536 0.199525
13899.5 25.649 0.112319
21901.3 59.7714 0.277759
22057.3 47.844 0.215907
27393.3 81.7919 0.430275
18143.2 104.33 0.601045
13920 21.9566 0.11409
10875.1 64.6626 0.398437
17531.3 119.573 0.807156
32754.8 135.722 0.945301
16751.6 80.1074 0.587551
19916.3 62.5284 0.44796
13427.6 85.9697 0.711085
9400.42 37.6758 0.276542
15885.2 69.3206 0.58063
17159.8 51.2146 0.470714
16275.5 99.2378 0.953792
8945.96 28.4204 0.287201
10298.4 61.9638 0.647679
5223.32 66.8301 0.712033
8592.54 90.5523 1.04789
11020.3 54.5338 0.67827
8707.21 39.465 0.485734
7584.95 36.5173 0.480752
4738.6 11.2053 0.140894
4096.38 44.6489 0.598195
3674.58 40.2059 0.600223
9686.08 69.0496 1.02522
5208.78 96.862 1.4783
2137.47 27.327 0.439012
6684.11 48.5088 0.861239
3129.55 67.341 1.12951
5535.14 130.33 2.28873
4744.92 35.988 0.695999
5300.62 49.3531 0.886092
1656.78 43.5925 0.864625
2758.08 19.7929 0.434054
4693.59 24.4443 0.487889
3281.39 26.8889 0.573178
3711.24 77.716 1.73193
2351.98 24.7247 0.547687
5376.54 81.6613 1.97588
3042.65 27.098 0.634218
4328.66 31.1935 0.824749
4008.24 77.0383 1.99464
4666.01 51.1619 1.22444
4424.82 86.2327 2.31121
4457.35 65.3587 1.67591
3890.7 48.77 1.41081
5980.23 99.7676 2.83603
4024.86 94.4828 2.98709
3013.69 56.4236 1.53059
3186.04 38.4715 1.20669
3444.72 50.0726 1.5413
2655.32 59.7233 2.04793
2650.62 44.5996 1.45624
1267.76 52.6214 1.81765
2835.29 40.3532 1.40335
1139.32 25.0553 0.98236
1598.98 24.6906 0.872374
3062.9 68.5231 2.49735
3163.61 53.4362 2.09767
2735.84 52.6839 2.03503
4050.52 56.4871 2.30313
1563.65 27.8302 1.23633
2677.68 62.4049 2.57985
2415.94 39.9642 1.64047
1745.42 30.6034 1.39749
1699.49 40.244 1.81345
4136.53 84.0868 3.7932
2740.07 112.638 5.12043
3540.36 78.4944 3.76738
3018.54 50.2729 2.4852
2998.37 58.9195 3.09654
1041.58 38.8623 2.00866
2266.13 94.895 5.03392
1488.17 23.8072 1.21373
1303.53 35.57 1.9575
1344.98 47.7771 2.63101
1084.14 50.9984 2.69048
1495.91 31.9004 1.77272
1245.22 67.7495 3.75761
2172.41 66.3345 3.95374
2962.13 82.44 4.91221
948.019 38.4844 2.3982
2552.41 95.0108 5.74431
1500.45 56.2974 3.73266
1140.61 42.1675 2.54841
875.643 53.4924 3.48504
1181.77 37.3109 2.33798
417.678 58.0586 4.00404
2178.2 45.087 2.98308
792.793 70.655 5.07063
1375.71 32.12 2.11478
1444.73 39.9872 3.07193
855.708 65.7768 4.86653
823.268 50.0337 3.71922
2183.8 83.6149 6.36812
837.907 24.3739 1.58376
761.054 10.0607 0.803979
2029.47 130.604 10.3471
1087 10.2817 0.70776
770.966 5.73745 0.485218
828.695 26.4408 2.26406
1072.01 30.1246 2.67791
1533.51 87.7491 7.06901
1008.27 72.2993 5.99345
920.915 41.7843 3.79971
657.596 65.1984 6.30932
1476.22 50.7845 4.2522
1818.21 92.1688 8.8724
697.231 66.6164 6.01005
1343.49 95.8125 9.50196
1574.78 58.0925 5.13661
1617.2 91.2834 8.77781
1116.15 49.5936 4.77746
917.873 40.8848 3.84288
299.726 25.6525 2.67317
1028.31 41.2614 4.06386
946.117 32.3052 3.38074
208.931 38.9102 4.07088
1089.96 63.8418 6.73754
554.141 56.0876 6.71149
476.725 38.3554 3.89861
863.199 46.1114 5.1262
1750 69.7654 7.6802
639.285 39.5556 4.98733
675.171 48.6768 4.95283
1016.71 56.1996 6.39276
505.655 41.8261 5.42434
556.524 22.6934 2.74011
846.474 67.2586 7.71513
514.541 21.6325 2.88281
206.152 41.2234 4.96973
573.578 35.8243 4.4164
264.25 27.4041 3.59842
676.585 41.1695 5.53573
839.87 55.2817 7.28946
719.355 43.2533 5.42054
1643.68 131.643 17.9324
620.028 34.5653 4.10914
672.81 54.3914 7.64947
646.485 54.3618 7.24422
174.379 15.4329 2.31182
360.038 24.5184 3.77416
388.989 36.7101 5.5491
408.936 9.98534 1.61191
785.258 35.1899 5.65783
513.944 35.6173 4.59313
639.434 40.8584 6.69894
554.505 45.1797 6.27561
488.501 43.1917 5.77651
302.372 45.6596 7.07266
650.172 44.7586 7.00133
702.3 34.3532 5.12302
371.492 46.1287 7.70244
690.524 45.2753 6.88537
235.619 29.4807 4.44939
381.625 38.912 7.01568
402.246 34.092 5.99288
719.85 42.473 6.53048
403.51 39.4731 6.30061
269.287 67.2845 12.4494
511.147 22.679 3.91178
402.752 41.962 7.57522
629.98 75.2276 12.4502
510.08 35.1904 5.55919
520.633 50.5909 9.00285
526.705 81.4683 15.5313
364.421 8.17976 1.90168
677.223 41.7956 7.80957
255.771 55.8698 10.9368
819.833 66.2347 12.7623
348.879 31.3126 5.3125
319.351 43.4943 9.43915
270.075 42.3808 9.26564
459.893 39.3506 6.16952
323.419 45.2098 9.87652
462.147 29.486 4.32508
444.167 87.1011 17.7666
773.009 80.4037 16.0605
241.38 15.8432 2.89344
230.061 48.253 10.6339
313.177 23.15 4.96279
414.903 28.373 5.8903
367.702 32.1615 6.59969
306.943 20.0741 4.70013
305.473 19.6496 3.76237
335.827 31.9625 7.95695
414.557 61.8163 12.3959
331.735 48.4065 12.7152
517.099 34.4663 7.14438
166.963 8.43798 1.81775
354.03 16.3682 3.56361
204.551 22.3886 6.82436
832.403 62.6817 12.5836
298.658 45.9177 12.0653
368.994 21.0183 4.60462
462.862 61.1061 14.9785
332.674 30.5597 8.1472
804.196 60.7718 13.9436
385.541 55.1218 13.6165
219.537 41.0421 9.67602
485.763 56.4223 13.9382
234.798 31.0358 8.64206
463.364 26.565 7.37508
157.04 16.2267 4.78516
484.952 60.5453 16.0391
335.728 29.6249 7.80212
223.5 41.9627 10.6793
466.725 86.9602 22.7363
314.707 43.7347 13.3614
430.424 27.9136 7.71531
292.359 47.3428 13.3132
277.423 56.1602 13.9327
281.002 23.7459 6.3294
75.743 24.2396 7.05658
326.395 53.9993 14.7243
487.21 31.1335 6.75965
398.114 49.2335 13.8778
258.857 23.4324 7.29846
287.322 26.0477 7.13047
157.236 10.5694 3.18991
436.289 49.5665 14.8229
168.042 35.182 13.1972
361.56 58.9739 14.2752
449.836 62.5431 19.0159
335.279 50.7873 15.0737
367.21 41.1642 15.1363
437.924 65.9914 16.9696
301.387 24.3645 8.12442
440.855 45.9467 14.3456
195.965 22.9511 7.17257
240.272 19.2561 6.41878
275.589 26.5161 8.29395
251.653 20.965 6.69353
337.105 25.5207 9.1043
128.686 22.153 9.17918
127.366 23.7157 7.59276
304.636 41.4284 12.917
173.707 15.0129 5.18904
262.433 42.4534 14.9173
419.304 52.5362 17.8273
308.199 35.7673 10.8319
304.753 49.4418 16.5467
144.47 14.6625 4.71251
174.968 45.1194 16.7802
287.065 20.8415 7.74199
300.222 45.3553 13.2794
178.377 22.5258 8.43077
253.392 27.2092 8.1964
398.74 60.7834 23.744
222.994 23.5253 11.8608
111.483 13.2157 4.88647
185.662 45.0906 15.0929
275.834 20.6658 8.5814
208.283 27.6357 9.70466
124.478 34.5293 14.0176
184.892 29.9714 8.08755
190.598 20.9358 8.02958
275.158 38.3992 14.5902
253.581 47.7503 22.2788
263.529 41.8719 14.8387
180.173 27.4958 10.3356
275.632 24.9827 10.8051
226.892 41.1973 18.2401
280.195 40.7398 15.9177
140.733 13.8662 7.04284
242.251 32.3281 13.01
330.218 84.68 35.1665
156.865 40.6595 14.7927
103.609 23.924 9.41561
136.59 28.9721 12.0678
128.279 18.3276 10.9651
198.058 44.0559 16.6713
226.917 39.7278 21.0682
129.883 24.6298 7.30319
220.419 72.8678 30.7965
143.019 34.0864 16.642
195.933 45.2526 18.0031
53.3626 15.1971 8.86225
222.566 48.529 15.5714
114.495 38.1966 18.3475
109.618 37.9758 17.6007
176.351 40.4307 19.3044
225.33 21.1867 7.26587
221.446 39.8931 19.3764
101.22 22.2961 12.7301
170.232 26.7829 9.67681
220.738 36.705 16.8607
261.381 47.0035 22.052
157.368 17.9941 8.27148
109.375 22.8033 9.41006
168.596 46.6541 21.3042
118.639 34.651 18.3635
82.5485 39.4007 15.9956
75.6776 27.915 14.8241
154.172 20.9097 12.7297
249.286 43.7288 20.3488
191.982 24.1377 11.0963
101.837 24.7651 13.5931
69.989 18.3726 9.61349
148.664 44.9602 21.1026
113.28 33.6733 18.6765
193.589 32.2091 16.8778
173.325 44.6741 22.4364
97.9442 38.1091 15.8788
38.3547 37.8679 22.0848
167.329 26.0044 13.5496
179.957 25.5237 13.9175
121.887 23.0052 11.5272
215.746 24.7282 13.2854
171.709 28.8869 16.115
127.927 26.1995 12.918
127.057 35.6258 20.4084
285.042 42.0998 20.4553
121.067 19.0857 9.83014
190.937 23.4819 15.3432
139.407 26.223 15.5669
83.7441 30.9948 17.8229
93.3224 61.0675 34.0611
88.4706 46.2789 21.4549
89.7962 21.584 11.194
92.188 24.9292 13.4613
124.446 22.0897 12.7401
138.121 14.8846 8.89371
179.107 33.5862 23.4455
104.189 56.9851 29.4191
136.736 22.7767 14.7634
128.8 53.589 32.7406
139.609 27.1518 13.9677
99.764 7.85645 3.43638
182.636 18.5241 11.1781
71.793 22.8418 15.4248
67.8032 12.3939 5.80489
172.798 71.3772 41.0811
106.413 15.4499 14.1926
70.809 16.1314 12.9922
186.892 56.5759 25.6237
142.63 20.1933 13.7272
136.126 20.2905 13.0509
123.306 36.9126 20.2436
81.4538 18.2934 9.12201
108.384 37.1851 22.621
100.07 14.1293 6.26232
73.5434 36.6704 25.8859
145.246 27.2705 12.7174
46.1011 21.6652 14.7971
116.451 27.2927 16.6782
113.296 17.1597 11.5715
66.6795 18.507 9.96927
109.54 11.9227 9.14387
72.0146 12.2351 6.73226
84.8369 25.4627 17.4733
114.249 31.549 27.504
77.7748 24.764 12.4766
115.268 23.9025 12.8966
72.6389 19.2026 14.9313
48.1744 12.9002 8.15787
108.962 14.9729 10.142
87.0145 25.3924 19.2355
116.758 25.9249 17.5737
104.499 23.1249 16.7844
131.666 16.2625 15.2568
121.664 24.7459 15.5788
82.7407 26.0913 17.3875
69.0152 8.02987 5.73013
52.5197 27.8926 22.1708
81.6402 25.4059 16.0742
77.6085 28.5296 15.4038
71.1287 29.9486 21.2496
121.998 41.6186 29.4324
53.0207 5.79268 8.3394
81.9999 21.8278 16.1655
109.631 35.3364 31.7852
133.935 41.9471 24.7827
142.626 30.9576 18.8792
88.904 41.5189 29.2676
82.2461 23.9592 23.6211
105.974 13.0415 7.69102
57.8295 20.9852 15.2506
45.9827 10.8954 9.25663
100.297 24.622 18.1115
143.888 25.0645 23.4845
47.8739 23.542 17.827
159.543 27.1327 17.7236
97.2247 20.1432 15.376
100.002 19.8998 15.5475
61.9182 13.9335 11.9384
63.7833 8.36611 5.94388
78.7076 15.8147 14.6296
76.9727 18.3518 12.2044
77.9358 13.1642 13.0414
74.4864 25.2811 16.896
75.6739 51.4868 40.5174
92.4974 14.5958 12.913
47.4963 5.14642 6.46353
79.883 15.5079 13.2567
70.7516 19.1664 12.8129
61.4736 27.5847 24.6581
87.9191 10.7322 6.54318
61.2297 29.8598 26.6208
89.4626 8.66828 6.63262
108.169 25.8418 20.0266
95.8658 20.6714 19.8863
89.8812 10.9009 6.62548
105.465 19.1653 15.7617
81.0782 10.9854 8.59144
67.3 4.47395 6.92708
63.0533 13.1802 9.31132
54.7964 34.411 24.234
58.2867 8.53632 9.76515
71.3088 15.0174 21.5988
37.1435 22.205 14.6016
84.3127 26.101 19.5442
57.9575 8.91235 14.3696
102.531 26.1068 18.3365
80.9116 12.902 9.74585
94.8321 25.3499 26.5963
42.5312 28.1479 24.8413
124.874 31.7202 19.7489
38.17 21.5379 18.5193
77.6908 23.9258 25.5664
82.0667 18.1751 15.9896
74.6414 25.58 21.3721
86.1023 30.507 28.6659
79.5933 22.2366 21.1157
80.1689 10.6345 8.82986
84.3615 17.483 16.9627
56.3004 21.7983 19.7075
70.4841 21.6214 18.4166
37.0247 37.807 34.8069
95.9709 32.0485 27.8577
53.9983 13.5718 12.9847
43.8809 13.4101 16.9568
90.6043 5.31264 4.49587
71.8223 11.1753 8.26462
76.7801 20.9668 20.2189
64.2052 22.4303 21.6925
57.3629 22.948 19.7789
106.639 30.5814 31.6741
44.9241 11.0794 12.2879
68.6289 13.7291 11.9417
23.3154 31.1811 30.7069
71.5946 25.646 22.7428
52.5107 12.4954 14.8052
66.7226 14.9213 17.0819
48.7058 4.77906 5.14268
54.0681 13.6331 13.2196
72.6578 15.0409 17.0889
53.4695 16.5636 22.7856
98.3617 18.8643 12.6386
83.1528 10.5443 8.9068
50.4559 10.4127 11.9401
45.9404 15.3078 16.5927
93.1812 22.3345 19.0562
85.1781 19.8378 15.528
73.8176 12.1349 13.7315
78.489 12.2378 10.9998
56.2972 13.7516 16.4506
74.9461 13.2751 13.0657
53.8844 14.9869 21.5296
39.9126 15.3263 26.0891
117.275 35.7825 25.1615
69.574 11.579 14.6847
36.5292 11.5895 14.2458
84.6603 26.0355 24.6609
80.654 14.884 12.9466
79.6723 17.5412 17.1952
63.6771 14.4757 17.8043
31.4316 8.12781 6.00369
31.7063 22.7366 27.0104
54.7704 15.8807 15.142
32.3065 11.1185 14.6389
73.2837 7.85948 11.6299
68.4043 13.8568 6.81539
64.0394 22.5677 22.9315
30.7613 17.1527 22.495
54.4469 17.664 19.1094
68.2456 15.34 19.9373
60.3873 11.1751 8.00347
64.8249 7.4809 7.76279
46.8288 16.6248 22.3282
83.2927 16.9349 18.0135
60.5038 8.44934 8.31639
33.4572 9.85668 11.647
51.6911 13.2428 21.9276
75.6612 21.7172 15.2471
57.4453 20.9478 20.4524
47.7106 17.1103 22.5675
61.7009 14.7161 17.6467
72.4755 30.2971 34.788
64.6407 20.7669 22.5531
46.8925 15.0147 18.2367
73.683 15.2735 19.5216
50.1686 20.1929 24.4886
55.5733 13.8938 14.5125
39.3396 15.1353 18.2427
46.0859 12.884 11.7307
36.1333 19.7478 20.4913
57.0801 24.729 39.4008
49.7492 13.1282 13.0255
61.7575 15.6802 24.8688
79.0269 32.1131 26.7963
44.9847 7.71125 10.3575
73.1212 22.2067 29.0085
31.6935 18.4492 24.3686
37.741 7.74492 12.1904
71.5305 24.4367 25.7631
37.3454 10.0662 9.03132
44.1284 9.14153 15.3471
67.2075 50.5865 59.8872
27.9078 13.7932 17.898
34.1894 9.71913 11.2876
46.8751 7.95743 7.13954
31.4593 22.9923 29.6287
51.9338 12.4818 17.2322
57.7034 11.1647 18.6943
24.9043 13.3939 14.9763
37.9676 16.4136 24.7689
65.0546 14.3952 19.7339
53.358 5.69543 4.52651
42.8632 5.76407 12.7321
50.26 25.9024 24.9467
38.4957 19.6187 27.9772
57.8103 8.28903 5.55456
48.8637 13.7689 20.0741
48.5757 10.8565 24.2245
55.4538 19.9189 18.4921
62.4751 15.3876 18.779
44.9651 7.24019 13.0053
35.149 11.4247 17.897
47.7513 20.1424 18.7479
55.3906 21.9767 32.8418
28.3887 6.15089 5.00782
30.8556 6.0203 11.5958
41.9038 9.93366 10.9368
27.913 7.69483 7.88655
38.469 2.21036 4.11357
55.043 14.3441 20.3135
53.6643 18.8016 30.8557
30.2736 21.3263 23.5914
62.1752 17.6883 22.3388
43.0106 10.3927 12.0241
45.7832 16.1364 25.054
29.8262 6.62362 6.92236
50.3583 16.028 17.3306
45.4321 9.73307 17.1388
39.1143 8.48015 14.0069
48.1411 7.82641 9.37385
59.7692 15.4584 22.2516
46.2835 7.577 13.9969
55.9468 10.5682 11.241
33.8258 12.09 16.1898
27.4532 8.06752 17.3233
34.0483 12.3354 15.9377
45.6797 2.9727 5.81455
38.3532 3.76838 5.55089
36.0723 9.37839 10.1879
32.4135 4.08072 9.6374
35.657 11.9612 14.7325
28.774 4.69768 4.59843
52.1444 17.0692 27.559
22.5511 14.2318 15.8021
32.8035 16.9943 31.0001
42.2936 14.8364 19.8925
45.3001 5.75786 7.80448
38.8292 9.54753 16.8224
55.2883 14.6741 16.9332
51.8272 12.1932 23.0008
26.4559 3.54987 1.88787
26.178 9.03516 12.7044
73.835 29.5346 42.8679
42.1298 14.7901 27.4671
30.243 14.1881 16.2428
45.2417 12.4598 21.1665
51.1442 16.2196 22.1752
43.8126 11.3013 15.8521
32.3222 10.2182 13.6058
19.0439 13.1857 16.9885
30.7823 14.3032 20.762
21.8421 10.5016 14.5614
41.6889 21.1502 35.4988
37.4028 10.1786 26.9348
45.6686 15.688 26.0125
49.6226 21.9122 29.5726
27.5441 13.8102 28.9292
20.6969 20.9595 29.2245
32.1734 4.31329 4.69252
37.5599 9.26784 12.9253
29.6379 5.64552 10.0786
34.6529 14.3257 21.4411
36.5953 12.8532 16.7115
35.6203 5.253 8.38045
42.6082 6.31174 10.6415
47.8859 17.0908 19.956
28.1821 10.5334 15.8087
27.815 15.5956 37.7113
41.8389 9.63892 11.4659
26.7443 11.5723 17.833
53.6911 16.831 24.8007
46.3111 8.90989 9.96202
36.6916 8.60861 15.8617
26.3319 12.9477 18.0658
43.1785 9.70452 17.2299
49.8228 14.6556 20.3657
25.0413 7.91331 13.1125
35.7072 11.3919 18.6624
32.2957 9.69172 20.0693
32.4995 7.76363 8.97725
36.8608 11.8182 18.4967
31.8358 11.0581 27.305
32.9036 18.5673 19.7646
31.6749 11.1666 27.322
48.5695 14.9789 20.9573
19.4295 7.88247 18.1101
32.6826 18.0244 34.3947
44.2595 12.5079 26.2153
36.6209 16.1935 24.6627
30.6651 6.01078 10.5454
24.7255 3.25908 4.01449
21.3783 16.846 26.5238
37.2344 5.99922 7.70424
20.2699 18.1738 37.0783
45.7961 11.9283 17.4961
31.3036 16.0467 32.1149
35.5378 11.2052 26.031
57.6851 21.7387 34.1871
28.8917 8.66845 18.1098
35.8827 6.31541 7.45989
37.914 10.7211 22.8363
32.915 7.51185 5.82859
33.8802 9.2164 15.6752
43.3332 16.802 43.7018
27.1304 21.2752 23.9107
27.88 8.29731 13.9168
23.6236 10.3041 25.4994
48.7015 16.0856 18.5962
26.8038 15.2656 36.8361
36.5025 12.106 16.8962
49.7172 26.2316 30.0742
29.6263 10.4262 27.3059
23.1864 8.17508 13.6315
25.7552 3.70991 6.03473
21.5662 4.02344 9.71481
22.581 3.62123 8.75648
31.8052 16.6549 26.0396
25.0935 7.83523 20.272
41.2374 14.0381 17.3056
27.1982 8.49707 19.9515
32.782 11.2809 16.4626
29.83 5.417 19.3796
37.7675 16.5706 20.5384
27.6601 7.16456 12.482
24.1771 14.1182 25.6234
25.4577 3.70029 11.5855
32.4006 13.3923 15.5128
27.9793 4.20528 10.1221
30.1296 11.3765 23.631
24.2208 5.55483 13.1302
28.8594 13.4917 25.4089
30.925 8.87847 17.7036
45.3908 13.6567 30.8063
25.7647 5.80742 12.3948
16.4359 9.55684 16.6073
18.7244 11.4485 25.7486
48.6471 15.2244 11.1875
34.139 22.3484 43.3235
42.686 11.5602 19.8294
51.8365 20.8202 44.4987
19.4515 3.94987 10.4688
26.3572 8.46059 12.0211
18.1743 12.2645 23.826
31.2031 9.35246 13.3037
20.0834 14.1856 30.0568
24.0212 8.03973 14.9642
25.5977 3.11974 10.213
22.4366 13.5076 27.7062
24.8188 4.80431 9.77054
31.815 10.8836 25.6946
16.4114 12.158 18.5795
16.1669 8.19282 13.9181
19.4949 5.90014 12.0836
36.1814 8.4191 22.1637
29.1812 12.5363 28.0328
24.966 18.0172 26.9399
30.9749 4.8822 11.0713
18.2012 9.35925 19.2851
35.1715 5.00328 8.91198
36.6097 11.0896 18.1863
28.3575 11.6152 33.9532
32.2715 12.0825 20.9002
21.9535 16.6286 31.5557
17.1798 8.40792 21.5331
29.9548 4.72179 18.1889
23.3552 20.0289 32.9762
23.4753 6.74772 17.847
28.8454 9.20125 10.2007
20.8439 11.4058 25.4711
25.4805 15.8376 31.0395
18.3702 10.6789 17.8479
21.3025 6.99623 13.8859
33.7114 2.74979 5.96881
23.55 8.30861 15.8293
21.2788 1.86644 3.80208
20.3549 8.50181 28.3603
19.6875 5.85584 8.74083
30.1836 7.94434 9.41175
18.5326 8.68726 27.9162
20.4942 6.60299 4.2575
11.7513 19.3523 37.2439
31.2915 8.33985 14.0257
22.8698 7.56929 14.2171
20.1886 3.75299 13.3855
21.8075 13.2365 25.3468
25.4657 9.42642 22.0563
36.0115 8.16238 11.305
13.6045 9.31699 27.4506
29.2668 13.6563 28.4659
31.7366 8.92497 14.7257
23.5905 10.803 23.1395
29.2204 6.66243 16.5406
29.7997 11.8656 23.2372
23.642 5.18516 13.0697
23.8807 11.6384 19.5072
27.0344 9.43824 25.3564
27.442 7.92697 14.7147
26.7627 4.35129 7.00272
23.4893 3.85374 10.94
13.9976 5.25826 12.7303
19.7507 8.01357 31.6927
27.9621 10.7111 32.0048
37.9565 10.342 13.8891
22.5871 11.878 21.5085
25.4295 12.7938 23.7504
24.228 7.0255 12.532
16.31 8.81222 17.2548
31.8731 10.066 34.6167
15.8061 20.8579 38.2182
28.6855 11.3117 30.5901
40.7186 13.4754 20.5048
19.7532 7.62395 28.0663
33.9693 11.7718 15.0564
23.0887 4.8385 9.84656
25.2289 11.4817 26.2037
28.5382 8.39082 25.5164
33.3552 8.22278 14.6582
20.7932 8.67551 28.8245
19.616 9.90915 13.6905
25.5315 7.24024 14.2731
26.7584 10.4473 25.533
8.12893 13.6547 22.9479
26.0185 9.06099 19.3399
28.6698 8.7608 12.9452
22.1888 11.7809 36.0962
22.049 9.85272 25.7431
31.249 13.3589 19.2149
24.2096 9.64293 17.7819
20.9447 6.1094 22.7233
25.0853 7.47227 18.9149
24.3083 6.75765 13.2208
30.1116 12.1034 37.9329
21.0218 12.7335 26.2637
34.6967 6.70541 9.89471
26.2899 5.82487 17.286
23.7606 10.6242 27.2562
21.6237 10.1032 23.6626
18.2198 4.89931 5.39005
14.0202 12.8764 31.9618
21.2982 5.79299 17.7087
32.1704 11.1824 22.9796
23.4135 7.27369 16.192
16.2222 6.0765 13.6626
24.7093 11.6516 25.4982
18.5127 4.19051 20.3409
23.888 10.0461 17.0879
20.1323 7.26574 26.0826
27.6027 19.9979 33.9999
20.8087 5.16646 12.1551
25.2701 7.84727 24.2879
14.5996 13.2922 23.9939
27.093 6.15976 14.9314
27.8392 3.85985 8.88838
19.0051 3.54794 16.5983
28.8781 5.58746 12.3088
30.3144 10.6122 21.4585
19.6211 3.54777 11.9251
18.321 11.1584 25.3655
22.2031 12.4447 22.1891
21.0763 5.83461 19.3261
24.5488 7.74831 22.5278
18.7846 5.5561 11.2508
11.1806 7.26825 9.21289
22.0474 1.5931 4.97766
14.1405 5.7396 19.4665
23.769 14.8604 39.3775
24.7118 13.508 29.4199
13.496 5.77406 10.0109
19.3417 8.27695 26.1345
18.5965 5.79634 18.5427
27.7485 3.71378 13.943
22.0736 6.06786 14.2458
26.7782 5.75866 9.87961
26.1585 6.35031 26.2157
