# pn-170911/CsIIA-29-CsIIA-1280-1959.psd
# Power spectrum* (dif=0,1,2) (really just |FT|^2)
# NOTE: only the first half! (symmetric)
# weeks: 1280-1959
# 118 clock-days, 89 excluded
# PSD: 1441
79637.9 1.95507 0.0862878
2.39712e+06 42.5014 0.0342003
1.0753e+07 204.122 0.0365727
2.28956e+06 86.7623 0.0381802
2.00992e+06 144.037 0.0465809
1.07289e+06 109.659 0.0453242
599610 95.0188 0.0541993
502267 108.825 0.0642384
359305 91.6382 0.0650591
283950 94.5855 0.0753614
246281 104.451 0.0841981
208399 103.287 0.0923022
164202 102.832 0.102296
146641 93.4621 0.119123
120387 98.4561 0.131545
123974 112.323 0.15163
109239 117.335 0.165238
89717.6 103.904 0.169616
79557.8 104.129 0.190483
72286.9 104.786 0.206468
56612.7 92.1532 0.202318
44842.2 79.0392 0.184684
52062 110.721 0.27653
51803.2 108.238 0.317304
46756.8 102.031 0.328704
37762.1 101.847 0.338511
38569.2 106.261 0.359823
29508 86.8295 0.372899
28699 91.7869 0.369925
32895.1 111.087 0.472535
28571 102.621 0.472679
27178.5 105.96 0.50851
26858.3 113.451 0.580163
21310.4 89.3607 0.494242
22672.4 104.857 0.602501
19508 100.044 0.611716
19429.2 106.686 0.678434
17454.4 94.9981 0.657852
15853.3 98.9741 0.724737
15050.5 94.2478 0.749614
15094.7 96.5909 0.790065
14046.3 97.6104 0.810967
12954.2 101.877 0.924853
12177.4 89.4275 0.845122
12389.1 93.0928 0.876457
11756.4 98.795 0.970364
10938.5 97.6022 1.06489
10858.9 109.296 1.19122
10350.8 95.6019 1.11578
9761.27 98.4558 1.11288
8656.49 94.9116 1.2204
8724.35 91.5272 1.17952
9549.6 108.676 1.4006
8814.64 99.9584 1.39234
8313.78 100.729 1.40481
7144.34 85.0668 1.27475
7866.44 98.0463 1.44266
7684.8 96.9187 1.54835
6760.63 97.6812 1.608
7384.14 109.207 1.84824
6619.39 92.3417 1.67615
6775.97 94.5511 1.7369
6353.33 101.953 1.94982
5935.74 104.718 1.97561
6975.93 109.358 2.19095
6009.86 112.035 2.25767
6208.66 113.344 2.36727
5364.08 93.5181 2.04465
5147.12 90.0221 2.05119
6104.93 115.049 2.60274
4730.28 97.0851 2.27879
6327.04 128.448 3.19205
5848.65 120.991 3.0161
4312.24 98.0119 2.528
4613.51 105.193 2.76134
4359.29 101.421 2.72714
3763.77 94.4505 2.57678
3923.9 99.092 2.80727
3355.55 82.8392 2.43613
3314.81 81.6725 2.3705
3902.03 100.351 3.03924
3544.65 100.583 3.18111
3678.24 95.4211 3.08825
3652.95 105.049 3.52016
3128.49 90.5708 3.05198
3623.93 107.132 3.68317
3208.75 92.5066 3.31151
2648.34 83.1824 3.03541
2831.01 94.3524 3.53584
3398.95 108.703 4.06923
3489.27 114.8 4.55878
3381.17 116.56 4.57634
3338.8 106.738 4.34417
2687.46 93.63 3.88783
2520.1 88.8292 3.71318
2773.93 110.522 4.93859
2655.74 95.6592 4.20494
3015.54 122.652 5.4513
2786.57 102.864 4.77247
2048.02 79.6641 3.69045
2090.92 85.9242 4.17042
2033.55 82.7533 4.10044
2066.7 87.4763 4.39472
2083.39 92.487 4.71605
2265.21 94.4573 4.97966
2295.08 96.1644 5.00844
2463.34 110.462 5.8234
1870.96 87.261 4.72949
2163.65 104.436 5.92141
1826.21 89.3269 5.03675
2098.67 104.627 5.94182
2027.05 102.548 5.97571
1872.94 88.298 5.32782
1676 90.8766 5.6842
1811.77 89.8066 5.54313
1849.27 91.7533 5.81909
1909.32 105.406 6.70637
1938.43 108.007 6.9881
1735.34 102.204 6.68706
1803.09 101.338 6.89139
1471.28 93.2745 6.47741
1808.69 108.368 7.58913
1868.63 112.704 8.06255
1471.33 80.1161 5.70058
1613.76 102.85 7.58765
1441.63 88.2819 6.41197
1421.46 88.7611 6.65749
1506.64 97.5543 7.28292
1221.82 81.418 6.3751
1591.98 105.398 8.47711
1422 97.1355 7.99453
1332.07 93.6186 7.64182
1144.44 78.2751 6.39058
1258.57 94.8224 7.93188
1162.75 86.8477 7.37469
1160.83 97.3211 8.42183
1218.06 89.3224 7.95408
1375.03 103.432 9.08603
1184.82 96.4339 8.792
1215.09 91.3628 8.55565
1130.48 88.3618 8.46441
1279.25 89.0324 8.07094
1384.21 115.262 10.9789
1100.86 88.3049 8.70833
1168.49 94.0859 9.27301
1180.15 104.612 10.2069
1330.67 112.949 11.0774
1202.9 111.746 11.4447
1192.77 104.559 10.6372
1180.38 102.55 10.9336
933.782 88.036 9.25441
929.863 85.1034 8.94763
1047.08 106.67 11.987
959.363 91.4491 10.3088
974.549 89.4645 9.76544
810.538 82.7144 9.38776
901.393 97.8933 10.9866
809.291 87.7451 10.3718
925.312 93.8674 10.8921
964.819 90.7268 10.9323
792.074 80.8318 9.98531
960.695 106.281 12.8891
972.317 106.702 13.0847
770.272 80.12 10.1642
942.986 97.8682 12.0812
740.96 81.0621 10.5125
918.222 101.912 13.3713
836.602 92.1555 12.1163
863.717 108.474 14.6713
897.474 97.0216 13.391
800.815 91.4937 12.3607
807.543 96.4139 13.4467
856.636 105.358 15.0341
802.167 96.18 13.0782
762.318 90.3191 12.8901
717.737 93.8598 13.291
710.754 88.2806 13.0127
785.408 97.6414 14.0756
717.215 93.1397 14.0585
676.959 95.2402 14.6856
746.978 93.7574 14.6345
745.679 96.695 14.7535
721.495 99.8674 15.377
673.254 85.3229 13.0493
732.926 107.432 17.4352
700.366 92.9991 15.3678
710.446 98.1992 15.605
587.153 83.9113 13.6716
667.312 88.299 14.7823
619.681 91.9973 15.3978
727.552 101.58 17.1652
604.309 87.8067 15.2162
558.26 84.8106 14.3539
543.402 78.7527 13.9806
506.787 79.874 14.1368
496.784 77.2498 13.884
541.442 87.1946 15.9893
550.024 85.1286 15.732
534.786 80.5602 14.4099
566.304 98.0034 17.6654
543.814 91.7854 17.1248
567.037 94.0068 17.879
464.025 82.0311 15.6246
542.045 85.5704 17.0222
497.354 76.6344 14.6465
439.093 80.0054 15.5708
462.517 81.0436 16.509
569.035 89.3058 17.5496
509.438 91.9509 18.7735
594.616 104.81 21.168
459.387 80.9745 17.0391
601.948 105.302 21.124
485.722 81.6375 17.3024
504.842 92.421 20.2436
434.976 77.3432 16.2746
410.389 85.2938 18.8111
518.238 91.4089 19.4241
441.992 85.0617 19.4139
460.749 85.4421 18.5638
483.178 91.8668 20.0168
489.702 92.5864 21.2132
458.128 80.1761 19.1554
440.392 88.6376 20.321
453.967 94.0487 22.0212
452.694 83.2208 19.7266
399.055 77.7663 18.8248
381.233 75.1799 18.0397
391.445 85.2695 20.5892
430.173 84.0038 20.0257
424.421 81.1035 19.9319
418.745 87.7912 21.0687
380.779 81.7932 20.856
380.451 85.3462 21.3843
397.589 80.1898 20.5684
344.453 72.793 18.5366
382.852 79.4824 20.3205
436.181 90.0354 23.0446
427.984 90.4311 23.7925
366.33 85.8621 23.3489
363.09 76.2954 20.2881
366.158 80.4711 21.3202
378.137 89.6451 23.7631
368.397 85.0268 23.1907
343.453 77.4094 22.3531
359.222 84.0945 22.609
352.808 82.4526 22.5284
390.748 92.5101 26.0752
322.182 78.0522 22.5227
278.318 69.6345 21.1202
343.821 84.8498 23.6517
287.981 62.873 18.5545
314.868 73.4386 22.0779
326.495 81.6332 23.9906
313.814 75.1893 21.3214
309.411 76.5724 23.0057
293.748 77.7602 23.7691
317.064 83.1177 24.9965
305.921 83.7623 26.0882
328.617 85.8846 25.7022
316.093 83.7158 25.787
367.637 95.0231 29.0663
291.932 77.8372 24.6619
343.904 91.4017 28.5673
269.569 81.5504 26.6209
255.445 72.7573 23.451
291.899 80.121 26.703
330.739 94.7885 31.0778
314.58 84.5897 28.5773
315.385 87.2376 29.1592
285.552 80.6954 27.6977
329.462 87.5818 28.3798
253.236 84.174 29.9412
325.289 93.7792 32.0598
284.925 78.2651 26.712
313.694 83.0633 28.673
283.621 85.0497 29.1672
282.948 88.3331 31.6724
296.405 84.9728 31.0326
287.902 84.6865 30.0782
263.519 77.5577 27.5009
247.865 79.2131 29.3478
240.342 77.8475 28.9926
236.904 75.981 27.852
294.235 90.22 32.3599
277.599 79.1362 29.0187
254.229 78.9216 29.5732
249.454 74.3759 28.066
242.393 75.6473 28.8478
255.17 78.0461 30.0049
223.93 74.9915 28.0003
246.158 83.4836 32.4235
256.427 83.2931 33.3063
221.426 81.4654 32.4019
226.613 69.7589 26.8463
267.187 85.1319 33.97
227.255 74.1864 30.1128
252.465 88.8521 35.1888
217.099 70.4622 27.2629
220.387 81.7799 34.7673
251.916 85.185 36.8548
275.577 91.0693 36.9602
244.083 82.9354 34.7029
192.177 71.2657 29.4595
220.915 82.4445 35.3474
248.691 90.2377 38.2085
227.185 74.7859 29.8411
209.722 77.2032 33.9242
206.144 71.9421 31.4128
218.001 80.0059 35.4696
227.428 83.3309 37.7069
216.966 85.2476 36.992
207.415 71.4955 32.9545
227.072 73.406 32.237
225.138 79.3256 34.0404
255.248 95.2121 43.1222
235.417 82.3741 37.2677
237.124 83.239 35.9152
180.668 71.048 36.3255
252.093 86.899 39.6719
202.453 77.4297 35.0109
222.161 88.1007 41.0222
195.086 80.1564 39.0347
224.973 88.3554 42.4419
241.951 91.4554 40.9667
222.06 91.7504 44.5446
199.47 82.4332 38.8299
207.808 83.1229 40.1832
214.671 90.3368 46.2312
191.388 79.9011 39.3393
179.27 75.0265 37.7355
199.819 82.4149 40.0323
187.515 76.2699 38.8849
198.201 81.3684 40.7445
163.643 62.9096 32.3996
175.163 73.3728 36.352
204.76 89.2743 45.6297
189.834 83.499 43.8827
193.82 80.0536 41.1868
179.717 74.4099 37.6197
177.101 85.3716 46.1224
183.897 73.9045 37.5735
134.353 68.5931 37.5538
163.689 71.6541 37.167
138.869 61.5625 32.2665
154.885 72.5998 38.3045
162.279 75.2644 42.4085
172.374 78.6692 42.9698
152.831 77.3648 44.3018
179.182 75.2018 41.2319
172.722 74.2563 38.7649
141.908 64.8171 35.0832
180.021 91.2216 51.5357
135.979 64.9437 37.4715
156.261 82.819 46.7963
157.008 73.4088 40.7945
147.653 79.2881 47.5513
157.833 70.106 40.1219
159.839 74.8888 41.1122
150.455 81.1021 48.9903
151.262 72.4255 42.2433
174.507 82.9468 48.1388
140.526 71.1108 41.159
144.271 68.7504 38.0862
168.571 80.0946 47.8331
167.012 87.7763 52.8317
145.388 67.2306 41.1642
149.749 74.5892 45.6143
154.844 78.0734 47.9383
145.871 79.7927 49.5806
152.844 74.1887 43.7758
142.423 78.4005 48.6044
126.603 61.3217 38.247
131.558 71.4731 45.1938
125.129 68.9181 45.9479
160.228 79.6668 48.0712
130.211 70.0995 45.167
150.79 74.7583 46.9725
142.152 75.0653 48.7705
141.211 68.7381 42.6706
124.499 67.337 44.2335
158.489 82.8113 54.1489
137.578 79.4189 53.4553
130.443 72.4573 45.8307
118.399 63.0228 42.4852
122.587 66.2268 43.0115
126.393 59.9808 42.2175
129.495 64.5528 44.1291
147.111 81.9535 53.4539
125.923 77.472 55.6267
122.778 67.4417 42.8431
129.625 67.6494 46.6436
120.757 66.8379 45.1755
119.201 63.8236 43.7524
133.318 73.7954 49.2716
116.077 73.2786 50.1349
110.821 69.8753 51.6398
135.663 70.2222 47.8622
132.374 72.9929 52.6984
133.543 69.2025 47.7832
142.552 73.8373 49.6269
122.976 68.5523 52.1668
117.713 71.974 51.1768
125.48 75.6564 54.7064
101.342 63.626 44.9439
112.247 70.6146 51.5445
105.849 66.8901 49.4673
110.639 66.3224 51.4983
122.963 77.2104 57.0841
128.646 75.4993 54.0267
134.521 75.27 52.6214
106.163 72.5766 58.1784
130.134 75.1289 54.2156
127.257 84.0379 65.4004
120.19 71.1723 53.7569
119.109 71.6248 49.5988
96.5978 58.8443 45.4239
102.005 73.0922 56.681
117.027 72.2278 54.5419
115.809 73.0603 56.6113
95.3008 56.5746 44.8307
100.491 67.2918 55.2323
91.7181 59.7806 48.0113
124.887 75.6922 56.6509
98.3973 67.2347 52.9472
99.6375 66.9571 55.2841
106.522 69.7235 58.0053
112.436 62.5355 48.5932
109.224 64.0868 49.6773
100.767 72.583 62.2334
115.93 73.307 55.2703
107.841 74.8801 63.0178
104.774 68.685 56.4572
103.5 70.4221 57.2483
97.427 67.3221 54.8307
120.991 87.3838 70.6502
97.8393 73.5478 63.0383
104.813 63.7721 54.5209
105.134 67.2546 56.1008
82.4846 65.8832 56.6253
95.6729 62.5332 54.73
88.8418 57.8257 51.0161
109.3 76.1178 65.2455
98.5725 66.1874 54.1769
98.7298 68.1108 57.5629
92.0748 67.5296 60.3808
99.254 69.4042 59.7976
90.3484 62.3153 52.9398
86.8683 68.0039 60.3491
86.2913 61.9046 56.1436
86.7164 58.938 54.5957
101.283 70.4245 63.2339
99.8503 69.8661 62.0102
86.5901 65.2464 58.0192
85.6602 56.4417 51.1241
92.7336 68.4594 63.7623
104.606 80.7426 70.7366
91.2246 62.9335 58.5215
98.5674 73.1182 67.4281
84.7031 57.3295 53.1753
99.7892 73.8982 61.0007
88.6383 75.3978 74.4944
92.3175 65.5063 58.7518
73.2511 54.2403 50.0189
79.7642 63.2242 59.7064
96.6858 70.3692 68.3695
75.0271 57.1243 57.1522
97.0683 74.0818 68.0686
95.1537 75.7826 73.1992
88.8726 64.9375 58.889
78.9737 64.3257 62.4526
69.4695 51.7908 49.0686
82.2933 68.66 68.9248
77.2496 60.3057 56.7562
84.6038 64.4589 62.141
76.0128 56.8789 55.0646
83.8188 62.3803 60.4504
83.9298 71.9031 70.3694
80.8871 64.2909 61.8816
79.2202 66.4559 68.0678
67.3569 54.7237 56.8669
98.8363 78.9304 78.058
70.3658 58.9184 56.6819
78.8168 64.6021 65.9827
73.4423 64.9278 66.9671
73.2658 62.7629 65.5525
81.3341 70.4331 68.8324
74.4778 64.3394 63.5224
82.1838 67.0988 69.7757
74.5001 58.7319 61.342
72.0283 54.359 57.5509
78.8328 64.8432 69.0664
77.1513 63.0215 62.305
74.3576 63.3298 65.1715
80.0839 73.9263 80.4069
74.6583 60.3645 63.9662
79.2324 62.0136 62.4959
67.7793 53.8612 57.6663
72.7098 57.3708 62.8422
71.8176 64.1169 67.8097
68.0801 54.1116 58.2709
70.944 62.8011 63.7267
67.2513 55.2449 61.7585
78.7171 65.0221 68.6601
71.2274 63.7976 72.1041
81.7066 68.0487 72.0936
73.7089 74.3404 80.9531
69.9708 67.2499 76.0828
70.2117 61.0371 68.2535
65.5167 51.7647 62.5161
77.5306 59.8874 63.4285
71.318 60.9376 70.2198
76.3618 70.6269 74.6129
63.1384 53.5301 61.946
75.2037 65.4815 70.1267
60.6277 56.8367 67.4882
66.9151 58.6134 61.5349
68.7234 68.9234 79.9132
66.2619 60.2707 75.7573
72.4408 64.6336 73.0365
67.4474 66.8476 75.9498
66.7615 58.4007 66.3667
63.7663 50.7854 60.4447
67.3926 63.3109 73.185
65.6266 55.5698 64.3631
56.5451 55.96 66.5608
69.3156 62.5741 74.3431
65.2765 59.7307 65.7414
64.7127 58.8018 68.0719
59.8142 59.9038 73.1431
55.6228 63.1167 77.2527
52.2822 51.0705 66.3039
71.7478 61.033 67.7565
65.503 60.0069 72.5584
62.1579 57.7287 72.1457
57.824 53.483 62.8389
58.9891 56.242 70.4167
65.3608 62.33 73.3018
72.8693 65.4293 80.9339
57.4481 54.8084 64.373
54.9786 60.6779 72.9929
62.1503 63.4199 77.1342
65.3174 66.2976 81.7354
62.151 64.9044 84.8884
68.98 63.2006 77.1904
57.0678 55.0096 73.0828
59.6586 59.8166 72.8789
59.633 62.774 78.9049
50.1858 55.2382 72.752
64.2909 60.4685 74.5181
56.1088 64.6059 79.2121
56.9062 59.5434 75.1814
54.8033 59.0806 77.8554
54.9905 56.4777 68.2153
44.3512 49.3308 68.8849
49.8424 49.297 64.3455
54.6132 53.9643 73.3585
58.5874 63.1335 81.8244
67.2362 62.798 74.2277
58.0742 64.384 86.2525
48.0871 56.9985 79.9999
73.6445 72.7773 91.9208
52.9347 54.6392 69.9208
50.4836 53.3773 73.661
57.1635 65.0909 89.6376
55.2987 59.1535 82.5141
57.7124 53.4674 72.3579
60.7061 58.3273 71.6149
44.7705 46.6006 65.7032
49.8898 49.3714 68.5022
50.0519 63.197 83.8547
50.3917 58.9698 79.1187
52.0978 51.0749 68.8048
50.6255 56.6255 81.0568
52.1927 49.3693 67.2924
47.6414 53.3753 73.0348
53.792 57.6307 78.3055
53.2939 57.5118 79.8876
48.173 57.0419 75.0653
45.7262 59.7817 90.653
53.7422 61.7273 82.7009
51.8562 54.9747 69.8597
47.0347 54.334 80.4328
54.7054 54.6422 76.6015
49.2211 56.3749 78.9292
57.9039 63.6803 87.8575
46.7627 47.5445 67.5801
54.3111 59.9395 88.2304
48.8753 47.1895 69.0664
47.5075 53.2054 72.9853
38.2489 48.3293 73.3057
45.4373 47.531 66.662
48.0219 60.8002 86.2033
42.71 46.3665 69.1879
47.606 60.9209 93.1985
56.5367 52.6205 70.8548
44.1598 53.4253 80.5825
55.3948 51.5444 70.623
45.8792 54.4911 79.4643
47.931 53.1892 81.7672
53.3936 54.9865 78.916
42.7572 48.3717 72.772
57.902 58.0925 84.1896
53.3628 51.6233 77.7944
47.4244 54.7622 81.895
44.1007 52.5549 78.3873
45.293 55.5578 91.5901
54.6695 60.8355 89.2607
43.3617 46.3813 74.8428
39.9213 48.7437 74.4024
42.7058 53.2376 79.5204
50.0338 59.2538 89.6512
47.6636 49.4672 77.0771
53.3718 56.3352 81.5653
47.4387 59.4314 90.3854
45.4558 57.9814 93.0755
47.6821 59.2262 93.2057
47.8649 57.3773 83.5473
43.3852 53.3194 83.8493
42.668 50.0639 71.4387
42.5936 54.9506 88.7637
40.3707 51.7406 86.3288
51.5246 54.236 87.0675
40.8889 50.9292 77.6109
43.2079 49.1891 75.9325
45.3486 57.3685 91.2902
43.2617 57.3622 88.9403
38.64 48.2807 82.1185
46.4071 55.6303 89.6258
48.1462 54.9942 85.6569
46.1784 59.8539 94.2829
44.0897 60.9072 99.0881
39.3176 44.6433 74.4016
38.9132 49.6824 80.8669
42.5183 49.6866 72.8374
40.7235 56.6189 92.9669
41.6466 48.1705 84.0375
35.3821 42.6492 71.7395
41.4497 53.6431 84.8839
35.3433 47.3199 80.103
48.9643 53.1719 86.8473
43.3749 60.9613 100.656
45.3932 64.3822 100.687
35.9919 43.337 80.6111
39.1288 60.0855 99.8444
36.71 52.5485 92.1255
45.9483 59.669 99.5422
47.1151 54.4309 84.6889
37.9601 49.5812 84.9294
43.2185 56.7768 98.1143
42.8071 50.7913 76.9635
39.0833 47.9814 84.0143
40.4702 56.4014 97.1613
39.475 52.9452 92.1317
40.2944 55.7453 89.6777
37.1111 51.0218 88.5371
41.1126 56.1533 100.019
47.0809 57.4791 98.4863
38.1076 48.8002 88.6259
43.3934 60.431 93.9975
35.8182 54.6149 104.373
43.6132 54.6352 91.7722
37.6222 53.872 97.3533
38.9507 49.8583 81.1359
41.0095 59.3296 103.985
39.848 53.379 90.2324
38.0087 52.1588 95.3241
39.8818 54.7709 96.4014
44.5865 52.3525 91.7638
36.1812 53.494 100.902
42.2041 47.4748 85.4556
38.2134 59.0959 99.1802
35.7407 54.2394 100.893
41.5791 61.7334 109.111
34.6509 47.4192 89.713
38.9122 49.8832 77.6964
30.0141 43.3473 88.5028
34.6238 43.9375 82.4187
37.4424 54.1967 104.477
39.4258 53.5983 91.0019
36.1871 49.4724 86.3106
34.2848 51.5165 93.237
36.9669 57.5032 98.898
30.2782 47.5976 88.2824
34.978 44.5545 89.3582
33.7175 45.7349 86.1214
32.9617 48.9933 90.6631
37.6126 51.6199 93.8976
36.3903 50.6548 99.4446
39.6923 52.6319 89.3175
30.1293 51.0428 95.5171
35.4378 51.9246 96.2956
36.7722 51.1362 97.0762
34.6376 49.42 99.3806
38.5924 58.7385 106.318
36.7974 57.0848 100.099
31.849 52.7821 106.995
37.7416 53.4982 98.5528
37.0746 46.0144 90.8511
36.2973 53.2166 102.04
37.3287 56.8145 100.037
30.8535 42.2775 76.0708
28.9429 49.4092 103.653
37.8408 46.294 92.0389
35.2317 42.4717 75.8428
33.4004 52.4757 100.921
31.4128 49.8405 99.1763
34.184 48.9563 95.2072
32.7385 51.6745 97.617
34.8408 53.4104 103.262
34.3241 47.2798 86.5082
30.5388 43.0486 90.2005
29.4693 46.9241 97.9376
33.5159 47.8414 95.9745
33.1535 47.0975 85.0884
29.3351 45.0885 91.6795
32.3512 49.7963 96.4172
29.6237 44.58 91.7355
37.6332 49.9634 102.911
34.2402 51.6458 101.325
36.8605 56.3753 107.635
29.9213 48.7412 106.795
36.0775 46.0207 85.2782
34.695 52.9506 111.58
32.1306 47.5476 93.1845
32.7833 49.245 96.9556
24.1713 43.6147 99.375
34.4398 46.9868 92.8996
32.3487 46.9487 95.1548
29.5635 44.995 90.8418
32.4953 49.0095 98.0043
31.6028 51.6949 109.436
34.2586 52.9745 98.2941
30.404 44.5671 92.3989
35.2755 52.3975 103.378
27.6514 44.1047 92.3804
26.8516 44.6525 99.3214
35.499 54.5761 114.983
35.2724 47.5082 93.7564
30.899 44.7797 91.4506
30.6786 45.0967 93.8058
31.7623 51.992 108.716
30.0308 43.7724 87.8147
29.9721 45.2084 93.7633
32.8242 56.6313 116.149
32.543 49.2389 104.43
33.9823 54.5477 109.971
27.2153 39.8039 88.7341
27.0079 44.2228 92.3587
30.3755 42.082 85.24
26.3684 42.3481 91.0091
30.5187 53.3008 114.928
26.4232 42.8523 101.867
37.6999 56.9534 114.926
31.7419 47.769 100.26
29.8862 53.975 118.613
29.8886 45.9126 93.5861
25.8413 44.6732 97.1381
24.1128 42.4124 92.6389
27.7895 46.3593 98.41
28.4516 49.1685 107.287
29.8122 46.7257 104.771
34.4976 53.6647 107.482
30.0988 49.875 107.641
30.638 43.0492 86.9781
24.4312 42.0008 90.6014
25.1334 45.0843 107.414
29.1904 48.0891 108.334
27.8866 39.7991 88.613
23.8996 41.9209 110.434
31.5493 48.1536 94.1504
27.905 44.1433 94.8257
25.0649 40.1471 90.1991
24.4571 46.1042 100.992
27.9758 49.7174 107.246
27.0273 48.6235 107.896
28.4502 39.5285 95.468
27.3507 46.3962 98.5511
23.3226 46.2721 115.8
26.0417 41.1322 97.6773
24.1885 42.3249 95.056
26.6254 46.2996 99.879
26.6765 47.2232 105.167
24.9172 45.1519 105.02
26.842 46.4121 108.4
29.1604 47.3552 110.347
28.7322 47.3426 96.5694
25.1997 48.5018 116.78
29.9808 47.2684 101.702
23.5987 40.3535 98.0443
28.5503 43.1968 104.25
28.5369 45.0549 94.637
24.0622 50.3138 119.553
27.1396 47.3698 111.894
26.0141 45.733 103.06
25.5653 47.9514 107.239
29.3264 45.3833 113.947
25.5736 39.7567 97.8891
26.5239 55.3312 117.444
23.691 37.5476 92.2019
24.6225 43.9353 107.951
27.6799 47.8896 106.655
26.1305 42.2484 93.0717
24.5242 42.7325 99.9481
22.8621 40.4536 97.8615
25.3801 39.6198 94.0235
25.7969 47.0118 121.282
25.6996 42.1708 101.724
25.5666 36.2609 78.5014
26.2607 44.7879 109.074
26.9674 41.4303 99.9131
26.0157 45.2318 106.42
27.4361 45.2932 113.463
28.1511 45.507 94.0782
24.0942 45.0232 108.383
24.3717 42.0213 107.451
24.0963 39.7492 88.7108
24.6915 45.5925 115.757
25.5124 44.3801 113.138
26.928 38.1029 89.8315
22.4057 41.7395 98.4981
23.5936 47.3936 116.332
25.4236 45.4904 101.173
25.2331 51.169 127.596
23.7184 37.6368 89.3119
21.3408 37.6004 97.1793
26.1801 47.3188 115.272
21.3178 38.3979 82.6105
23.2246 46.472 127.443
27.9087 51.1262 118.176
25.0735 48.7799 133.594
27.2874 45.9223 117.829
24.4058 45.8213 115.603
25.0339 43.0894 99.7326
