# pn-170911/CsIIA-26-CsIIA-1280-1959.psd
# Power spectrum* (dif=0,1,2) (really just |FT|^2)
# NOTE: only the first half! (symmetric)
# weeks: 1280-1959
# 1 clock-days, 0 excluded
# PSD: 1441
0.418355 1.83454 0.00383779
3.86472e+06 79.0849 0.00570391
62552.5 32.7696 0.00613719
2.26919e+06 27.2925 0.00696905
4.41028e+06 238.317 0.0404452
1.00222e+06 41.4324 0.00734463
580702 185.398 0.0515622
122198 66.2684 0.010024
1.8833e+06 373.48 0.123935
2304.02 24.8835 0.0181557
349487 68.2402 0.0389129
330766 109.549 0.0392012
30076.6 46.2222 0.0549575
38974.7 5.58446 0.0199883
182075 83.2434 0.0550508
77400.6 41.5683 0.0795398
126319 62.8385 0.0677614
77096.8 99.0054 0.0874236
219731 214.498 0.281319
31350.4 10.6979 0.0109873
127913 140.338 0.3204
6440.39 0.715108 0.00841198
2399.26 17.6443 0.0617881
7431.51 1.11003 0.00133536
28413.5 20.3862 0.0420952
46502.3 55.6706 0.194314
12731.9 5.97816 0.0391446
42127.8 121.655 0.526523
19939 17.5482 0.0837324
33397.4 75.6483 0.39365
15431.7 34.416 0.0911013
1091.23 26.8012 0.154313
10369.4 28.371 0.0787088
43815.1 193.273 0.856528
14634.4 173.624 0.907466
7242.11 122.587 0.717501
3501.07 53.861 0.310692
23473.4 66.9837 0.378498
603.931 14.6978 0.123125
4187.33 19.1623 0.190317
15126.8 105.03 0.9579
20255 64.1508 0.474668
12544.6 33.2574 0.294477
10204.1 91.2015 0.652324
8367.98 116.979 0.98917
4980.4 22.7135 0.171909
14357.8 54.6016 0.54866
22369.1 117.98 1.25296
3648.45 51.8937 0.481366
1244.39 5.57962 0.0916066
4215.08 7.04133 0.0648143
4789.81 10.3656 0.143679
1103.45 13.0996 0.227673
8782.88 48.0614 0.557586
3551.75 12.9389 0.149055
2750.01 18.8292 0.327408
7355.11 39.7176 0.655672
2718.56 7.28192 0.0842757
4052.38 15.5546 0.304345
3016.75 17.1987 0.405607
1827.5 41.0235 0.534404
6033.65 119.99 1.93324
208.699 37.0225 0.653604
8557.9 202.589 3.85834
4598.1 97.6276 1.91737
6729.41 75.023 1.56808
5448.29 37.1472 0.778687
12807.9 159.874 3.40417
961.169 8.36885 0.187978
1151.45 51.9224 1.16879
3254.36 133.852 3.41602
7417.13 111.134 2.45224
1318.4 51.8911 1.30325
2179.73 53.0535 1.53559
1168.34 3.00195 0.0373913
2535.04 13.2767 0.336516
3770.79 129.216 3.81737
5320.95 57.6255 1.60188
4087.43 43.7679 1.39089
310.057 14.9483 0.485497
608.352 67.6744 1.94093
3585.86 152.124 5.36729
6071.3 151.202 4.30319
1012.53 12.5803 0.473898
198.356 53.2365 1.98907
1239.61 18.1274 0.504664
893.577 36.1516 1.41199
7738.16 153.063 5.17805
3744.76 50.1628 1.78249
1604.54 36.7416 1.66501
7920.98 175.084 6.58317
818.002 51.4374 2.23099
2027.89 25.7441 0.808413
1906.64 97.6747 3.82424
1140.66 4.38338 0.102436
7626.05 177.543 7.2322
5583.37 135.959 6.47894
31.3493 9.923 0.351793
3162.83 61.9797 3.04489
1739.84 57.1934 2.87668
551.131 31.3057 1.17813
262.28 36.3217 1.56214
1578.41 86.9396 4.54637
709.096 42.4476 2.03375
3966.4 192.753 10.1187
804.108 117.291 6.85421
861.174 13.0763 0.377872
1302 34.6856 1.57946
379.862 5.49905 0.285025
239.873 1.44369 0.103836
2451.36 172.781 10.7458
1836.29 27.8492 1.3514
1892.22 57.0098 2.97101
817.345 45.8582 3.39986
3148.87 134.093 7.13554
1790.27 62.5407 3.99579
212.594 66.2395 4.53538
3750.27 120.64 7.72505
283.983 65.6938 4.18166
442.101 9.96173 0.852238
3065.74 96.7955 6.21898
509.322 9.3006 0.727794
2616.27 93.715 7.16663
103.249 39.7641 2.34378
254.985 5.51298 0.401866
1081.79 159.987 12.1075
105.045 7.74849 0.9283
904.023 39.6638 3.07436
3523.89 148.602 10.8688
1162.21 38.9965 2.813
261.3 20.6954 1.93932
2579.47 107.681 8.43693
813.638 34.9403 3.04494
156.666 25.0636 2.03537
1968.48 70.7177 5.23423
3722.57 261.593 24.6351
2264.46 130.394 10.4179
126.339 1.54387 0.0872516
333.043 2.99083 0.375643
84.6794 55.0572 5.23545
1797.09 65.3313 5.54871
871.814 44.3078 4.49798
1352.27 57.0196 6.00564
243.345 20.017 2.04384
876.416 59.5915 6.39196
1374.08 239.028 22.9714
704.449 10.0828 0.646173
2343.77 160.908 16.4239
636.53 26.3124 3.91629
98.4681 34.7199 2.85865
530.458 61.7969 7.51573
373.214 38.6214 3.38242
332.52 14.3931 1.54876
667.852 18.0365 2.09752
178.868 27.2422 2.88085
1863.67 129.848 15.2357
1135.78 68.7298 8.22663
187.326 49.3201 5.17237
562.218 18.8299 2.59644
874.769 83.1408 10.8858
1401.29 148.884 16.3247
305.119 16.4481 2.41294
464.261 23.3556 3.63887
108.5 18.6224 2.51564
145.361 59.2442 8.18525
548.708 62.5921 11.3039
697.997 44.2808 3.14277
1838.89 169.05 21.5233
78.8152 2.64231 0.166093
33.7853 7.70247 0.764453
66.8483 15.0239 2.09391
105.619 0.680018 0.152907
343.017 16.0871 1.81359
286.051 44.7761 6.74952
376.966 10.5289 1.36805
74.8395 8.22092 0.923794
79.6873 38.8732 5.98436
168.583 2.10307 0.0938069
1237.92 151.252 21.0223
677.347 86.973 16.317
568.458 44.8479 5.78237
249.456 112.243 17.2801
470.068 13.0951 1.70391
24.5318 7.46763 1.28618
370.287 24.3739 4.22715
210.165 2.38111 0.242065
437.696 24.9783 5.1148
29.1749 23.8735 2.69004
183.519 107.143 19.0064
115.175 7.28297 2.22319
543.41 27.8945 3.82551
574.176 25.7592 3.6468
277.276 12.51 2.36134
746.562 56.2706 10.3978
695.074 48.7419 6.98463
1287.74 130.001 25.3511
151.374 3.86669 1.77326
170.958 5.08274 1.30542
735.43 78.5117 20.2022
896.753 210.035 37.0718
101.624 30.7527 3.20913
96.6951 15.9896 1.64698
259.923 74.8746 13.9758
101.742 26.0279 3.73211
63.1857 55.987 11.9993
1206.7 134.522 28.0343
44.0169 43.0294 6.2345
226.317 31.6817 7.93138
105.28 74.1185 12.7798
135.959 101.745 23.1701
814.699 115.085 26.1993
233.416 18.5932 1.63867
237.001 39.4981 7.60857
140.118 30.9468 6.86683
88.2021 78.1802 18.4046
364.325 19.6001 4.70626
1081.45 153.411 32.1971
23.1234 23.8126 4.24467
199.098 7.70132 1.38105
196.211 53.2784 12.6583
62.709 1.63024 0.848876
348.7 26.1042 7.18178
27.3458 10.9072 3.39704
22.4742 5.2861 0.952373
159.448 68.6033 15.0116
380.364 40.7139 11.2704
286.028 168.596 40.4646
97.7883 21.499 6.52529
290.048 14.7727 4.55327
589.257 86.6056 17.6022
219.711 23.9263 7.35122
68.3965 62.343 16.4401
897.229 127.421 27.5602
2.22756 28.105 7.3167
180.563 8.3668 1.48119
154.138 3.70891 0.631385
73.5713 51.6727 14.9107
404.92 31.439 6.31878
284.423 16.806 3.78959
276.62 27.4228 9.06942
468.03 81.6731 20.6019
209.893 12.9084 4.32523
14.869 4.23144 0.8422
12.8079 20.041 5.33684
130.124 6.21849 1.19676
401.895 53.2845 14.8133
251.576 21.1624 8.45061
500.773 169.887 48.4606
355.761 28.9662 7.12186
156.578 14.1305 3.77458
24.1019 8.72316 1.44975
391.857 67.2276 21.9775
31.1022 20.3747 7.96713
159.154 85.2005 17.9179
134.796 69.204 18.66
196.476 115.994 43.1249
152.374 26.9583 7.12101
376.545 34.1014 8.6121
12.4148 7.7905 2.54747
208.574 24.6779 11.8985
247.278 102.541 25.3116
13.1916 14.5927 5.4929
143.07 25.847 7.81115
28.3424 6.00908 2.90804
269.757 63.7005 24.1493
229.344 21.0177 3.64635
166.585 50.5704 16.7313
9.4967 11.2533 5.14592
131.863 6.12751 4.15644
581.856 237.657 84.4506
573.244 79.4019 18.1792
157.907 49.6615 18.7119
27.6875 8.64767 3.7515
96.4155 6.42141 5.12969
532.13 73.5891 19.471
234.617 30.3291 14.4228
231.848 84.5708 25.1897
12.5261 6.0074 1.72833
66.8643 2.60486 0.697211
32.608 17.2284 6.30968
51.5924 15.2274 5.49657
6.73809 50.8889 24.237
238.775 10.515 1.18291
422.993 111.864 37.6485
159.797 10.1602 3.10962
568.38 123.331 41.5004
123.204 63.272 31.0467
279.114 28.7088 10.0701
291.482 65.1404 22.0658
178.491 17.9387 7.50029
375.687 92.395 51.2735
167.616 77.3355 18.0969
96.8448 81.2061 28.7709
41.5151 80.5907 32.6083
37.2849 4.65871 4.72031
365.915 81.8643 33.8111
50.4259 4.16162 5.1238
277.095 52.6387 30.5887
104.457 95.191 29.4715
20.0214 34.9314 17.8322
244.533 20.0638 6.16479
416.382 113.079 35.8
166.6 65.8782 30.4337
20.1038 47.2816 15.4105
70.6831 41.3767 19.4358
1.18873 22.6847 12.1421
84.6647 9.10899 3.8793
99.8548 50.4369 25.4867
130.189 8.57059 1.81131
23.9526 34.0879 13.9776
77.9325 54.9598 34.4126
322.799 64.3819 21.2546
342.976 62.7542 26.8965
25.9656 11.3602 7.84258
92.8942 36.4668 10.8469
80.6352 67.618 36.9213
241.296 34.6072 17.5354
83.0014 9.72154 1.14096
272.288 57.9519 22.5049
91.4716 26.4729 14.4466
41.9883 2.3849 4.04651
5.48663 10.9096 5.43745
158.697 137.864 53.3912
3.793 51.3328 30.0242
93.0721 17.9929 7.04776
9.97819 63.9323 37.4174
132.301 58.3583 37.7354
107.064 25.5479 14.5815
151.251 5.78008 1.62888
301.541 49.18 15.9031
119.904 15.9743 8.56106
64.415 2.15924 0.83011
10.6083 17.0042 10.5593
140.804 10.9318 3.44711
23.8199 14.17 16.2337
683.747 219.985 102.949
73.3609 24.9528 11.7174
74.2218 6.43088 4.35809
36.295 28.4467 10.0216
42.295 7.43991 2.66479
109.604 61.5797 37.5862
91.0184 145.594 81.6247
78.5703 19.5855 18.4104
272.246 38.2893 11.3357
91.326 6.76432 3.68493
17.6665 9.67437 11.5742
240.838 45.2703 15.3646
59.0014 19.7554 12.1333
61.7796 0.258126 1.6957
396.495 117.65 69.7613
213.129 163.565 88.1644
47.7562 14.1597 10.2967
396.213 139.021 67.7777
82.315 14.9019 16.4422
108.265 11.7683 1.97091
225.461 109.239 59.981
112.882 22.5871 11.4461
167.169 50.1677 29.438
2.91494 14.6858 7.73686
154.388 44.0935 26.1073
143.708 31.1054 23.4918
12.3651 1.69031 1.866
24.2967 38.3231 18.0127
10.0997 6.7203 6.62026
69.6526 144.848 100.476
526.304 282.073 159.401
110.035 5.17946 0.0918332
89.5223 19.917 20.2063
173.318 95.1944 52.8561
148.785 20.1864 9.26035
23.7962 16.4114 9.423
45.53 14.8847 16.7517
124.216 25.9156 8.29509
56.3179 21.7648 15.0143
13.752 26.349 18.9194
53.7556 3.28491 6.19479
150.984 26.4657 11.6328
18.6203 16.7702 16.1341
92.8426 26.8665 13.7952
126.034 16.4629 6.19307
17.0197 5.8809 8.36321
147.491 26.6515 9.40649
174.213 52.9217 31.4083
101.559 8.79816 2.64883
212.986 79.2417 57.437
163.34 39.152 22.2531
70.7815 16.2756 15.5758
1.43102 23.4024 13.944
83.9683 24.3227 15.5108
32.3898 0.413408 1.96458
103.491 29.2187 16.4439
156.039 35.1486 22.6335
94.2634 34.6493 24.55
77.2862 13.6498 4.09896
136.481 35.3722 24.1268
50.6699 44.2491 26.5121
77.3293 51.5816 51.5382
149.467 25.0946 11.3575
114.724 31.6155 29.1354
12.0013 7.29672 14.1007
38.4603 17.9904 4.84488
58.2083 29.3622 20.279
97.7331 20.9082 15.3043
45.7028 18.154 11.6002
130.537 24.2192 13.0268
49.0933 3.49689 2.11978
69.0474 11.1404 9.73709
40.6043 2.67653 1.03457
87.3459 22.5969 18.6474
28.542 3.9877 2.83479
79.3407 27.6912 35.7319
69.1424 57.4541 32.3447
23.4571 23.9669 18.9949
76.7452 27.2042 14.5164
9.37503 9.03715 6.3985
41.0907 24.0153 23.8442
71.6421 7.45336 6.93436
39.2209 18.52 33.9836
167.838 66.603 30.2196
58.5272 15.3706 24.5396
210.538 137.042 83.4911
0.984604 22.5072 25.9165
214.353 65.6034 34.6128
108.325 40.5212 34.599
68.7012 34.4511 44.7684
38.3868 64.3735 45.8
7.44363 18.3605 27.2408
18.4278 10.2487 3.18875
22.029 33.3388 26.2539
96.2045 78.596 76.7399
40.0783 32.4866 23.7877
70.0702 18.2518 13.2988
80.6502 7.49002 2.32264
44.3689 8.07705 11.1429
94.6802 34.6425 21.7568
11.5068 5.24845 7.90876
121.234 48.624 33.9595
15.6488 5.17632 7.59294
74.2632 36.964 40.5574
155.244 44.6072 34.7474
139.425 47.168 42.8717
95.8918 34.0825 31.5618
19.7916 18.0151 25.4493
54.5077 23.118 56.4873
234.733 138.417 79.4432
4.96593 11.9132 6.78547
25.1113 0.326263 1.05862
17.5379 0.781959 5.85253
60.3881 80.8064 66.6639
142.075 42.0067 33.4584
31.2078 15.7184 12.3161
39.3425 2.47648 1.05535
101.285 40.4424 41.374
91.109 39.7705 55.2981
35.7886 63.617 34.8448
78.5223 33.0874 27.4991
43.039 10.4836 18.5331
26.6362 55.0916 38.434
31.835 2.28169 3.6512
10.4117 8.45859 14.6359
43.1677 30.6142 19.4546
15.7585 20.4342 31.8404
126.588 36.0033 32.6518
82.95 21.4997 21.9869
106.477 100.594 76.0346
17.1382 10.9794 22.5805
43.9331 17.1053 11.2382
35.3903 7.90405 8.93128
97.7287 31.8815 33.1847
2.80301 4.33201 0.702291
3.89817 15.2029 16.689
95.7843 43.996 50.0141
83.3029 88.8252 91.1945
108.969 61.1892 47.0626
56.2037 15.8486 14.4388
97.375 30.1023 24.797
44.5126 40.6938 42.6358
11.3985 12.8958 16.3647
161.078 75.666 78.3919
1.83144 21.7522 13.2963
50.7636 17.0568 16.0676
14.0892 2.87531 4.47535
79.2919 69.6493 71.0203
27.6028 7.00876 24.6147
25.5026 12.4176 11.3695
101.896 36.6312 20.8469
72.6038 26.8931 31.9658
3.32213 3.54244 2.87697
21.3941 1.1581 0.349268
81.4145 83.6463 102.338
99.2438 27.4731 12.9811
43.6044 11.0595 12.3669
28.6655 6.76131 11.6628
13.0723 6.74387 13.6703
14.7205 2.40254 16.1431
35.7791 27.5495 11.7882
13.3388 0.809403 0.070368
14.9615 11.5486 4.89025
16.3241 14.7421 9.56171
22.4808 70.3036 103.169
65.8438 70.3477 89.1124
167.577 53.8282 33.5371
110.705 45.0616 40.3362
11.4473 0.936748 6.66283
47.3627 50.4025 48.6007
34.0696 1.34661 8.98717
91.5395 17.5644 6.63865
110.205 40.5991 24.3841
120.992 85.7261 106.922
28.4602 21.5933 31.7194
29.6458 10.4484 30.0719
36.8507 53.2393 56.0989
40.6992 35.9047 42.011
52.6902 31.86 23.4201
11.1793 2.92165 3.00241
57.2303 33.1801 56.8446
7.86893 21.2142 9.91002
11.8285 8.48455 13.5811
46.5864 7.40423 2.33079
61.6822 32.6328 42.0414
2.94127 12.8263 15.3899
9.67201 13.4491 19.2666
93.0706 46.915 45.1554
20.8034 37.6219 64.3554
8.01666 10.202 16.8987
55.3099 13.5396 9.95665
3.47852 6.49704 6.91316
31.6312 3.75518 5.71047
36.6956 5.40661 8.01089
15.6592 0.011146 1.08643
40.0686 9.7332 16.8089
3.4089 3.8654 2.80677
16.9745 0.0991702 0.594214
23.5497 2.70392 4.31158
34.7086 33.4475 49.8994
90.1648 34.2919 30.0228
47.886 48.6591 75.3945
9.57127 4.72079 11.3242
71.7626 22.7768 21.5316
33.02 24.491 52.641
25.4838 24.1349 110.828
154.714 125.494 72.429
2.71217 15.0018 12.1166
93.512 95.0229 108.348
69.0296 35.709 53.4482
10.678 32.0675 31.4145
105.619 68.2516 94.9582
10.1726 12.4155 13.6578
33.7439 23.5901 40.7576
7.32287 8.5883 1.88759
4.79288 51.545 70.1797
72.3611 15.2824 8.39091
48.9667 26.9518 46.8292
21.3483 8.65497 40.4206
11.8316 31.1259 17.1005
23.0654 15.6739 16.9758
76.9942 44.0873 74.3167
30.0162 30.0565 22.6316
0.00261076 20.9872 24.0984
50.3378 12.2201 16.6159
22.2864 7.78034 2.80737
45.9051 33.9545 58.3312
1.50541 15.1341 10.7202
39.2273 10.7464 18.2354
16.7033 7.49433 10.7379
23.1852 12.7495 43.9328
0.850205 8.5861 7.01534
10.6625 35.2521 32.2719
16.767 0.399706 4.9186
14.3931 5.19323 34.8822
63.686 173.225 178.283
34.3888 30.0903 38.557
11.6625 18.3195 36.9869
63.8177 14.4152 9.06874
28.4418 10.112 27.5411
6.45008 27.6794 34.8552
35.3413 102.89 145.533
69.9777 9.32014 1.55798
44.4303 16.3832 19.3737
29.8253 18.0617 40.6241
12.5571 4.48346 27.0604
22.6581 7.62194 54.2858
44.9675 20.3322 0.229096
68.4783 53.8637 53.3213
6.0874 10.4697 5.45701
3.06108 8.84473 10.1743
71.8071 48.3887 77.1807
4.82044 3.12546 54.5386
56.2312 87.1108 42.4365
17.1136 85.0547 78.808
1.27914 28.4481 39.0209
24.2192 32.4264 42.2408
33.4964 13.1847 17.4937
20.7994 11.7724 30.7148
8.49204 8.14574 3.75043
0.422464 20.0858 25.6175
24.3544 5.23144 1.4242
14.0205 9.29038 3.5334
21.9608 59.9083 91.8043
22.5368 0.343034 6.89965
43.5898 14.7229 21.091
19.1821 3.50748 9.94726
12.1604 12.6574 33.3808
3.19808 35.2251 34.1621
15.3167 5.96185 7.2303
6.9237 18.0596 24.1548
10.5963 4.98122 17.7814
40.2209 6.9353 6.7953
38.5574 18.6949 42.4593
5.31003 35.889 62.2029
70.3344 66.7695 78.4122
1.48702 34.3782 42.629
3.28771 14.2006 27.3874
13.7501 5.82019 10.5355
14.38 2.65517 10.1361
16.8554 0.640787 8.40491
39.038 14.3893 16.4173
3.90972 5.40194 11.5238
16.9714 7.13501 8.59062
33.427 28.2006 43.2476
36.2354 17.2866 49.3436
49.4204 21.1076 17.7681
13.1709 13.0751 26.9255
19.1946 18.7314 17.6909
26.023 18.2984 39.866
21.6568 9.14586 52.0559
43.4406 29.978 15.4165
16.0109 3.04019 7.28386
16.259 9.04561 23.1089
2.16074 14.218 3.56729
14.8263 27.0108 42.3666
2.34008 27.1238 35.3529
25.5259 3.62011 10.9998
23.448 46.3017 70.5695
16.5964 0.543748 0.533797
13.9994 9.68019 50.088
11.6289 55.6097 47.2219
17.134 86.1105 138.708
25.4581 3.24012 34.9756
56.4754 12.603 11.3918
11.1959 7.50706 19.3027
62.6201 41.1172 37.5193
11.4399 7.86951 13.8829
4.04953 4.30371 4.07287
20.4323 53.6305 102.249
26.9698 0.172964 12.1448
34.3987 3.13023 0.380937
61.3554 76.2477 157.788
3.35533 44.1176 135.201
83.9064 36.1942 6.37598
27.8244 8.65173 0.766125
46.9344 39.9675 55.5615
14.4375 9.60011 23.4556
36.891 18.8099 14.7269
13.8763 1.26407 0.352591
31.6793 16.3376 34.6565
4.09698 2.69337 7.74997
76.7679 109.111 182.423
5.47247 0.430631 23.3969
4.99745 43.5755 37.0831
13.8141 17.7028 33.2022
49.296 34.9512 66.2912
1.78439 3.48317 10.2109
4.31254 2.02459 1.76505
37.6503 68.3459 208.899
23.2993 19.7708 5.97832
2.81667 27.9149 28.5805
23.7182 97.7558 100.122
7.59924 7.87506 8.47978
4.22297 81.6336 124.108
4.57495 46.6205 172.764
65.1027 16.5165 13.9946
17.4345 2.14751 24.2571
32.8638 3.94278 24.9998
27.0947 19.0296 64.8989
100.733 52.6009 23.2029
85.9763 114.802 234.037
40.1733 43.9122 53.3533
3.54206 18.9471 49.8627
9.93468 3.13522 1.18105
3.51456 31.4674 52.3156
31.3051 6.20479 14.9443
12.8491 6.00145 5.08505
25.9476 9.95072 15.4673
1.84059 9.17026 10.3914
3.2046 16.6095 57.8328
62.8903 38.9738 58.9864
8.24175 3.34373 0.578563
3.02869 19.5807 73.6378
82.5164 47.0335 46.2571
13.5805 20.6535 68.7158
14.1935 8.69147 19.5068
45.8603 13.6633 12.8492
67.8969 88.0378 106.09
23.088 30.4736 110.796
5.80205 20.5163 18.9416
1.26063 3.23255 0.781035
20.4665 62.6628 119.551
4.68364 14.9304 11.6103
6.6543 7.08937 19.2485
0.451321 21.2883 52.9089
6.31748 39.4582 93.6328
36.6163 3.96168 5.72713
39.0238 14.678 15.0514
31.1353 46.8114 116.162
14.0901 92.5295 127.955
18.7075 2.15674 8.39393
16.2623 0.726602 9.92205
16.4104 41.1199 78.8121
18.137 12.8297 18.0652
20.2773 11.3822 42.6846
14.8801 30.0024 18.8256
6.96741 43.0059 96.6535
17.0337 8.1685 40.452
37.1605 20.2828 53.0616
36.417 10.6451 15.4845
5.64842 6.51567 11.5116
21.7492 6.60395 4.61174
2.73029 16.9083 59.1919
57.2463 36.2851 57.5356
12.8997 3.17483 0.199008
9.38711 0.989338 9.198
41.2799 45.0437 82.9972
10.9766 1.62291 7.93297
1.53762 32.5365 95.8904
59.5103 43.1586 82.2311
3.94789 30.9513 31.2479
5.99124 23.9611 49.5025
19.6204 0.13248 2.0544
3.70714 16.784 49.4455
31.0816 3.26155 5.40876
16.3667 0.294923 2.50058
16.7086 7.75308 18.1682
38.14 32.5812 92.9363
22.1039 42.448 39.4247
9.60088 11.0154 44.3353
13.3631 23.5274 32.3463
7.7472 11.4351 67.8612
66.9153 57.0482 123.02
22.7179 39.1035 48.778
36.5139 31.5048 93.4409
23.4796 43.7932 69.4339
33.4216 6.71784 2.12985
17.1951 6.69823 5.3857
21.2934 42.6009 141.564
37.7069 16.717 49.9153
14.7694 18.539 2.69301
18.2466 21.3575 37.3295
0.0361676 25.3736 50.6804
25.645 16.7636 38.9239
2.77566 35.9485 100.785
55.1302 29.2924 38.3251
1.63146 20.2171 51.1474
22.1038 1.21875 44.445
66.2521 57.5193 62.1274
6.6405 5.72178 17.0296
1.01973 6.36348 8.2991
16.0836 4.80665 14.1343
2.75346 43.2366 82.2242
33.281 12.4885 19.2175
6.51194 16.1343 73.9412
55.3558 47.7578 47.4022
5.57821 7.81501 26.1458
40.7598 38.4501 97.9868
3.09719 3.27403 11.4449
0.521495 31.2176 38.9772
13.2599 1.56843 9.33527
0.746075 29.3673 62.0927
15.5907 2.05983 31.3821
23.4648 6.21827 2.44654
6.5027 12.893 129.047
88.1819 100.366 73.0485
7.15435 27.1236 57.4121
34.3625 19.651 11.5105
20.5598 53.5234 117.713
14.6634 4.90825 41.2519
33.5097 15.949 29.2988
2.89185 35.8946 112.403
29.2396 1.43165 4.02579
21.5599 4.19771 5.41981
28.5454 55.1805 211.077
42.6637 29.6846 13.693
5.70745 4.79603 31.6293
18.1621 0.945757 22.4281
48.1835 50.9197 72.5961
1.08465 16.6895 56.0069
39.1182 13.0805 4.39855
20.6082 13.5064 37.7894
23.9 9.56883 3.9744
18.1304 7.40656 15.3689
14.5264 9.44629 14.5194
8.28103 3.04983 23.397
0.386425 47.5151 157.256
80.9015 66.5995 76.0414
5.62583 2.75698 2.51096
19.5011 29.6524 90.8367
0.881204 7.66127 48.9916
18.9628 24.7824 22.2636
12.7025 2.62324 6.92576
19.8298 16.0079 72.8841
12.4337 17.6025 7.13375
3.84212 9.05383 21.5841
26.5946 13.7862 15.5565
8.48915 13.2379 29.202
1.25975 17.4845 48.2099
24.3449 17.2008 80.5582
3.88855 32.7869 86.3235
39.5419 40.5877 68.9758
25.7368 13.9933 36.2235
0.357167 7.92368 10.7411
6.38983 10.9095 24.9179
19.6232 8.78156 5.8692
19.0249 32.8712 72.626
20.1657 9.37585 39.9838
18.5154 6.75934 29.9219
2.20974 5.95211 41.3487
13.7013 39.1911 108.314
44.7492 28.9386 52.1542
6.60075 7.08682 33.9258
25.7589 1.70698 22.0619
63.2699 80.6697 158.392
2.64017 9.30713 6.22814
9.86139 5.54885 21.0786
14.3583 1.74801 0.591394
12.1079 2.97976 6.99468
6.02817 11.9394 40.55
11.2822 0.978161 0.671424
10.016 16.7413 87.4178
