# pn-170911/CsIIA-40-KOKB-1280-1959.psd
# Power spectrum* (dif=0,1,2) (really just |FT|^2)
# NOTE: only the first half! (symmetric)
# weeks: 1280-1959
# 6 clock-days, 1 excluded
# PSD: 1441
39586.2 1.04708 0.0279866
1.61279e+06 24.9493 0.0131815
7.34948e+06 130.24 0.0108919
585446 35.2911 0.0159062
1.1084e+06 77.1758 0.0208789
186661 17.3471 0.0175171
307116 38.1684 0.0128018
123101 45.2567 0.0194727
182842 61.1471 0.0289205
36763.5 11.2761 0.022007
77670.7 23.2621 0.0289791
28707.2 21.891 0.0284686
70019.9 46.6713 0.0457294
72549.2 40.5966 0.0413209
59187.2 40.7323 0.033812
31597.9 40.8863 0.0522121
59992.6 56.5139 0.0632772
64388.5 104.985 0.157866
45800.9 66.943 0.150941
35738.3 50.9135 0.0884523
20580.3 35.8554 0.103438
23211.8 40.4037 0.128275
37894.4 72.9987 0.123717
29487.7 43.7717 0.138662
12664.8 38.5784 0.131046
14485.4 37.2535 0.109756
17848.5 44.0196 0.16607
11721.3 17.5566 0.0861089
17981.9 42.75 0.19567
6626.98 14.7648 0.0618625
19545.8 59.0052 0.292965
17831.2 70.8115 0.346395
9956.19 49.6871 0.259972
8384.32 29.6091 0.189032
11932.9 49.9877 0.262694
6845.31 51.4387 0.270817
11455.7 56.8174 0.330785
12557.3 69.0949 0.58107
7242.75 34.8285 0.234037
9390.83 53.0751 0.409261
8261.38 44.0574 0.310802
4791.28 37.1237 0.256432
8642.73 51.2826 0.445133
6295.37 68.6783 0.651586
4259.51 38.4334 0.465842
8124.08 76.381 0.776561
5100.96 41.1927 0.411165
6528.59 52.7543 0.603169
2005.46 27.3697 0.22598
3940.97 40.6148 0.511633
9883.99 74.5634 0.910493
5442.26 58.2188 0.72149
3096.95 37.125 0.457198
3374.52 46.0073 0.648183
3722.79 42.4525 0.523913
2727.33 23.9164 0.331509
2428.35 21.6537 0.383916
2155.66 23.1923 0.381956
4172.37 48.4115 0.797718
2432.09 36.1432 0.639645
3603.66 38.8466 0.606495
3793.4 69.6807 1.23939
3024.68 37.7687 0.751535
3068.38 43.3572 0.778416
2104.17 29.7352 0.588813
2058.65 47.4488 0.899825
3215.52 48.4151 1.14762
3045.71 45.9618 0.95224
1652.72 28.8429 0.589109
2686.15 43.7173 1.04619
217.803 14.8351 0.375176
3323.16 70.0837 1.62835
2224.99 52.1518 1.27303
1378.84 21.8017 0.633187
2721.71 37.1264 1.00424
1160.41 42.4107 1.09244
1114.19 27.9908 0.775777
2273.58 39.9354 1.19967
1961.4 51.8158 1.57313
2751.31 56.4641 1.76261
3075.39 57.8497 1.72825
1401.94 45.1997 1.29837
1735.06 65.2156 2.00029
1703.04 54.3529 1.87903
2730.2 85.1824 2.67305
1466.16 43.5274 1.58234
1648.81 37.7405 1.25226
1574.89 31.4466 1.19767
2538.2 79.0663 2.865
571.126 29.0425 1.03348
1533.22 62.9628 2.48239
2531.45 57.6133 2.36219
2321.4 71.2868 2.90868
1779.89 45.9312 1.92354
1231.05 33.6661 1.51694
1622.29 53.1015 2.38022
1408.24 64.9357 2.88388
2204.12 74.7562 3.58857
1967.54 74.0194 3.46416
1597.26 74.9175 3.58542
2090.98 85.9326 4.03541
935.443 29.5619 1.55561
674.715 24.8092 1.29208
713.412 40.8872 2.18276
691.5 41.6273 2.25188
1307.81 52.6465 3.0356
1681.51 71.708 3.62156
1904 65.8422 3.60157
995.717 29.2424 1.87562
476.851 25.7089 1.26495
1498.8 66.5846 3.7736
940.161 44.3545 2.6548
919.265 49.9448 3.01241
1440.92 71.5655 4.21176
1040.19 55.6361 3.35581
1065.87 35.4367 2.24566
690.531 50.3662 3.15901
1253.94 48.6344 3.13406
932.629 57.839 4.24429
1342.76 70.6903 4.39293
327.261 24.8134 1.59863
1382.88 57.9108 3.94841
923.937 52.7321 3.93952
854.811 39.9013 3.00763
797.901 47.6474 3.58362
399.039 32.0558 2.38915
859.227 82.6503 6.2863
265.796 21.2879 1.57523
205.406 25.0854 1.92318
769.085 33.2336 2.58115
964.184 77.7622 6.94682
553.945 43.427 3.27559
845.417 44.4245 3.78528
443.251 30.8778 2.45843
738.253 70.29 5.8091
618.673 58.0709 5.08126
604.597 33.0268 2.99972
879.552 69.7001 6.1542
538.303 38.0203 3.43122
315.618 24.3876 1.97421
743.312 62.3546 5.78343
156.984 17.5194 1.59792
417.208 33.7722 3.17408
261.622 52.5318 5.76045
837.706 48.9034 4.53211
557.948 28.0556 2.92411
404.159 39.8659 3.49541
603.742 47.1604 4.86688
832.622 72.5955 7.97133
643.873 51.6282 5.57478
913.411 85.5187 9.07934
640.733 59.8926 6.31324
378.593 32.352 3.67113
300.302 23.9202 2.49591
413.765 40.4183 4.55056
600.264 45.7044 5.18102
726.235 75.1992 8.25569
314.504 38.6405 4.17573
500.855 62.6658 7.99213
395.483 38.6631 4.50743
966.196 84.9718 10.4517
261.368 35.4543 4.3273
418.188 36.024 4.31448
250.376 30.8372 4.04633
600 67.02 8.40735
288.136 21.1639 3.46786
602.327 53.8102 6.54657
961.188 107.017 14.1359
666.436 73.0207 9.28921
337.23 35.5278 4.76838
322.333 29.4792 4.14948
266.711 30.659 3.82177
594.995 87.6512 12.3588
303.563 32.5564 4.55734
494.667 55.0311 7.46146
429.787 38.5342 5.2481
233.572 21.3602 3.04593
360.754 42.6037 6.57216
357.22 47.8663 7.3974
358.66 46.5778 7.07239
1033.46 118.015 17.815
180.976 33.4575 4.46344
192.338 28.6781 4.97386
544.229 64.876 9.69545
400.642 54.3664 8.72938
229.788 22.4363 3.50083
234.953 24.1456 4.09106
367.424 59.4572 9.89034
290.063 37.9329 6.55566
412.635 43.7503 7.70068
304.574 54.4929 8.68736
214.551 39.7297 6.82008
454.501 62.5895 10.5597
324.146 72.8244 12.3142
297.907 41.4085 8.16687
204.071 23.0584 3.72389
351.998 36.6191 6.52628
391.968 85.7086 15.873
375.369 64.0776 12.8817
293.615 48.63 9.67223
142.345 18.6174 3.58705
251.387 53.3904 9.47011
159.032 36.3114 8.28414
199.325 40.1028 7.86304
136.903 30.2323 5.65701
184.273 30.323 5.72771
268.861 43.3017 8.24978
376.286 65.9039 12.647
612.158 106.733 20.4509
54.176 14.7902 3.33377
215.205 39.4884 8.37079
181.957 39.0016 7.90858
190.508 28.5266 5.9921
242.136 36.0628 6.76488
143.238 36.9061 9.06062
372.621 77.0157 15.8257
254.69 45.6499 10.4729
154.216 32.046 7.22559
279.631 40.0147 9.5365
293.949 56.4986 12.4414
316.761 44.1384 9.79008
102.791 28.6002 8.73392
307.05 42.012 9.81584
314.92 46.1312 8.9382
198.154 35.0258 7.09353
221.989 34.4135 8.7099
229.865 30.9955 6.50083
219.192 48.1552 12.3873
351.79 72.6393 17.5155
158.708 25.0521 6.03453
183.258 26.5877 6.99555
177.389 39.0548 9.65392
208.348 45.2579 13.2113
71.3869 15.9029 3.77531
199.192 46.0277 10.9363
239.906 66.124 17.4356
192.836 45.0967 11.5325
240.044 39.9167 9.68661
160.794 67.7996 19.396
155.429 30.3707 8.87958
182.151 35.6419 8.57786
185.709 44.3021 12.6197
203.844 39.429 10.6013
216.263 39.589 12.2506
209.645 38.0688 9.70389
186.58 40.265 12.0718
85.7587 22.7534 6.78043
223.262 54.5578 16.0077
187.924 37.6705 10.0849
53.4101 21.666 5.9514
237.561 47.9537 15.8226
186.922 33.8301 9.21183
155.019 43.8993 14.2695
155.412 43.7461 12.8224
143.028 35.4097 11.0641
179.798 36.4955 11.3007
113.295 27.2517 7.79563
199.685 40.2769 12.644
231.995 55.5084 17.2963
169.269 61.1064 16.654
129.88 24.315 9.21777
112.712 33.0328 9.13203
280.552 66.2228 20.7687
271.525 77.6846 26.7482
229.341 45.2404 13.9027
127.126 36.8453 10.2299
61.9533 41.9581 13.4336
99.9669 13.2226 4.90095
219.487 56.7896 18.9176
84.2796 29.6301 11.2698
156.444 38.419 12.7587
171.917 54.1626 17.1646
56.9485 24.1296 7.19025
47.0922 19.2688 8.31904
104.356 32.7332 13.0882
264.128 50.8427 15.081
207.147 74.0311 26.1862
96.9551 24.1436 8.34089
150.218 36.6719 11.3206
62.9864 21.201 6.18249
116.346 57.2855 22.2916
175.328 51.7191 17.8867
145.362 37.1115 11.8344
80.7962 34.3542 14.4018
99.7655 32.2426 10.4868
89.888 32.3044 12.8696
66.2505 26.6019 12.6138
157.399 40.5939 12.7618
125.913 28.7544 9.53176
214.929 65.9212 24.2662
107.188 23.7895 10.1424
105.554 29.7606 13.7672
98.3164 31.3573 9.97932
72.6341 35.3345 15.1591
60.217 21.6688 9.18833
160.271 41.2388 15.4298
66.6087 30.9272 11.6765
149.157 58.9455 22.9134
167.609 52.414 22.3218
80.5873 19.102 7.88207
105.474 27.9082 11.9432
21.3413 10.9249 5.14594
62.57 34.2046 14.0084
64.6971 22.7679 11.7807
88.6378 23.3503 9.64443
101.263 36.3462 14.8114
113.922 35.5009 15.869
125.6 39.9268 16.2977
102.484 27.0405 11.4623
56.1633 24.5977 11.7963
54.0548 16.7511 8.21754
160.436 40.2995 15.4906
83.1897 35.1438 20.9886
185.459 59.5238 23.3604
46.0979 28.2218 14.7683
36.6175 14.7327 8.18825
108.636 24.7925 8.79714
81.3587 27.2972 13.1769
131.639 56.7091 24.5089
72.9143 40.6152 19.6672
178.803 74.8116 33.9298
51.5763 21.1166 14.2053
121.489 37.3565 13.6065
94.7687 26.0311 13.3342
159.433 43.0691 16.1439
97.1069 45.8901 26.6178
127.269 27.1976 9.29559
135.174 57.683 31.7324
202.706 61.7718 26.3331
100.331 36.4656 17.3465
100.771 34.2784 16.9797
96.7124 38.3265 22.0393
78.1557 24.4541 10.1915
139.638 46.1058 23.8842
70.7171 22.8302 12.984
59.9289 26.429 12.7142
56.2659 29.9968 14.1787
110.392 49.7129 26.7674
69.4773 19.4928 10.4468
46.0724 23.1209 13.8134
95.4687 52.5424 26.3764
86.5996 27.6604 14.26
100.243 41.6779 19.5248
97.9779 33.1384 20.5189
38.3168 10.366 6.56679
113.666 45.9784 26.1682
72.737 31.0388 15.364
76.0129 32.1916 18.2476
37.1694 27.8629 16.8018
104.239 48.877 27.7625
78.5032 35.7185 18.4217
88.2366 31.7584 20.2473
147.727 48.772 20.7857
125.431 56.1621 36.5193
76.0509 23.0739 9.99361
92.0799 55.973 35.3392
103.845 33.9987 18.2588
77.9939 23.3493 17.8957
92.9864 31.17 18.4568
65.288 29.7126 14.8497
63.4954 57.9663 37.0218
75.6446 24.6583 12.976
59.294 18.2915 12.9575
59.5361 30.4707 16.4338
71.8532 47.3982 27.5477
83.1663 40.4478 24.3733
59.4065 38.2654 24.1558
87.4036 41.0426 24.0414
36.9419 14.3592 13.0107
96.129 41.2828 24.0793
62.9028 38.4559 24.1952
33.9487 14.4627 7.87328
65.397 30.8766 24.6089
66.1711 62.794 40.8642
62.9401 29.8591 17.6422
41.0416 40.972 20.5569
27.5632 23.0479 14.2498
62.9468 45.9482 34.5883
79.4261 40.6954 25.8895
102.717 54.6325 30.1382
50.2115 32.2832 22.725
65.6534 22.5267 15.5249
84.2482 30.4851 16.6299
33.3194 21.4488 16.2009
60.2477 30.1139 18.4267
34.9477 14.4706 9.69617
36.6385 24.093 15.8947
68.1004 36.6271 26.9746
51.1419 29.5318 21.9116
89.4178 30.9964 17.5022
100.019 43.8966 29.1752
42.133 25.1134 18.5061
63.862 27.0444 17.5704
59.2622 40.8855 30.6508
27.2759 21.1742 13.4916
25.164 21.0192 13.0881
42.6674 28.5629 22.1266
38.2844 22.0634 14.9762
34.4577 25.3096 19.817
57.5117 24.6801 13.1627
62.4464 27.2407 19.7772
22.3073 10.7926 6.87274
47.8839 28.9405 25.2884
73.1199 30.7315 17.5653
95.8534 51.6594 39.1657
60.023 47.4937 33.5648
28.6219 33.1094 31.7788
85.646 29.2863 18.8232
90.8196 39.3839 26.3094
62.6255 27.0481 18.7507
70.5546 32.2017 23.14
60.2824 42.2107 30.6802
43.2301 22.0455 17.6671
71.2711 43.1555 32.1824
61.7276 36.236 26.6748
61.8747 56.3305 43.851
47.4438 20.8196 14.5529
44.0995 30.1024 28.4498
41.1105 44.0966 37.7801
55.4196 26.8912 16.6683
64.2575 33.9998 26.2711
38.0418 36.6551 31.2979
56.5478 26.398 16.4623
23.7817 18.1452 12.0354
43.5627 43.1493 31.1819
71.8437 65.8355 59.5284
47.3844 25.3509 17.4298
64.6943 36.6336 29.4719
37.9266 23.5622 23.1405
32.6196 17.9939 12.1831
40.7456 26.4354 25.4889
61.6347 37.9892 34.3558
43.8436 23.279 13.3505
22.4918 12.3702 10.7995
31.9798 43.7748 29.6492
13.9631 25.8101 23.8825
26.4509 21.0769 21.2824
61.9184 45.3453 39.5248
55.8421 30.2897 21.5539
44.8093 27.1388 23.9626
49.0197 30.8299 22.0215
26.7419 5.68676 5.51733
34.6452 26.8326 23.2014
18.305 12.1925 10.8415
11.2844 18.4606 22.5485
47.2245 30.5625 23.2131
46.1389 36.2847 31.7754
30.4545 18.7672 20.2667
80.6016 52.1188 38.7508
47.7232 13.5566 10.5371
26.2606 12.4333 10.3294
17.4606 21.8468 20.0223
40.806 41.3547 40.0408
23.6994 9.16693 12.0605
40.4085 37.2439 39.9233
66.744 45.0403 38.5861
26.5132 15.8924 19.9432
67.7227 35.141 28.0565
64.0906 41.3411 35.5994
55.7738 34.0991 37.172
32.8855 26.6765 20.3925
57.2869 26.9727 22.789
30.9608 25.9065 25.8997
39.9323 28.3935 23.5178
24.8176 25.0614 27.5819
35.9937 33.1616 42.6843
68.0075 63.0916 50.5881
23.8678 22.752 25.0431
34.3381 18.2406 18.7853
56.2133 41.3927 45.2576
30.4609 32.2297 20.8742
42.3371 34.8166 30.487
55.5502 35.0864 32.2514
18.6719 23.7604 29.6294
30.0799 35.11 35.9087
52.8502 55.2942 54.8016
46.5287 24.7554 17.869
28.5909 20.2427 28.2536
40.2085 22.6886 19.2782
55.6638 30.9897 37.0812
76.5148 69.7138 75.4826
62.4857 31.1886 28.5307
78.1313 51.5289 43.7165
48.4655 49.8141 48.1694
40.6379 32.3866 24.4266
24.2015 27.9971 32.3954
34.576 8.78464 7.32025
77.9659 68.7304 75.0341
66.3793 53.9512 44.9325
28.899 30.6754 41.5308
19.354 20.3821 24.0882
45.9089 31.078 33.3315
81.221 46.3411 37.2365
24.5861 14.6411 20.4314
54.5704 45.864 39.8729
11.4728 13.2113 14.4662
35.6178 26.5567 26.0483
55.8445 43.3855 47.4117
62.7858 55.7644 71.1443
35.3185 35.7944 37.1941
16.9094 26.606 31.8481
48.1146 31.4296 25.1242
19.1382 26.2294 36.8634
79.6559 41.308 34.3168
21.774 29.9342 38.6489
34.854 16.5183 23.6914
24.0434 25.8246 22.7831
31.1819 41.7658 38.2772
16.4737 24.5942 33.1763
48.2012 21.2548 14.613
28.6212 41.5758 64.9144
29.4594 20.8756 10.2845
27.5873 39.7063 41.1888
29.7452 34.2178 40.2478
47.6588 28.0908 38.1445
37.0411 35.9889 30.4911
8.65326 13.2066 30.0601
40.7357 22.1785 19.7034
34.7433 33.3135 43.5976
29.5384 44.0012 55.3314
59.7812 40.0378 39.624
18.8041 34.9905 41.7694
30.6459 37.6816 49.6289
89.2126 74.7426 84.8931
30.3977 21.3098 20.9156
22.6367 24.5994 25.9739
21.7303 14.798 16.2262
17.3075 13.409 13.3908
21.5218 18.2786 27.1582
26.9741 29.1494 32.0942
25.0346 29.3887 24.8289
31.7652 65.6285 91.6495
30.3607 14.792 15.2095
25.8033 24.18 47.6055
74.5807 48.8848 45.8517
34.3347 29.9842 44.5075
44.1341 29.7804 28.2969
25.3181 34.1287 46.9455
68.7972 51.8647 59.093
45.4985 52.407 48.8855
47.5648 51.2281 65.9304
38.3271 28.0525 44.3358
25.3614 26.0626 29.9016
20.7943 26.7426 42.2692
54.577 39.5807 33.8884
15.5526 25.8461 42.258
32.0537 30.6708 38.661
18.3804 20.944 38.9027
53.5401 40.985 36.5033
35.3235 32.9106 46.6427
32.5486 39.6899 56.6188
31.2947 21.4414 14.8029
21.0224 21.3189 19.9844
20.6974 27.933 37.4396
38.8681 24.7389 31.0752
26.3394 47.5007 80.0604
44.129 31.5514 29.8077
13.6977 21.5295 29.0053
9.12412 16.2372 38.9607
38.5495 30.9516 29.1387
28.5479 18.0914 18.3176
17.7801 40.7916 59.3372
43.1448 36.6347 36.503
20.8535 12.5139 24.5973
39.9838 35.4678 39.319
32.7291 26.4694 34.1802
8.67557 9.57301 12.9709
15.2836 19.9991 33.2659
39.4551 37.0843 37.2878
21.9685 18.9547 27.128
15.8635 15.7161 24.1165
28.3141 28.2863 40.3304
21.5033 26.9286 44.9851
16.1774 17.3468 31.5436
25.7022 28.5298 43.8606
19.3255 18.1248 18.4185
18.7934 13.5293 16.4693
16.7118 29.5638 35.0439
22.0347 21.0246 27.2928
8.70484 15.8829 20.4167
21.2239 46.0289 71.636
27.5788 30.9887 38.5182
30.929 28.9065 44.9703
26.4643 19.7182 26.3679
42.8154 28.0949 35.3038
10.0354 9.28118 15.3673
17.3147 12.6731 18.4083
20.1665 27.5499 47.2518
29.7128 27.4632 39.5052
27.3696 45.8572 61.1958
46.1894 33.5116 51.7248
17.0263 23.1634 22.3909
12.9263 19.0638 35.0191
55.8011 60.2376 85.5603
18.1338 7.597 14.2997
19.71 24.4898 31.7621
13.5141 6.96456 10.3634
16.0643 17.2232 31.9421
17.1207 9.82608 17.9149
21.2302 19.2745 18.8711
14.7482 19.365 46.0367
18.5279 37.5432 37.8682
10.7324 12.6806 23.2685
9.89196 24.8316 34.0429
16.4743 16.8077 27.0525
20.5418 26.6613 45.8718
29.1892 48.889 82.0564
33.8367 42.444 42.8787
6.38067 16.149 38.2351
37.4345 22.5259 23.8675
16.0041 33.0925 65.7429
44.5678 68.5261 84.3123
22.4298 27.8562 47.6329
26.163 32.3823 57.039
35.6855 22.5814 28.7313
11.4073 13.1282 28.3024
14.0365 28.0507 40.1643
39.1463 26.306 33.8679
15.0775 31.7292 63.7157
22.7477 14.2935 15.6322
12.8328 13.8744 12.3918
19.7957 25.9013 51.8692
26.9772 20.8885 22.4735
5.35302 11.6066 19.8883
31.1555 40.492 71.676
20.5925 16.2282 33.2964
21.5548 35.4817 49.8613
12.5334 19.2982 35.5765
21.5016 40.6988 62.1238
33.7573 41.4125 62.9799
20.8528 13.0392 12.7445
25.3089 30.9377 51.7814
10.1167 8.09748 24.1539
19.3784 23.5225 34.097
13.3707 14.0045 13.7857
19.5846 23.4004 44.419
29.2389 32.7944 34.1948
14.8935 26.1892 42.4652
8.45666 19.9389 42.7197
27.9368 33.3973 52.4356
13.5548 20.4638 38.0069
16.8675 18.6014 22.8323
10.9619 32.4526 66.8831
34.362 27.6226 51.0708
28.3434 21.0731 35.2018
33.8599 26.3767 36.7487
22.6505 16.8835 36.5725
37.8503 39.4659 49.8867
23.2125 26.3528 40.14
17.2463 13.8987 25.9027
17.6699 20.9569 38.4806
19.0448 24.7906 56.2394
35.3336 39.1291 56.3445
23.1247 32.148 56.6339
9.35568 8.30344 28.98
8.92763 18.7579 32.0774
16.1904 26.8631 53.9516
27.4722 43.5471 73.3995
24.3646 35.3178 40.8095
18.1167 23.2538 53.1396
52.4389 61.6098 78.4758
14.2939 20.5995 39.9965
12.2899 20.7353 60.5512
18.8654 22.3633 49.4648
30.1423 27.2783 35.3082
18.1078 31.9457 62.729
13.138 17.6625 48.5944
44.9305 43.8531 45.0515
22.252 49.0114 83.5491
14.7408 13.4821 29.0155
14.0244 22.0593 30.3042
15.7949 20.4788 44.8971
25.2166 34.4455 78.4214
9.97271 32.2166 81.68
25.9065 24.9584 31.0282
20.7768 42.0945 60.4289
17.7069 26.3632 35.3415
14.0224 24.0811 40.8923
12.9633 24.3598 59.3381
11.5738 26.8395 45.9996
21.3216 27.3678 45.3396
7.38279 15.7771 37.3208
16.1099 25.675 51.1425
13.3979 17.5312 25.6894
18.4591 14.6166 28.7004
11.497 28.3644 51.4793
26.8014 25.6918 38.2628
13.6588 14.9638 23.8813
12.398 25.5464 44.5161
12.1548 12.3795 26.0589
7.54837 29.4513 55.0174
29.9309 49.5235 105.497
21.8974 19.6827 40.8135
11.8633 20.5674 26.2326
11.1669 14.1881 40.508
35.436 45.8817 85.5425
11.0165 11.2282 12.7398
8.39672 13.078 35.1183
13.8641 40.3931 70.6693
22.958 14.6196 24.2544
13.6001 32.6249 59.0264
26.6212 32.6778 73.2008
10.8626 22.8721 34.5108
16.0739 25.1199 58.0379
9.67097 13.5518 29.5585
13.1502 13.8134 28.9731
20.1357 29.1579 79.6989
23.1346 58.0942 84.841
11.3917 9.91565 22.2427
22.6336 56.0769 115.873
30.0393 27.4374 44.7005
11.5295 13.2816 21.1489
12.7376 15.3728 42.9362
21.448 16.0725 24.2932
16.5689 17.1735 26.9508
6.50083 11.1796 30.0773
11.9732 14.6329 30.8682
13.8286 9.48466 27.3639
12.8135 23.417 62.0865
23.1701 24.4045 37.1209
16.7221 54.107 130.901
35.8574 29.1595 37.3535
17.2886 20.1536 51.6595
17.7206 38.8041 74.3054
18.7848 21.9807 18.5782
7.96167 16.896 45.495
18.3908 22.4341 32.4671
12.3185 10.2545 24.7753
18.4472 27.6863 42.3312
21.4008 27.6679 40.3147
10.5033 21.9876 58.6869
12.349 14.5001 49.4525
14.6905 19.5563 37.193
6.76871 10.6019 29.8523
7.54156 16.7562 34.9618
9.46462 22.1016 31.0247
11.463 12.8348 40.9637
17.2828 18.1245 33.1618
11.8054 17.4029 41.2729
11.7098 17.6569 29.0057
14.8817 13.7895 28.1517
10.2911 11.8856 29.0075
8.69742 17.1123 28.5732
5.22478 7.74434 17.3789
11.3463 26.9954 48.4528
7.80928 17.5884 67.897
20.8863 21.4441 20.3254
8.82277 29.6459 43.842
4.54248 8.39903 36.2158
18.9884 23.2424 57.0996
9.78512 11.7324 14.7191
13.7972 38.942 76.9257
15.5828 22.8808 44.5821
13.0343 8.35859 9.90096
5.53436 17.4604 37.2911
12.4975 14.2449 53.8064
16.9671 45.1081 61.1634
15.1184 33.8118 83.604
12.6881 12.5999 29.4933
10.1488 12.466 41.4892
20.0526 51.6645 103.286
14.742 12.2934 15.9838
10.0412 10.2017 22.2623
16.8255 48.3743 142.114
28.0261 25.2112 35.8824
7.31718 7.97652 17.3422
9.4997 26.717 89.8782
25.8377 35.4468 66.9365
22.1868 14.5251 30.479
29.1883 44.3639 68.8035
11.7998 30.3654 92.6166
30.7688 44.2962 82.8731
7.06851 15.7344 100.851
28.128 39.5421 35.0032
12.3315 14.4645 31.3494
8.28476 8.64436 16.0544
5.73811 8.97003 13.8811
11.0412 38.6591 83.8185
13.6786 16.7043 79.8086
30.8087 49.4785 82.1251
7.8002 7.19109 21.0073
13.7934 24.667 30.5519
7.87587 28.1154 54.5946
11.4902 54.0971 147.677
21.8154 19.7281 85.7079
34.7211 38.5833 58.0354
14.2175 22.0138 44.714
12.3194 25.3402 48.3389
12.3421 40.3431 123.155
29.4327 27.6035 58.5628
9.721 31.6586 64.898
19.5088 19.7319 42.6697
16.808 12.1354 28.2709
24.2031 37.9036 76.9934
15.7153 26.2714 58.5637
10.7045 27.3384 73.1309
10.98 11.3433 26.3228
11.8174 38.0668 86.7752
18.0928 13.4289 20.1825
7.68785 9.93861 39.1203
19.5608 21.629 42.987
5.70151 15.6514 42.4009
9.42735 19.3174 40.8392
9.43512 13.4626 24.3127
10.2451 25.4056 92.9806
25.1248 43.8684 73.4233
10.0139 9.65193 16.9436
11.8868 19.0965 43.1608
8.26292 22.1941 64.5025
10.7151 14.9751 49.638
14.3933 36.8757 66.3121
15.3048 23.9501 53.6208
6.80835 24.059 57.365
7.64971 11.6922 43.6001
21.0396 33.7318 60.0428
8.01731 10.7725 23.6473
11.2306 15.7222 46.7419
7.64926 13.8773 38.7608
11.4816 9.20954 28.7122
16.3631 15.3752 28.4649
4.36035 7.69328 38.7781
9.96388 21.2883 24.9482
8.5312 10.6058 27.8907
5.34233 19.3357 56.5286
7.37299 23.4829 79.4435
13.2677 18.9546 68.1853
12.9817 23.276 32.9823
8.34385 22.4893 60.3502
18.399 19.3249 39.3371
9.18549 15.2115 25.8214
6.54608 8.21869 21.6457
