# pn-170911/CsIIA-33-USN3-1280-1959.psd
# Power spectrum* (dif=0,1,2) (really just |FT|^2)
# NOTE: only the first half! (symmetric)
# weeks: 1280-1959
# 2701 clock-days, 629 excluded
# PSD: 1441
54981.1 1.46708 0.0401461
1.5615e+06 27.2888 0.0211893
7.08021e+06 147.047 0.0234513
1.47812e+06 54.3629 0.0227083
919046 61.1462 0.024981
525639 52.7823 0.026912
370525 52.9889 0.0305626
265755 50.8725 0.0323934
207095 52.2593 0.0364661
166557 52.0222 0.0406489
131536 51.0879 0.04524
107379 50.5054 0.0490347
91979.6 51.9281 0.0559924
79096.5 51.0307 0.0621573
69910.8 52.4601 0.0698281
58505.3 51.3775 0.0778667
48919 49.3202 0.0806773
45893.4 50.8632 0.0906467
40741.7 50.8467 0.0995989
36236.4 50.8172 0.108638
33333.4 51.6272 0.118962
29972.2 50.5368 0.127468
27202.5 50.8484 0.138845
24818.7 51.0237 0.150923
22609.7 51.2459 0.163466
20786.4 50.5308 0.169736
19106 50.2226 0.180133
18035.6 50.1731 0.196712
16791.2 49.7674 0.207098
15204.9 49.7101 0.218958
14435.8 50.9182 0.240687
13302.6 49.8756 0.24766
12780.7 50.438 0.265983
11761.1 50.3637 0.280649
11257.6 50.4675 0.293757
10455.1 49.8185 0.3113
10190.7 51.7702 0.339813
9658.11 52.2508 0.365554
8881.79 50.1269 0.364159
8954.56 52.1234 0.393609
8104.69 49.6211 0.391732
7857.08 51.8074 0.433571
7303.54 50.3523 0.445807
7004.78 50.2874 0.461267
6787.84 50.2746 0.480192
6415.49 50.4698 0.505023
6149.53 50.1975 0.526005
6091.26 51.3795 0.558912
5617.86 50.1607 0.572277
5676.95 52.9114 0.627031
5076.09 48.8738 0.600133
5037.39 50.8056 0.654376
4902.16 51.3395 0.678117
4534.89 49.7338 0.686674
4354.89 49.7336 0.714031
4223.06 49.7182 0.736292
4114.21 49.912 0.762823
4002.38 51.1536 0.807789
3752.81 48.6822 0.79828
3758.6 51.2922 0.865992
3472.98 48.6678 0.851164
3426.92 50.7705 0.923476
3428.08 49.7136 0.92657
3297.25 51.1165 0.982631
3206.68 49.834 0.989634
3021.53 49.757 1.01963
2868.58 48.6283 1.02652
3002.67 51.423 1.11277
2810.42 50.0025 1.12047
2791.79 51.3433 1.18555
2619.77 48.947 1.16783
2552.24 50.5423 1.22278
2494.52 50.1508 1.25192
2486.01 51.8041 1.33914
2405.1 50.6585 1.33743
2368.48 51.6078 1.40835
2328.63 51.7246 1.43819
2216.09 50.5873 1.44095
2134.46 50.4961 1.4757
2003.13 48.2667 1.44651
1988.21 49.2707 1.51949
1986.11 50.2533 1.59273
1903.24 49.5383 1.59752
1845.94 48.9847 1.61804
1828.14 49.5314 1.68031
1830.8 51.7944 1.79638
1766.81 50.52 1.79842
1729.73 51.3705 1.86575
1677.65 49.8159 1.84189
1648.08 51.0603 1.94451
1605.43 50.8453 1.97548
1562.07 49.7675 1.97751
1496.51 48.9537 1.97949
1452.51 48.2582 2.002
1468.39 50.1768 2.11091
1440.83 49.3964 2.13657
1388.01 49.091 2.16308
1368.07 49.5903 2.23149
1306.76 48.5179 2.23481
1294.7 49.5827 2.3356
1249.6 47.8182 2.28529
1250.93 48.8027 2.38396
1221.7 48.8672 2.42366
1191.89 49.2895 2.4875
1231.26 50.9282 2.63385
1125.28 46.822 2.46113
1110.35 48.6474 2.61959
1106.26 49.3953 2.69216
1118.31 49.8771 2.76924
1111.62 51.3073 2.91151
1058.91 49.436 2.84286
1029.19 48.062 2.82209
1014.64 48.0191 2.8794
1000.95 49.3411 3.00666
955.204 48.2826 2.98575
971.25 49.7097 3.11773
952.668 48.7737 3.13083
948.177 49.8349 3.25622
922.37 48.8942 3.23219
895.782 49.0011 3.31004
883.505 47.793 3.26718
880.443 49.0834 3.41774
850.834 49.8051 3.53252
847.991 48.9644 3.5287
836.317 49.9044 3.65876
807.48 48.6025 3.61739
800.305 49.4586 3.73593
788.091 49.0955 3.76232
778.228 47.7159 3.70711
742.429 47.2537 3.72895
767.08 48.8991 3.92807
755.326 49.3063 4.03342
732.875 48.3238 3.98833
681.888 46.5436 3.91768
709.301 48.6645 4.14661
714.243 49.0846 4.25085
684.201 48.0225 4.19468
653.927 46.7313 4.17357
667.379 47.874 4.31933
639.035 47.5655 4.32979
636.971 47.6949 4.41583
642.611 49.1987 4.62315
639.63 48.4557 4.65976
595.776 47.9531 4.65947
607.568 47.8142 4.70043
619.043 49.5237 4.94127
603.807 48.7736 4.92114
601.941 48.6945 4.9683
591.747 49.0927 5.07367
574.513 48.279 5.08991
539.664 46.808 5.01124
546.753 47.7653 5.15782
545.187 48.4064 5.28832
537.118 47.3088 5.23938
529.943 47.6979 5.36198
532 47.4389 5.37893
520.855 47.2333 5.43807
496.625 46.1512 5.37135
500.033 46.4279 5.49341
503.041 47.6797 5.71085
498.2 48.2679 5.86439
474.226 47.1593 5.73811
481.926 48.2896 5.9632
462.464 46.3929 5.86504
459.022 45.5661 5.77818
462.437 46.7082 6.02506
456.03 47.468 6.19391
441.731 47.024 6.17975
443.316 46.974 6.22392
448.603 48.2443 6.53033
431.352 47.4631 6.46378
409.541 45.3967 6.2525
413.628 46.0009 6.44192
424.591 48.7591 6.88569
412.81 46.5378 6.63122
396.531 45.5524 6.62887
395.032 46.1905 6.72542
389.002 46.1793 6.82692
378.278 44.5364 6.63583
389.393 47.5777 7.1549
370.943 45.1852 6.90272
372.302 46.0692 7.11416
354.821 44.9982 7.00184
370.352 46.7502 7.37022
348.284 44.6652 7.14105
349.765 45.6032 7.33913
351.092 45.6431 7.43927
359.943 47.1417 7.74351
355.532 46.6198 7.72883
340.102 45.5942 7.66145
352.475 46.8142 7.97961
334.677 45.8512 7.84732
340.565 45.914 7.94206
334.354 46.016 8.07327
323.639 45.6703 8.07236
326.829 46.1223 8.19232
311.453 44.8238 8.08709
314.057 46.4745 8.43883
311.908 46.0824 8.57399
302.407 44.7523 8.33375
309.373 46.3383 8.63359
304.69 46.0414 8.73074
300.914 45.5346 8.69827
295.531 45.2095 8.75887
291.623 45.6449 8.93092
278.171 44.9146 8.81102
283.553 45.7718 9.08373
285.593 45.1368 9.09345
270.084 44.6979 9.0783
274.691 45.0116 9.23397
281.091 45.8807 9.45338
269.395 43.8615 9.17083
266.605 44.0155 9.22128
270.035 45.7068 9.7815
271.726 46.5863 9.93353
263.344 45.6685 9.79065
263.942 46.4604 10.1951
251.469 44.4727 9.76154
251.199 44.7323 10.0191
259.65 46.113 10.3737
256.834 45.3965 10.1982
254.164 45.4909 10.3943
233.742 43.182 9.87514
237.72 44.1549 10.3119
247.234 45.7306 10.7626
237.023 43.3712 10.2336
225.472 42.8562 10.2543
227.035 43.6221 10.5235
227.604 43.8865 10.7504
225.296 43.761 10.7362
232.799 44.6772 11.0171
229.354 45.0089 11.2144
215.453 43.4558 10.929
216.576 42.8312 10.7464
214.405 43.6862 11.2041
216.598 44.1072 11.3085
219.138 45.7402 11.8869
214.895 45.1134 11.8229
208.598 43.4591 11.4742
207.352 43.1679 11.4601
208.084 43.7606 11.8267
208.015 43.7039 11.68
206.873 44.4606 12.2352
207.051 44.9691 12.3955
198.759 43.7368 12.0357
198.79 44.6576 12.4584
199.169 44.9151 12.6342
190.634 42.4066 12.0246
196.465 44.249 12.6786
189.158 42.7081 12.2855
190.706 44.265 12.9492
187.538 43.623 12.7024
184.334 42.7241 12.5984
184.671 43.38 12.9009
188.09 45.1508 13.5024
182.565 43.7138 13.2011
180.913 43.8985 13.3292
178.645 43.5096 13.4194
175.928 42.7661 13.1042
176.796 43.8828 13.6344
170.5 42.6244 13.3383
167.987 41.705 13.2086
174.821 42.8691 13.6619
170.678 42.8828 13.7235
169.727 42.9131 13.775
165.379 42.6965 14.0259
162.697 42.8193 14.0073
162.456 42.8526 14.1155
161.807 42.2113 13.9444
157.399 42.8591 14.459
160.253 42.0528 14.2552
161.908 42.5949 14.5306
158.29 42.5618 14.5492
157.501 42.5151 14.6014
153.506 41.6306 14.4469
153.15 41.8169 14.6812
152.939 42.4187 14.9217
155.139 42.8116 15.2376
150.666 42.334 15.0803
153.781 43.0681 15.5475
148.597 43.0848 15.5394
148.58 42.5619 15.5388
144.025 41.2428 15.0472
137.966 40.1948 14.9529
145.674 42.5829 15.7087
139.741 41.899 15.814
143.867 41.8058 15.682
143.749 43.1244 16.4116
139.114 41.7336 16.0287
137.954 41.6655 15.859
136.297 41.6059 16.1602
136.637 42.3127 16.5179
133.634 41.8481 16.5317
135.985 40.9751 16.1912
135.348 41.6291 16.4474
136.229 41.9841 16.8711
134.979 41.7888 16.7069
125.638 40.2393 16.5437
129.179 40.373 16.3524
128.343 41.1791 16.9904
128.513 40.321 16.5293
129.155 42.5424 17.7502
124.073 40.8121 17.0859
127.245 41.8259 17.6243
125.636 41.8416 17.7564
119.258 40.5246 17.1833
124.307 40.9044 17.5286
120.2 41.2715 17.9627
121.419 41.0754 17.8051
118.892 40.9133 17.9125
118.631 40.5513 18.0042
116.726 40.0598 17.6996
115.929 39.7472 17.8121
116.112 40.4487 18.1788
115.155 40.0275 17.8636
116.009 40.628 18.5004
115.615 40.2292 18.3523
112.089 40.5824 18.6259
112.101 40.3324 18.6527
108.504 39.077 18.2839
113.468 40.8601 19.1782
108.989 39.9384 18.9169
108.318 39.8386 18.783
106.734 39.4982 18.8823
108.679 40.0197 19.073
110.973 41.151 19.7979
106.581 39.627 19.1775
103.216 39.0331 19.0503
107.401 40.8422 20.0718
104.044 40.239 19.8811
102.222 39.577 19.617
102.705 40.1681 20.1115
100.33 39.7412 20.0823
102.777 40.0521 20.1245
98.5363 38.4091 19.5781
98.6653 39.3098 20.1886
98.6398 37.8505 19.5229
98.6848 39.2874 20.1453
94.4669 38.9091 20.4428
96.361 38.5028 20.2321
99.2553 39.5112 20.6697
96.7376 40.4993 21.5976
96.2858 38.9502 20.5504
95.9012 39.8855 21.3492
96.24 39.3594 21.2584
92.6049 38.6298 20.6646
93.455 39.1445 21.2381
95.047 39.0907 21.324
93.3937 39.1806 21.5546
93.078 39.7402 21.9461
92.2889 39.3106 21.7099
90.4315 38.6182 21.6789
89.5112 37.7526 21.2257
90.3173 39.1634 22.1264
90.2973 39.7317 22.756
90.2022 39.2234 22.4654
90.6037 39.3648 22.4786
86.2906 38.1148 21.7431
82.3264 36.8711 21.6077
87.308 38.3208 22.1349
86.1713 39.2554 23.0779
84.3172 37.8731 22.2679
83.9063 38.1509 22.3292
82.4606 38.2417 22.8902
83.326 37.5962 22.885
84.2284 38.024 22.6438
81.282 38.1169 23.1003
80.6238 37.3571 22.63
80.0383 37.5537 23.082
81.7595 38.3671 23.3517
78.1783 36.1704 22.2596
78.8907 36.751 22.8252
81.7605 39.1314 24.3485
77.6157 37.5328 23.7414
78.903 37.7574 23.9328
77.7942 37.0977 23.6285
76.5147 36.6338 23.0943
77.2007 37.1028 23.6086
77.0008 37.0799 23.7766
73.7183 36.8768 24.1169
75.5851 36.7712 23.6458
74.2352 36.4589 23.9679
74.1619 37.511 24.6899
73.9846 37.0636 24.4215
72.5545 36.144 23.6896
72.7044 36.8763 24.5378
72.4433 37.4908 25.1184
74.3618 36.7707 24.2838
71.7564 35.6941 23.9624
69.8018 37.0873 25.5112
72.3141 36.6076 25.0732
71.9217 37.7648 25.73
70.8397 37.2197 25.5312
69.3739 37.4147 25.8377
69.1886 35.9063 24.8452
69.2223 37.0207 25.9932
69.4136 37.3301 26.1897
69.3292 36.2822 25.3723
67.229 35.9335 25.5831
68.5726 37.093 26.2834
67.9712 37.1533 26.5059
67.8518 37.7205 27.1648
65.5246 35.8914 25.903
64.8172 34.7542 25.4244
66.3773 37.3947 27.4993
64.1028 35.0526 25.5057
65.0581 35.4619 25.9181
63.5176 35.9173 26.7563
64.9013 36.149 26.7774
63.1188 35.8986 26.9483
64.2773 35.882 26.806
62.8441 35.0409 26.3154
64.7171 36.6574 27.3155
62.096 34.9639 26.9613
64.1597 36.3364 27.368
63.0767 35.9757 27.2252
60.8798 35.4101 27.3622
59.3275 34.8837 26.8944
60.4306 35.6854 27.7837
60.5385 35.8371 28.4587
62.233 35.0039 26.8287
58.8238 35.7642 28.8368
61.3226 34.8688 26.9573
56.5617 34.5355 27.3877
58.4302 34.9501 27.938
57.814 35.0888 28.2262
59.943 36.1913 28.8901
58.4202 36.1167 29.4383
57.9066 35.0073 28.1848
58.7938 36.5557 29.7501
55.8401 34.5127 28.4782
57.8283 35.1843 28.7521
55.4377 34.919 28.8126
56.2193 35.5149 29.5393
55.9756 34.7821 28.9238
56.7363 35.4745 29.7849
57.2183 35.6004 29.8108
55.4064 35.0734 29.6255
53.1958 33.673 28.3518
55.686 35.7384 30.3152
53.8911 34.7668 29.7286
53.0529 34.5495 29.6938
53.463 34.2666 29.4069
52.8124 34.6275 29.5165
52.3109 33.4437 29.4005
52.4348 34.5878 29.8973
52.296 34.2731 30.0413
53.0007 34.0696 29.888
51.5796 34.6008 30.7261
52.6199 34.9599 31.0396
52.0113 34.9274 31.1249
51.4809 32.5074 29.0559
50.4433 33.7272 30.437
51.6344 34.2311 30.4269
50.7554 33.4664 29.8898
51.0765 35.1019 32.1415
49.5965 33.6881 30.4643
50.2103 33.9803 30.9428
50.6659 34.6327 31.7018
50.3053 33.1702 30.4226
48.3621 33.4851 31.2896
49.5908 34.046 31.5983
48.0542 33.0703 30.8336
49.5997 34.024 31.8346
47.3603 33.3034 31.3762
46.5809 33.2654 31.8387
48.149 32.9339 31.1624
48.9082 33.3198 31.087
46.7579 33.6568 32.3762
45.5702 31.8258 30.7291
46.959 32.8434 31.5344
47.3995 34.2304 33.5709
46.8502 33.1588 32.0393
46.1318 32.8623 32.1806
46.15 32.3754 31.6981
43.9324 32.6062 31.9153
42.908 31.072 30.7893
45.413 32.6079 31.704
44.2214 32.6952 32.6622
44.8574 33.313 33.3733
44.2624 33.0823 33.3017
44.8221 32.2779 32.5854
44.3279 32.6399 32.6794
42.3074 32.1286 33.1971
43.7337 32.4353 32.3221
42.9786 32.607 33.2516
41.9829 31.8321 32.8211
42.8086 31.9909 32.6277
43.4301 32.3272 33.2535
42.7854 32.0344 32.983
43.038 33.1904 34.5634
41.2451 31.8453 33.4495
42.8773 33.1719 34.9379
42.1721 32.2455 33.5244
40.7784 31.1899 33.0731
41.4009 31.821 33.7765
41.1506 32.2534 33.7845
41.4154 32.0367 34.2925
41.685 32.137 34.1982
40.435 31.9768 34.5515
39.8149 31.4737 34.1602
40.8616 32.082 34.5939
41.3876 32.7446 35.0452
39.5421 31.7795 34.9676
39.2583 31.9436 34.5415
39.4769 32.1298 35.3218
39.349 30.5422 33.8216
40.4974 32.2588 35.3793
38.2608 30.2703 33.6455
38.5361 31.0215 34.5861
37.78 31.1369 34.9186
38.4908 31.8908 35.6396
39.0652 31.8369 35.3302
37.1047 30.7649 34.4703
37.6241 30.6174 34.7936
36.9037 30.5039 35.1046
38.4353 31.4126 34.9071
36.5152 30.1255 34.5059
35.6541 29.7083 34.8024
37.2474 31.5723 35.8258
36.2089 31.1648 36.4195
37.2683 30.3945 34.9335
36.5387 30.8378 36.112
36.7437 31.9975 37.3256
35.7584 30.5856 35.4455
37.5159 31.9189 37.4704
35.8165 31.0694 36.7324
35.6763 30.2037 35.9301
35.0004 30.4514 36.2376
37.1848 31.183 36.6503
35.0925 30.724 36.5388
34.479 30.1521 36.8932
35.7062 31.3921 37.7344
35.6921 31.631 37.6545
34.3421 30.4147 36.5076
34.427 30.395 37.1193
34.6755 30.53 36.9959
34.4413 29.9143 36.9436
34.6723 31.1148 38.0711
34.5834 31.1249 38.4636
34.5973 31.5855 38.588
33.9487 30.8004 38.8796
33.4012 30.4915 37.7104
33.6989 29.8163 37.1049
33.4393 31.0315 38.6011
33.5151 30.6255 38.72
32.9613 29.9546 37.9453
33.3584 30.9123 39.4438
33.99 30.5684 38.1664
32.6488 29.8138 38.5093
33.7082 30.3327 39.3055
34.4376 31.0571 39.811
34.5906 31.4975 39.8793
32.202 28.7518 36.5108
32.0401 28.6628 36.5111
32.0768 29.8497 38.0404
29.6039 28.8299 38.674
31.7558 29.4767 38.1576
31.846 29.7474 39.0112
31.5148 29.6327 38.4095
32.0161 30.5828 40.3829
31.7659 29.375 39.2261
31.1087 29.8023 39.6083
31.4448 30.0192 40.3124
30.6363 29.6373 39.2846
30.3643 29.7121 39.241
31.1903 30.1795 40.6587
30.9922 29.2376 38.9809
29.6551 28.5696 38.6291
29.5063 28.8586 39.3119
30.4355 28.1513 37.8925
29.6861 29.4566 40.2476
30.8867 29.8387 40.4422
29.4159 28.85 39.399
29.2966 28.6251 39.4492
28.9012 28.2166 39.1439
29.0379 28.0645 39.0055
28.3565 29.4274 40.9361
29.4563 29.1068 40.8536
29.862 30.3869 41.5078
28.0086 28.4338 40.4671
29.7485 29.4411 40.5542
28.4023 29.13 41.5512
29.4018 28.9164 40.3753
28.3041 28.7973 41.3503
28.8558 28.2264 40.4636
28.2934 28.8949 40.399
27.9689 28.5016 40.1844
27.6704 28.965 41.6557
27.6507 27.9786 40.5897
28.0081 28.9623 41.2211
27.5334 27.8029 40.0529
27.6037 28.5705 41.3162
27.2966 28.107 40.8793
28.2464 28.2629 40.7372
27.0698 28.3228 41.5714
27.9459 29.5104 42.4304
26.3601 27.391 40.892
27.3667 28.2872 42.7543
27.0834 28.0917 41.6619
26.8744 28.3068 41.9001
26.9371 28.0548 41.2536
26.7513 27.5513 40.5988
25.8818 27.5583 41.3814
26.3473 27.8279 41.5017
27.0782 28.634 42.9409
25.9358 27.2087 41.3189
25.6574 27.6424 42.4532
26.1102 27.5261 41.4767
25.7478 26.9525 40.7856
26.0874 29.064 44.4604
24.926 26.8785 41.1486
25.6101 26.7232 41.1684
25.1936 27.5481 42.4803
26.0271 27.1568 41.6227
25.7525 28.2121 43.3638
25.431 27.4307 42.0897
24.9794 27.116 42.7683
24.9093 26.3636 40.5294
23.9871 26.4917 41.3508
24.6321 27.2535 42.7766
24.5507 27.1122 43.0488
24.6472 26.598 42.0487
23.6113 27.3879 44.3017
25.0022 26.9327 42.6934
24.7258 27.2617 42.5425
24.0519 26.4293 42.5587
24.104 27.0487 43.4385
24.6732 27.2139 43.7942
24.9081 26.8935 43.4519
24.6394 27.5047 43.9966
24.5128 26.9607 42.6827
24.4719 28.4671 45.6696
23.3175 26.2462 42.4458
22.6533 25.9337 42.3531
23.1796 26.3603 43.3594
23.3953 25.8961 42.0445
22.7278 25.9475 42.7944
23.2573 26.4087 43.1375
23.536 26.4846 43.6518
23.6895 27.2254 44.6037
23.193 26.964 44.2255
22.5855 25.6303 43.4601
23.4421 27.2727 44.851
23.0875 26.4988 44.2742
22.8058 26.0871 44.2514
23.4266 26.7134 44.9398
23.1249 26.8768 45.0763
22.0794 24.8682 42.0931
22.9802 27.1575 45.3668
21.7483 25.4579 43.7469
22.3883 26.2941 44.0582
21.9691 24.6581 42.1169
22.6267 28.1623 47.5832
21.4742 24.7811 42.6464
21.5015 25.4941 44.4217
22.1217 26.4123 45.7688
22.233 26.4273 44.9527
21.5902 25.5658 44.6905
21.7758 25.5001 44.3958
21.6826 26.1458 44.24
20.6457 24.6634 43.9626
20.7785 24.9341 43.9761
21.3192 26.4358 46.1948
21.423 25.895 44.6204
21.2724 26.123 46.9286
21.2634 25.5361 44.7023
21.2582 26.5247 47.0955
20.9943 25.8693 46.5956
21.3446 26.0052 46.2851
21.8062 25.5871 44.6923
20.9095 26.2487 46.6385
20.8029 25.1162 45.5269
20.5881 24.7993 44.074
20.3684 25.4856 44.6242
20.2515 26.313 48.3561
20.6333 25.275 44.9335
19.8746 25.2913 46.0761
20.4482 25.3297 46.6254
20.6514 25.2563 45.352
19.6701 25.4826 46.9807
20.3426 26.1695 47.637
20.5332 25.5749 47.4325
19.819 24.0257 44.2357
19.5644 24.7795 46.0596
20.5583 25.7944 46.6155
20.0724 24.8492 46.4556
19.9902 25.1757 46.1829
20.0314 24.8682 45.8244
19.1155 24.1656 44.9666
19.3756 25.105 47.2935
18.8559 23.8076 44.7683
19.1085 24.9098 46.6649
19.2042 24.0945 45.1916
18.8239 24.5308 46.8113
18.9617 23.7054 45.109
18.3195 23.9797 45.8901
19.0009 24.48 46.5528
19.7385 25.4357 47.9472
18.794 23.9166 46.0385
19.0008 25.0426 47.2481
18.3363 23.6236 45.6069
18.6199 23.7988 46.5433
19.1549 25.2513 48.7231
18.5424 23.9472 46.4338
19.1592 24.6123 47.2515
18.5702 24.7971 48.0192
18.7115 23.792 45.6178
18.3334 24.683 48.3494
18.218 23.9978 45.7959
18.4972 24.762 48.6029
17.3392 23.734 47.3237
18.558 23.7953 46.2651
17.9736 24.1821 47.2831
17.6368 23.8357 46.7006
17.9039 23.4876 46.8429
17.9369 22.9644 45.5182
17.3806 23.3046 45.8597
17.2666 22.7773 45.9571
18.1444 23.7346 46.9288
17.6599 23.9084 48.3069
17.5123 23.3864 46.341
17.5158 23.8065 48.421
17.7409 23.7288 48.1778
17.5017 23.8562 48.0116
17.6276 24.3414 48.4225
17.163 23.3704 47.5826
17.736 24.5686 49.0727
17.1774 23.381 48.1344
16.9326 23.3284 48.6607
17.1951 23.034 46.9937
17.0774 22.7866 46.8674
17.2097 23.2624 47.6246
17.0953 24.0808 49.5569
17.2657 24.053 48.4261
16.9211 23.3081 47.4651
16.8846 23.4698 48.9051
16.4789 23.4061 49.6104
17.1342 23.8842 48.9612
16.6097 23.3304 47.7943
16.2771 21.8887 45.5185
16.7272 24.0621 49.4354
16.3956 23.5253 50.6014
16.4397 23.4459 49.1732
15.9711 22.169 46.5589
16.2182 22.5368 47.463
15.6964 21.9241 46.9351
16.5873 23.3111 49.7699
16.4393 23.7687 49.0494
16.1651 22.6111 48.7857
16.4883 23.2454 49.5741
16.1767 23.4976 49.7378
15.8744 22.1967 47.9838
16.3907 23.1559 49.2637
15.7347 21.963 47.5191
16.0035 22.9791 49.047
15.3412 22.3358 48.8193
16.1772 23.0785 49.8249
15.9657 22.512 48.9231
15.5354 22.5477 48.9105
15.7644 22.1233 47.9328
15.7203 22.3712 49.5248
15.5936 23.498 51.0702
15.6923 22.596 49.0158
14.9857 22.1934 48.7346
15.3096 22.1802 49.5874
15.7725 22.7596 49.2558
15.498 22.517 49.202
15.2077 22.6607 50.5039
15.0678 22.2526 50.1363
15.4614 21.7714 47.6577
15.1166 21.9452 48.0238
15.1663 22.9918 52.5869
16.007 22.5711 49.5288
14.8809 22.056 48.6849
15.1257 22.3686 49.0805
14.7565 22.4845 51.4475
15.4752 22.7208 50.3979
15.018 22.2395 50.6416
15.338 22.9388 51.249
15.08 21.9455 49.9608
14.9993 22.002 48.8271
14.7641 21.5813 49.713
14.8433 21.3269 48.5044
14.7537 22.1171 50.4248
14.8822 21.3676 49.4628
14.4264 21.9407 50.4582
14.776 22.6471 51.3108
14.8605 21.3259 48.2987
14.4126 22.5183 52.1031
14.3737 21.9432 50.4267
14.0817 21.4137 49.1565
14.4911 21.9348 50.9427
14.2739 21.2413 49.8028
14.4547 21.3237 49.3749
14.3292 21.7096 49.4205
13.9258 21.347 50.1822
13.7735 21.0148 49.8415
14.2302 21.3497 49.7248
14.3033 21.4424 50.3647
14.0933 21.4596 50.8108
14.1298 21.3545 49.8519
13.8484 20.4515 49.8719
14.3331 21.5473 49.7803
13.8402 21.8366 52.2595
14.5158 21.7939 52.1583
14.0655 20.8568 47.949
13.8904 22.0298 51.8348
13.6774 21.0997 50.3779
14.0208 21.4329 51.9904
14.102 21.6038 50.9179
13.481 20.7919 49.3336
13.2199 21.1561 50.9219
13.9322 20.9747 51.2602
13.5551 20.3034 49.4845
13.8263 21.1592 50.7305
13.4786 21.2799 51.2906
13.708 20.635 50.5453
13.6255 20.6014 48.3553
13.513 21.3371 52.0372
13.587 21.4759 50.7044
13.1726 20.6119 50.9909
13.4805 21.1105 51.0879
12.813 20.5291 52.1717
13.2487 21.2137 51.7587
13.4019 20.5708 49.4986
13.0304 20.871 51.3775
13.1247 20.7861 51.1525
13.1368 20.5938 51.1908
13.3687 21.8568 52.5559
12.7531 20.0177 51.1531
12.8246 20.6904 51.7894
13.2455 20.9239 51.9311
