# pn-170911/CsIIA-39-CsIIA-1280-1959.psd
# Power spectrum* (dif=0,1,2) (really just |FT|^2)
# NOTE: only the first half! (symmetric)
# weeks: 1280-1959
# 1870 clock-days, 890 excluded
# PSD: 1441
21180.3 1.05675 0.0596271
3.64297e+06 57.3648 0.0365039
1.77289e+07 379.134 0.0422279
2.97265e+06 110.934 0.042042
3.19605e+06 228.115 0.0535085
1.14507e+06 110.795 0.0509637
813708 113.354 0.0563449
551808 108.425 0.0617574
449722 113.928 0.0702645
335507 105.725 0.0783098
277030 105.555 0.0864987
234824 105.185 0.0967416
191540 106.255 0.105474
171738 111.407 0.124542
150401 111.965 0.140856
124044 107.529 0.153586
114562 112.861 0.177719
96554.2 107.314 0.186832
89652.6 108.825 0.203813
75905.5 103.874 0.211498
69456.4 105.266 0.23575
60802 101.44 0.252567
58449.4 106.848 0.284905
52383.4 106.665 0.301308
50022.6 109.703 0.336486
44469.1 105.594 0.344556
41062.3 105.214 0.370081
39260.1 108.472 0.414355
35489 102.933 0.429612
32542.1 103.953 0.443288
30515.5 102.997 0.473271
27871.4 99.9643 0.490882
26658.5 103.296 0.535241
26709.8 107.87 0.586299
24006 104.74 0.605854
22814.5 103.97 0.640759
21410.7 106.341 0.703773
19961.2 102.092 0.705454
18762 99.8582 0.714844
18583 104.479 0.797972
17627.7 107.093 0.857015
16168.3 102.42 0.845391
16351 109.825 0.958937
14916.4 105.91 0.958354
14141.3 101.156 0.957831
13844.8 105.925 1.06775
13280.8 106.862 1.1126
12401.2 105.223 1.13359
11868.6 104.743 1.17803
11945.7 108.959 1.28261
11306.9 109.974 1.34043
10447.5 103.531 1.31867
9768.52 102.195 1.34213
9754.43 103.627 1.40614
9283.18 103.475 1.47251
9201.6 104.966 1.53607
9088.71 108.188 1.64752
8383.9 103.21 1.62863
8538.38 108.241 1.76949
7787.32 102.43 1.73088
7418.84 101.097 1.76284
7174.1 101.89 1.84009
7418.96 105.908 1.9649
6956.62 103.3 1.98861
6710.45 102.343 2.03373
6695.79 108.891 2.20466
6403.18 104.108 2.18268
6296.57 104.632 2.27753
6182.4 108.397 2.43133
5607.93 100.995 2.3212
5558.81 104.214 2.4652
5358.79 101.062 2.46034
5488.94 106.582 2.67429
5075.03 99.668 2.56051
4884.02 102.842 2.7212
4928.18 103.273 2.79008
4792.46 106.761 2.95708
4600.44 101.338 2.89302
4418.19 101.697 2.97826
4501.19 104.229 3.12987
4376.2 106.083 3.25206
4355.79 106.226 3.35148
4043.62 103.631 3.33446
3938.83 101.958 3.35792
3830.17 100.487 3.41366
3752.11 102.385 3.55153
3570.26 98.017 3.4796
3658.91 103.712 3.73658
3529.71 102.606 3.81283
3454.03 101.256 3.80409
3420.77 103.332 3.99534
3278.04 105.515 4.18953
3248.2 103.498 4.20078
3168.79 102.491 4.21292
3006.06 100.333 4.24141
2989 99.5963 4.30908
2916.96 102.183 4.49374
2940.2 104.095 4.67489
2996.05 106.619 4.89517
2824.02 101.263 4.72301
2748.54 103.43 4.89777
2511.53 98.6769 4.81983
2624.39 100.051 4.96409
2597.78 99.8345 5.03098
2515.26 97.9206 5.05008
2481.82 100.051 5.27504
2379.43 100.672 5.3753
2433.1 104.367 5.68876
2298.31 101.208 5.62995
2247.41 98.2355 5.58121
2162.7 96.5214 5.54399
2236.79 103.335 6.07053
2136.69 99.6792 5.94963
2117.63 99.328 6.05936
2133.42 99.9263 6.18261
2066.57 101.135 6.38301
2002.08 98.7927 6.35054
1875.08 95.5287 6.2192
1868.46 98.4855 6.5094
1918.83 101.699 6.83401
1849.04 98.8175 6.76116
1838.38 98.6598 6.91868
1788.54 96.9844 6.81867
1734.07 97.1292 6.99587
1705.07 98.5454 7.1854
1630.28 94.595 7.03907
1664.34 96.6837 7.28551
1659.32 99.7723 7.67891
1669.56 100.062 7.7642
1605.56 97.4075 7.71789
1635.16 101.701 8.19097
1569.86 98.6488 8.02332
1541.89 100.512 8.32426
1470.03 96.5556 8.07111
1465.97 97.536 8.3024
1471.58 97.4688 8.45272
1398.05 95.7733 8.41558
1403.02 96.0958 8.53217
1393.04 97.0369 8.78841
1369.82 96.2819 8.7891
1298.25 94.3615 8.73433
1275.28 95.8399 9.11153
1314.58 99.3496 9.43969
1305.82 99.5191 9.62054
1250.19 94.0763 9.23719
1251.69 95.5501 9.48538
1279.15 97.5837 9.83606
1174.15 94.5565 9.71634
1172.84 95.049 9.81028
1176.05 99.6004 10.4823
1146.47 93.7499 9.95016
1103.38 93.449 10.0924
1128.53 96.0458 10.5061
1105.71 95.2657 10.5795
1084.68 92.7273 10.383
1052.49 93.1738 10.5347
1069.58 96.3902 11.037
1029.59 92.5791 10.7692
1015.99 94.8962 11.2226
1015.39 92.9956 11.1291
988.638 92.1092 11.0877
1022.37 96.7244 11.8296
1008.6 96.1271 11.9303
971.591 94.112 11.7385
989.175 97.0822 12.2662
939.916 95.9042 12.3348
908.484 90.6635 11.7749
914.238 93.9727 12.3743
905.455 92.5528 12.3072
861.846 89.0075 12.0448
872.886 91.3646 12.4895
881.457 93.807 12.8992
861.845 95.1279 13.1921
820.552 90.5552 12.7685
849.1 94.2287 13.4452
815.296 93.1463 13.5167
848.751 94.2832 13.7535
809.597 92.207 13.5831
811.845 90.9457 13.5974
776.495 89.8718 13.5959
741.767 88.4991 13.5278
773.555 93.4913 14.3991
764.714 92.8331 14.5002
761.355 93.0018 14.6504
761.272 92.514 14.6977
767.318 94.2334 15.1458
707.624 86.926 14.2317
701.852 90.0913 14.9229
712.963 92.1933 15.2398
702.975 89.1369 14.8584
652.593 84.8158 14.4222
665.85 89.4008 15.3541
701.148 92.8673 16.0066
672.237 88.8683 15.4514
636.553 88.05 15.6549
645.042 89.5562 15.9824
613.485 84.7541 15.2858
622.594 87.8919 15.9238
622.13 86.4092 15.9293
627.579 89.2797 16.687
603.949 85.9157 16.0634
617.886 90.57 17.1246
597.509 87.819 16.8432
584.205 85.1132 16.457
569.531 86.6351 16.9171
596.321 90.1682 17.6417
558.888 87.5938 17.5932
577.459 89.7219 17.9986
586.204 89.3452 18.0665
561.419 89.2501 18.1079
546.909 85.8013 17.7854
559.602 87.832 18.2944
538.257 85.8775 17.9462
529.365 86.6647 18.4445
512.268 86.1755 18.4982
501.369 82.273 17.8833
513.626 84.295 18.359
514.013 88.2479 19.3293
511.048 84.4899 18.868
496.35 86.3879 19.3185
517.609 88.1697 19.9912
490.158 87.2293 19.8695
491.405 87.4521 20.3221
493.238 86.8219 20.1616
488.893 85.8461 19.9917
460.953 82.6586 19.5983
461.445 84.6298 20.2617
457.934 84.3825 20.2073
463.856 86.5424 21.1456
446.706 81.3169 19.9067
444.956 81.8024 20.2774
450.023 79.8273 19.7216
443.647 84.2272 21.2837
428.979 83.2594 21.0546
429.92 83.8766 21.2998
424.872 83.8664 21.5174
424.075 82.5189 21.4843
431.454 83.5036 21.8624
420.345 84.361 22.3712
409.7 82.6763 21.9355
407.05 82.2514 22.0542
392.736 81.0028 21.8912
411.154 86.2601 23.3876
399.749 83.0058 22.9538
407.944 85.6628 23.7265
391.857 81.4115 22.584
377.072 80.9545 22.7047
390.728 82.6822 23.546
383.591 82.3932 23.5839
383.557 83.3896 24.123
365.147 79.9694 23.1938
371.05 82.0852 24.0993
360.221 79.8004 23.4132
359.336 80.0895 23.908
355.647 79.1979 23.6105
366.704 82.3869 24.7966
340.569 77.3811 23.6346
346.556 80.479 24.3444
348.954 82.324 25.4605
341.303 85.1934 26.4812
346.642 80.3164 25.2825
331.78 79.0573 25.076
330.095 78.1481 24.8201
338.78 83.1263 27.0201
327.52 78.1507 24.8117
320.922 76.8959 25.0231
320.358 79.0772 25.7521
317.806 78.3723 25.944
322.721 80.2756 26.6284
311.683 78.699 26.4146
310.087 77.5412 26.2975
300.068 75.2289 25.4461
309.006 79.2271 27.0226
303.021 79.5454 27.4703
309.804 79.3381 27.4833
292.688 75.9506 26.7006
304.789 77.6427 27.1302
302.374 77.7717 27.5424
289.369 73.4113 26.6154
291.714 75.2076 27.0962
289.006 75.8828 27.1567
289.619 78.6105 28.6691
284.569 77.067 28.414
264.415 74.5692 27.9058
286.204 79.1158 28.9563
268.903 74.5754 27.9354
271.349 75.1702 28.3071
260.784 73.4096 27.8431
257.834 73.2821 28.0047
263.15 75.8939 29.4309
267.978 76.9447 29.6993
265.589 74.9336 29.2331
262.774 73.4306 28.9056
266.793 77.9715 30.9498
256.448 74.0467 29.6062
251.519 73.838 29.3649
251.54 74.3857 29.9977
248.563 74.7622 30.5589
250.773 74.487 30.0746
240.072 73.7136 30.2585
246.19 74.9685 31.0946
236.606 72.022 29.9851
235.186 70.7761 29.624
235.161 72.7827 30.8016
232.372 71.0604 29.7509
230.621 71.0908 30.3113
223.194 73.0351 31.3782
230.425 73.7803 31.6443
232.067 73.7509 32.7091
233.441 73.7895 31.8847
226.443 73.1059 32.31
229.101 73.5055 32.5736
218.666 72.0475 32.2484
230.393 74.5332 33.3221
229.948 72.5052 32.9077
222.323 73.4946 33.0249
212.146 71.1437 32.5355
218.144 72.3852 33.4305
214.779 72.1966 33.2572
207.54 69.4005 32.6687
206.799 69.9158 32.4267
206.432 73.5723 35.0365
216.536 74.131 35.1412
208.761 72.5621 34.4004
208.828 73.2973 34.9384
203.332 71.0365 34.7786
202.484 69.7076 33.5304
199.3 68.9273 33.3869
196.878 69.4679 34.0058
194.164 70.2775 34.9299
203.442 72.6757 35.5314
191.526 70.0971 35.3716
187.517 67.3834 33.7863
188.641 68.5619 34.5661
185.986 69.9833 35.5374
185.407 69.0349 35.2125
184.635 69.8689 36.3049
183.868 69.6955 35.7761
179.966 67.0322 35.0531
178.342 68.0344 35.3288
181.215 66.6399 34.8302
175.263 67.2009 35.987
176.589 67.8479 36.2542
171.932 65.1653 34.8084
175.897 70.0567 37.4418
177.016 69.8496 37.6004
170.544 66.46 36.4837
173.709 66.6873 36.512
171.758 66.9343 36.6836
173.809 67.9604 37.8911
173.237 67.5358 36.9798
176.964 69.6551 39.4456
180.809 72.043 39.9883
165.485 63.8798 36.0345
167.684 67.0917 37.7766
163.258 66.3408 37.9072
162.6 63.8084 36.5488
156.149 65.5873 38.271
163.032 67.6721 38.7357
163.634 67.7754 39.2194
164.66 68.3525 39.9846
156.585 65.2529 38.6214
157.07 64.5182 37.8648
156.753 66.239 39.8033
161.009 68.1686 40.2076
157.59 66.2542 40.426
150.964 64.7999 39.3192
151.695 66.0247 40.1418
147.108 63.5 38.832
150.229 63.5294 39.1294
147.295 65.0742 40.0724
147.863 63.659 39.083
138.156 60.4851 37.6881
148.319 66.044 41.522
148.055 66.0841 41.988
142.873 63.4979 40.0506
139.465 60.1887 38.3246
143.047 64.1329 40.5262
133.768 63.3409 41.3819
136.316 59.681 38.7631
134.134 62.6794 40.8472
138.185 62.0234 40.4117
131.621 60.6205 40.0291
134.495 62.0263 40.7797
140.71 61.8124 40.3601
132.454 59.1768 39.2034
129.832 61.2043 40.889
129.173 59.0812 39.6306
129.545 59.5289 40.0155
128.613 61.6137 42.5169
130.595 60.5951 41.1743
134.884 65.3455 44.8792
132.699 62.8533 43.2278
126.767 59.6293 41.0284
126.12 61.5728 42.492
129.329 62.2637 43.8129
125.01 62.8642 43.9072
127.33 62.4518 44.3465
127.423 61.3761 43.1535
124.852 61.4622 43.2267
123.288 61.3171 43.8504
123.944 61.4934 44.1043
119.808 61.8606 45.0374
122.488 59.5126 42.7799
121.118 62.7803 46.0471
120.309 57.9267 42.2645
114.912 58.9626 43.033
113.377 58.0095 43.063
113.47 57.3742 42.6656
120.514 61.2761 45.0965
119.094 60.6437 45.5926
115.33 59.4676 45.0175
113.763 59.3949 44.7433
112.458 60.088 45.2186
107.194 57.1008 44.0589
109.769 58.8038 44.9088
113.864 59.2282 44.9682
112.234 59.7302 46.3962
106.372 57.1792 44.4285
110.707 58.9421 45.4099
109.419 57.9355 45.2083
108.194 58.0821 45.3691
105.548 58.0425 46.588
107.768 56.4236 44.4352
106.149 57.3608 45.3797
107.121 57.8616 47.0846
106.14 57.931 46.031
104.08 56.0246 44.7895
102.514 56.4229 46.5166
104.246 57.4318 46.8235
99.6559 56.2368 46.1251
101.794 54.8177 44.6825
100.822 56.713 46.8976
97.8831 55.2703 45.6531
98.4262 55.4304 46.1497
97.2513 56.6125 48.0504
100.233 56.749 46.6367
98.5581 54.721 46.549
97.4013 55.8038 46.9936
94.0595 55.4075 47.1683
98.3811 57.3201 48.8193
98.9847 56.4114 48.7747
98.6511 56.6973 48.3125
95.6911 54.5459 46.5865
97.2931 56.1202 48.6228
94.3684 56.135 49.0429
95.4216 55.9902 48.8921
90.1051 54.1889 47.6936
91.5805 56.1968 50.205
90.9891 54.8802 48.6073
90.6904 55.7692 48.9636
92.5329 56.9 50.2896
96.2924 57.0974 51.7076
92.7615 54.9314 49.4109
94.7424 55.9953 51.0389
91.0364 56.5302 51.3892
90.2012 53.8316 49.197
87.9051 54.1086 50.0196
86.7994 53.1075 48.7086
87.6949 53.0652 47.7146
84.1602 54.1415 50.4583
88.4232 52.235 48.3359
89.0148 55.2664 51.5382
85.6937 53.3084 49.1
84.0507 53.4685 51.5246
88.8798 53.7913 50.7658
87.2586 55.333 52.0256
84.1033 51.1528 48.6724
84.8441 53.4579 51.0067
84.0472 54.1506 52.4211
82.926 52.1776 50.4577
83.5503 53.2584 50.6845
83.4573 51.7267 50.2452
83.0725 51.5334 49.71
79.8356 50.0926 49.7874
81.7682 52.5017 50.3995
79.2738 52.0181 51.1519
77.9303 50.2517 49.673
76.9604 49.6203 49.3042
76.8071 50.7712 51.3523
82.2454 51.1479 50.4787
77.1621 50.3537 50.5327
75.4979 49.5895 50.5995
78.4529 51.6236 51.9135
76.5772 50.4081 50.8083
77.9205 52.6381 53.5103
77.8275 51.2413 51.748
75.6661 49.6022 51.2548
76.8597 50.6641 52.7989
74.5522 50.2678 51.1455
72.9121 50.2349 52.5365
73.9838 48.7578 50.4387
73.893 50.3631 53.4587
74.0752 51.6988 53.2556
71.1662 50.0545 53.458
72.4946 48.7582 51.9184
72.3868 50.4953 52.8887
72.159 49.308 52.7139
74.7708 50.5274 54.1259
71.2885 48.6771 52.2437
73.4505 50.6213 54.3382
69.472 49.1265 53.294
70.0257 48.6864 52.2966
68.9221 46.3184 50.8517
70.8171 49.0802 52.9344
69.2047 49.1876 53.6962
69.8695 48.8254 54.4098
68.9752 49.1443 54.4356
68.8869 48.9953 53.656
67.2738 48.068 54.2831
67.0387 47.7614 53.3493
66.4443 48.8044 53.5347
65.5274 46.1342 52.1474
64.9584 47.7416 55.156
64.7502 46.7928 52.8306
65.1525 46.9012 52.8157
64.6924 47.574 54.2252
66.3237 48.1208 54.2369
64.6582 46.1514 54.045
65.1643 47.4696 54.946
65.1836 47.1184 53.9225
61.8849 47.903 55.2783
63.8773 47.8634 55.6408
65.1532 48.8795 57.1179
62.305 46.9219 54.8531
62.0967 46.2969 55.1135
62.2194 46.7553 54.5602
62.0359 45.846 54.8228
63.0774 46.3044 54.2197
62.0087 48.113 57.3221
60.525 45.1889 54.6636
64.1024 46.0284 53.6477
60.4196 47.9543 57.463
59.4431 44.8908 54.5689
60.0204 46.0092 54.8419
57.7766 44.6465 54.3276
58.7831 44.2817 54.484
58.6361 45.8599 56.7623
58.2338 46.5544 57.0541
58.6588 44.6405 54.2196
59.4894 47.3594 57.2624
58.267 46.1575 57.0837
54.4914 41.9282 52.2978
57.1058 44.0972 54.5256
57.7446 45.7178 57.3964
56.4544 44.083 55.5029
56.8597 44.6349 55.7772
55.787 43.564 54.1828
54.223 44.5462 57.0137
54.9851 43.1425 56.121
55.1878 43.1124 54.958
57.0154 45.488 57.3848
55.3257 44.3947 58.0949
55.0767 43.9972 56.2702
54.8443 44.3445 56.4644
52.8797 43.9672 57.6476
54.6815 43.9912 56.3416
55.1277 43.5469 56.7889
53.4209 42.327 55.8533
52.4553 44.3415 58.5514
54.5621 43.4012 58.2684
54.7734 45.0506 58.7386
52.9801 43.0721 57.2567
52.9546 43.5093 57.4325
53.512 43.3737 58.3
53.5162 43.5026 56.2605
51.2369 41.2804 57.0955
52.3958 43.3472 58.8249
53.619 42.7714 56.5798
50.7741 43.8884 59.5224
51.7641 42.8399 57.9793
51.6817 43.0237 59.1978
52.1413 42.1849 56.8639
50.1518 43.1923 59.8805
50.5083 42.45 58.2121
48.3472 42.7876 59.1589
49.8515 41.1435 56.905
48.6536 40.8619 55.77
47.8149 41.5143 58.7206
50.9631 42.8935 58.7596
49.9517 41.5072 57.6888
47.2384 40.8272 56.9706
48.4518 40.8809 57.7155
48.7081 42.2203 59.1727
48.5395 41.275 59.4413
46.7617 41.0924 58.8408
47.8946 40.5433 57.85
50.3827 42.8469 60.3131
47.6288 40.1396 57.6964
46.6041 39.9714 57.5415
47.6063 41.5923 59.2978
47.1663 40.6408 58.8572
48.7337 42.2215 61.8186
48.5351 42.2211 60.1566
46.7708 41.6584 60.018
46.8915 40.8874 60.614
45.1673 39.7725 58.1213
45.8482 40.5805 60.5159
45.9272 39.9336 58.3378
44.1645 39.3906 58.2388
44.7503 39.4087 57.4469
44.7889 39.1967 57.4718
44.1595 39.5942 59.9232
43.6443 39.0763 58.0726
45.0476 40.6951 59.8681
43.5192 38.6468 59.0345
44.2784 40.4347 61.153
44.1325 39.8166 59.8215
43.5812 39.3824 60.5736
42.9234 39.0479 59.2635
44.8807 38.693 58.7088
42.355 39.6265 60.7882
42.858 38.8918 59.054
41.5883 38.0756 59.447
45.1402 39.832 60.034
42.0418 39.0696 60.98
43.9103 38.1091 59.0045
42.5138 38.5066 59.1821
42.185 39.4097 61.7379
42.6078 38.9039 60.2818
41.531 37.2864 58.4361
41.8988 39.0006 61.4828
40.8671 37.6558 59.1121
40.4676 37.9384 60.6871
39.3159 37.6435 58.9815
40.1311 37.1669 60.4993
42.6684 39.4633 62.5611
41.5227 38.7046 60.8092
40.3613 37.5938 60.5453
39.5598 37.2739 60.3068
40.5728 37.8094 60.2651
39.8517 37.9503 62.1388
39.4384 38.0596 61.8061
40.1314 37.7941 61.6466
40.1577 36.441 58.0982
40.1987 36.7578 60.285
38.8239 37.7974 62.4417
39.2048 36.6126 58.6933
38.1866 36.3102 60.0804
39.4299 36.9138 60.9995
39.8349 36.9293 61.1855
39.1927 37.0711 62.2181
37.883 35.1706 57.6982
37.8036 36.3161 59.7043
37.8256 37.1754 62.3902
37.0345 35.7033 61.0623
40.1099 37.6087 61.8277
38.407 37.0804 63.4679
37.864 37.3364 63.3991
37.0411 36.0535 60.5072
37.4405 36.1405 60.6152
36.7783 35.3666 60.1622
35.7728 35.3434 60.9656
36.8685 36.5035 62.452
37.9486 35.3973 61.1384
36.5527 35.9815 61.0462
37.828 36.3347 61.921
36.0013 35.3853 62.0093
36.0955 36.1354 62.8242
37.0054 35.8781 60.3473
34.509 35.7229 61.8493
35.9066 34.9541 60.8769
34.7794 35.7969 62.2578
34.9764 34.9502 62.6648
35.8773 34.6487 60.6802
35.7843 35.9305 64.0329
35.5829 35.4926 61.6078
35.7798 34.4861 61.858
34.3835 34.6109 61.851
35.2938 34.6477 62.5935
35.6668 35.5148 61.2213
34.9723 36.2257 63.6169
34.3787 35.0081 62.8789
35.0914 35.6137 61.6759
33.0338 34.5819 63.1218
33.8432 33.7311 61.357
34.2065 34.8877 63.6745
34.1887 35.9566 66.1966
34.3373 34.9487 63.2094
33.785 33.8582 62.6736
33.8292 35.5671 65.0828
33.9666 33.7598 62.577
33.539 34.6573 62.9515
33.2512 35.1316 64.0549
32.7776 33.3027 61.9838
32.983 34.7145 63.0151
32.2971 33.6038 62.4725
32.0821 32.8472 60.4036
31.987 32.8509 62.3079
32.3225 34.57 63.8406
32.8833 33.0348 61.7922
32.7762 34.6721 64.1678
31.6487 33.3501 62.7811
32.499 34.8091 64.2605
32.3361 33.1405 62.4619
31.1182 31.2883 59.5044
31.0698 32.3173 61.5613
31.0979 31.657 60.2221
30.4422 31.8562 61.6775
31.5473 31.8918 59.7335
30.1418 32.4968 63.9521
31.1641 31.6471 60.0394
31.485 33.1729 63.1687
31.0122 32.1856 63.1008
31.3015 32.3621 61.4453
30.8409 31.8332 60.6851
30.0706 33.441 65.812
30.9492 32.61 63.6525
30.5469 32.2239 63.1553
30.342 32.4814 64.079
30.7979 32.3525 60.5849
30.3597 32.308 64.8332
31.0619 32.7283 62.9799
29.5424 32.5882 65.6926
30.5116 33.1402 63.403
30.4203 31.2804 61.7851
29.392 32.587 64.079
29.8366 31.9145 63.9708
29.8921 32.0313 63.835
29.4821 31.6026 63.852
30.1255 31.8552 64.2302
29.6077 31.1745 62.0082
29.1868 30.1429 60.6472
29.3646 31.1771 62.8519
28.6124 31.4135 63.3392
29.3725 32.1496 64.3378
28.3153 31.171 62.4726
28.3112 29.7032 60.7747
28.8146 31.4954 62.9605
29.2267 30.4996 63.7625
27.8796 30.7239 63.0853
29.7639 31.4974 63.4563
28.9922 31.6892 65.0889
27.4697 30.9466 62.6155
28.7008 31.6354 64.8364
27.8541 29.9516 62.8013
28.0507 30.3159 63.7017
28.6708 30.9135 62.9495
27.494 31.842 65.9335
28.0949 30.529 63.5228
27.9208 30.8488 64.9592
28.6742 31.4426 65.3368
26.7986 29.6904 61.1157
26.236 29.4168 62.7213
26.7122 31.0373 64.9392
27.1805 29.7414 64.1965
26.8138 29.7948 62.5574
26.3253 29.4857 62.5369
26.4142 28.9536 61.4644
27.0309 28.4309 60.3184
27.3236 30.992 65.3898
26.3921 29.1049 63.7093
26.2856 30.0759 62.9256
26.6073 29.6991 64.7109
27.2034 30.4481 63.6225
26.3009 30.2608 64.5646
25.8216 29.3032 65.2804
26.2441 29.1258 64.0843
26.0966 28.2689 59.5905
25.2979 27.4795 60.9498
25.3897 28.8897 63.3814
26.461 29.8854 63.2579
25.842 28.475 61.9194
25.8903 29.0686 63.4337
25.892 28.0293 61.3924
25.7832 29.5603 63.364
24.4065 27.6051 63.6866
25.5945 29.4498 65.4164
25.7772 28.8758 62.8467
25.7914 29.7967 65.5191
25.5848 27.6934 61.2119
25.1048 28.3103 63.3758
25.2746 28.8982 63.8379
25.2772 28.8094 64.1738
24.7035 27.5689 61.7246
24.4266 27.3417 61.0543
25.4907 28.6163 63.3791
24.6901 28.954 64.1488
23.7959 28.7801 66.2768
24.986 29.6357 65.8925
24.586 29.23 64.9834
25.2268 28.1317 65.0824
24.4264 28.0081 63.4791
24.2007 27.9842 62.614
24.2959 28.2541 65.6623
23.4894 27.3504 63.0463
24.9029 27.3837 62.5721
24.4009 27.682 64.0238
23.5618 27.2912 64.1731
24.4125 28.9072 66.0522
24.2984 28.3336 64.2835
24.5127 28.5937 65.5194
23.6226 26.9297 59.7963
22.4015 26.6181 62.2001
22.6202 27.1371 63.9575
23.179 27.0487 62.9652
23.3718 26.685 62.6817
23.2785 27.7721 63.1985
23.233 26.8155 61.9908
22.0845 25.7785 62.53
23.1131 27.7558 64.534
24.3097 27.4513 64.3227
23.6734 27.4434 64.6507
22.6192 27.8299 66.8346
23.5089 28.1192 64.4906
22.7248 27.2432 65.7945
22.7774 27.4919 65.0227
22.3903 26.7949 63.4858
23.1312 27.7717 66.8552
23.0023 27.0593 63.2873
22.2463 26.5003 63.102
22.5286 27.2972 64.4184
23.4383 26.3975 63.144
22.451 26.5725 65.5031
22.8445 27.3862 64.6942
21.9022 25.4125 61.3216
22.1052 25.8798 64.6212
22.577 25.7774 61.6779
22.4815 25.8977 63.9775
22.0438 25.6825 61.6708
22.5052 27.0864 65.6665
21.8325 25.9319 62.5135
22.6702 26.4911 63.9559
21.4122 26.4455 64.7689
21.2633 25.0079 61.0583
21.3666 25.1436 63.6474
22.3673 26.1853 63.687
21.1518 27.5799 66.7829
21.3901 24.9338 62.4578
21.7357 26.046 64.7713
20.826 25.457 62.0456
21.5197 25.3749 63.8863
21.3244 26.2152 64.5738
21.2217 24.5371 61.3512
