# pn-170911/CsIIF-72-USN7-1280-1959.psd
# Power spectrum* (dif=0,1,2) (really just |FT|^2)
# NOTE: only the first half! (symmetric)
# weeks: 1280-1959
# 490 clock-days, 37 excluded
# PSD: 1441
5720.44 0.254966 0.0230141
361202 8.42484 0.0338986
1.06985e+06 20.0739 0.0357565
459706 17.3694 0.0358591
289788 20.2554 0.03535
155672 15.6232 0.03641
124039 18.0858 0.0343865
86229.3 16.3426 0.0370769
63853 16.3115 0.0404601
56063.6 17.715 0.0427177
42831.1 17.0497 0.0441318
34074.5 16.4639 0.0426375
31406 17.2923 0.0473261
24904.5 16.307 0.0497635
20658.4 16.7811 0.0492354
18292.7 16.1451 0.0507426
16471.2 15.9632 0.0510833
13753.7 16.6983 0.0536342
13100.3 16.4103 0.060264
12458.7 18.0676 0.060302
10229.4 16.3378 0.0638948
8817.1 15.5884 0.0676942
8663.56 16.5383 0.0788947
7356.38 16.0857 0.0727762
7227.09 17.0514 0.0843241
7040.61 17.7339 0.0824541
6289.48 16.9559 0.0923728
5829.47 16.9393 0.0918124
5170.05 15.6024 0.0935367
5317.67 17.5459 0.10893
4711.13 16.781 0.107006
4299.64 16.5617 0.112151
3912.24 15.6472 0.11507
3769.41 16.3085 0.120765
3602.79 16.2481 0.125241
3480.5 17.1552 0.137089
2964.54 15.5045 0.133683
3123.47 16.4891 0.139509
2879.98 16.6499 0.15259
2925.17 17.3113 0.162055
2630.45 16.3319 0.156999
2486.2 16.459 0.168169
2471.44 17.3379 0.175002
2220.82 16.6698 0.183852
2266.27 16.5712 0.184386
2077.02 15.8752 0.187152
1875.64 14.9244 0.190922
2058.13 17.6278 0.224347
1831.71 16.534 0.221422
1779.2 16.5931 0.222544
1682.27 16.4463 0.230495
1610.16 16.564 0.247246
1580 17.1665 0.250546
1481.59 16.3093 0.249434
1426.62 16.576 0.255933
1402.65 16.7124 0.27199
1453.01 17.1494 0.28862
1328.88 17.4993 0.301691
1226.5 16.3143 0.286755
1250.04 17.5508 0.323671
1126.43 16.2279 0.307102
1151.4 17.6374 0.33549
1094.5 16.1476 0.328879
1110.29 17.2901 0.360094
1102.83 17.7525 0.372299
1064.72 17.2891 0.384486
887.626 15.6169 0.34938
902.007 15.4385 0.356713
938.054 17.1025 0.407933
870.91 17.2272 0.434696
878.4 16.5271 0.413375
920.936 17.5727 0.448562
799.614 16.0047 0.413553
804.408 16.2427 0.436565
732.841 15.6806 0.426216
803.266 17.346 0.497583
781.664 17.4036 0.51629
660.965 15.6139 0.464917
695.132 16.9193 0.515302
678.524 16.0693 0.499952
659.842 16.4164 0.520423
667.806 16.8647 0.547101
626.026 16.8953 0.578505
600.096 16.1477 0.565891
619.875 17.4732 0.609501
565.525 16.194 0.592259
612.667 16.7478 0.606231
583.323 17.3819 0.639165
531.41 16.4247 0.619786
517.657 15.7824 0.609073
541.24 16.8578 0.6641
532.791 16.315 0.666468
483.563 16.0901 0.672866
451.07 15.4366 0.645723
493.971 16.3305 0.690078
475.453 16.4579 0.719991
462.853 17.1051 0.766194
433.532 15.6289 0.705916
444.511 16.8002 0.804851
453.778 17.4491 0.82416
386.394 14.6507 0.728364
428.905 17.1744 0.848688
392.206 16.3535 0.842229
421.102 16.7261 0.856591
378.94 15.7319 0.810691
353.7 15.3851 0.81804
328.759 14.9155 0.802754
346.423 15.7503 0.899807
361.302 16.4098 0.934585
379.711 17.6307 1.00778
398.938 18.5977 1.07225
351.816 17.1179 1.0078
375.314 17.0355 1.03206
326.621 16.4103 1.00955
344.414 17.0529 1.04259
318.701 15.4095 0.967411
318.03 17.4945 1.1396
316.753 16.9328 1.11672
332.276 17.7511 1.20524
288.869 16.1425 1.10351
282.51 15.8954 1.10328
293.662 16.2733 1.1515
290.273 16.4278 1.14786
305.095 17.7627 1.27229
262.874 15.8924 1.15005
266.878 16.6224 1.22218
247.321 15.1785 1.13682
257.83 16.3233 1.26551
268.264 17.1946 1.34439
241.661 15.588 1.2268
266.014 16.9097 1.34237
258.034 17.6197 1.42215
231.57 15.6838 1.29089
239.28 16.4999 1.37994
253.179 17.4381 1.50772
238.28 16.4354 1.4192
215.803 15.5821 1.34039
221.931 17.164 1.50686
215.4 15.3092 1.41405
209.734 16.1805 1.51967
211.755 17.2208 1.6093
199.384 15.3748 1.46072
215.596 17.2207 1.64532
225.214 17.3594 1.68026
210.003 16.6907 1.63642
204.374 16.6371 1.62286
195.115 15.406 1.56397
206.773 16.4643 1.66364
179.803 15.728 1.64734
186.384 15.9334 1.64982
193.426 16.9087 1.77563
186.409 17.1885 1.88167
187.536 16.6604 1.81786
192.108 17.0692 1.89511
188.226 17.2539 1.93556
185.373 17.3345 1.98418
178.881 17.0016 1.97562
162.464 15.6393 1.76751
175.441 17.0939 2.02899
182.346 17.847 2.10862
163.971 16.8633 2.03509
148.033 14.9287 1.84479
165.796 16.9437 2.11853
162.299 16.9968 2.09128
158.591 16.5936 2.10166
153.211 16.2904 2.1055
149.238 15.6243 2.01644
148.651 16.3259 2.163
150.35 16.3336 2.1528
151.639 17.2027 2.31496
145.8 16.2604 2.20983
144.105 15.4449 2.14633
152.569 17.5254 2.4615
137.266 16.1388 2.26919
145.627 17.6891 2.48977
145.675 16.794 2.47904
137.388 15.5184 2.2614
127.203 15.8412 2.35923
139.518 16.4813 2.41925
144.692 17.9224 2.65796
130.291 16.5485 2.53716
134.002 17.4141 2.67913
133.807 16.3472 2.51173
120.211 15.2692 2.42459
123.707 16.0022 2.54952
132.303 17.4837 2.76836
125.919 16.3197 2.65983
121.605 16.5707 2.742
119.33 17.0947 2.86527
114.928 16.351 2.74356
123.631 16.9051 2.84645
119.336 16.5159 2.80409
118.377 16.6547 2.88781
114.084 16.2558 2.85359
115.612 16.9257 2.99654
110.488 16.4813 2.9384
110.425 16.3066 2.98553
107.037 16.6349 2.96318
110.768 16.8734 3.06293
107.782 16.7761 3.14378
97.7145 15.0549 2.80404
98.9887 15.4967 3.02977
118.625 18.6602 3.52502
101.677 16.7674 3.33523
103.662 16.2932 3.16614
100.976 15.6591 3.03661
96.899 16.7579 3.36897
101.126 16.8228 3.39744
95.1739 15.6066 3.14544
91.9794 15.6936 3.2314
96.7405 16.0264 3.27559
93.8501 16.5902 3.48654
94.436 15.6345 3.26239
103.437 17.5829 3.66059
93.9131 16.0322 3.46014
95.0427 16.9933 3.67121
90.2622 16.3788 3.59976
90.4261 15.9931 3.50157
92.2729 16.9969 3.68198
98.2404 18.5616 4.10129
87.951 15.7166 3.55685
88.7755 16.946 3.98005
87.5679 16.8757 3.90934
84.6724 16.0043 3.65293
79.2661 15.8437 3.67718
88.6328 17.7465 4.17153
79.3593 14.8074 3.53431
86.4324 16.9354 4.10943
80.2738 16.3171 3.91396
85.225 16.5147 3.99126
78.3155 16.6982 4.20113
78.0044 16.3102 3.99175
72.8627 14.8864 3.70312
76.7258 15.6901 4.02309
71.2302 15.3103 3.86945
77.6256 16.6953 4.24701
72.1694 15.5161 4.09549
71.131 15.9589 4.17104
77.7185 16.7031 4.3645
76.8716 16.9798 4.50256
78.4283 17.3973 4.70104
78.6324 17.5668 4.6756
74.5927 16.5117 4.53737
67.5608 14.7732 4.07871
74.1817 16.6207 4.58208
72.0662 16.289 4.47613
70.1129 16.1764 4.53522
70.7623 16.5884 4.7121
67.9038 15.8784 4.58838
68.301 15.7286 4.47136
67.494 16.4811 4.68922
70.0262 16.1556 4.68091
65.9777 15.5597 4.61591
70.7247 17.1967 5.01313
62.6371 14.7407 4.3898
61.629 15.9438 4.84208
66.6472 15.8086 4.67492
65.7881 16.2211 5.04609
61.6019 16.0063 4.98686
59.4117 14.9551 4.68109
64.0944 17.0876 5.2948
62.896 15.9961 4.97275
65.6668 16.5979 5.32314
61.7617 16.4013 5.29981
66.1739 16.5507 5.17106
62.1952 16.8304 5.44152
64.0576 17.6956 5.73358
55.959 15.2742 5.0556
59.6721 16.4007 5.48077
58.5723 15.7345 5.21388
60.6318 16.837 5.71605
57.5063 16.6902 5.74817
56.6518 15.7136 5.38919
54.822 15.2971 5.2301
59.9857 15.8795 5.44987
56.8376 16.6777 5.79917
58.1685 15.9899 5.63855
59.2496 17.3962 6.18651
55.861 16.9812 6.0115
55.1032 15.8586 5.69965
53.04 16.0789 5.85909
56.212 16.2765 5.88921
54.8079 16.7844 6.18799
54.6728 15.8854 5.76144
49.9315 16.6059 6.20629
52.5624 16.1445 6.04636
55.1657 16.5287 6.23868
54.2855 16.6412 6.39352
50.0493 15.0389 5.69518
52.7149 16.8363 6.50656
53.8358 15.6092 6.10525
55.4776 18.0169 7.08029
49.2111 15.3086 6.04526
51.0567 16.6394 6.53754
54.8175 17.3321 6.68714
51.7755 16.7829 6.88111
52.3921 17.3464 7.14637
47.6678 15.8354 6.38129
48.1179 15.9721 6.52382
49.5691 17.5238 7.19151
45.7379 15.7733 6.47579
45.509 15.8354 6.47902
45.3268 15.8786 6.8886
47.8637 15.8906 6.55749
42.2853 14.6697 6.27062
47.7468 15.8962 6.61445
45.1122 16.3373 7.14687
44.488 15.2274 6.47681
46.123 16.2159 6.92329
46.9382 16.6899 7.2264
47.6805 16.0702 7.15795
49.6804 17.6541 7.82327
41.8178 15.4022 6.77142
41.6154 15.7002 7.10245
43.9942 16.331 7.5351
46.1014 15.1293 6.753
43.95 16.828 7.86276
42.7266 14.9211 6.81126
43.1003 15.9635 7.46006
44.7101 16.4137 7.50619
45.3773 16.4489 7.6408
43.093 16.4868 7.82021
44.8286 17.2904 8.2573
40.959 16.2292 7.78608
40.5719 15.6597 7.35099
40.6389 15.9453 7.92659
40.8297 16.3237 7.84367
44.7718 16.7341 8.10178
41.5061 16.8902 8.38569
42.3312 16.8618 8.23456
39.9348 16.1265 8.05557
39.8127 16.1709 8.11681
40.4247 16.7428 8.25675
35.4896 15.448 8.01898
39.672 16.0123 8.05865
40.7646 15.9468 8.09082
37.7149 15.656 8.10999
38.6677 16.0377 8.2189
42.0832 17.9493 9.18112
37.4738 16.3196 8.49365
34.9241 15.2058 7.97844
39.4826 16.7512 8.9224
37.1375 15.3895 8.23355
40.2123 16.2843 8.38174
37.0446 16.5518 8.95525
38.1322 16.5164 8.98821
38.9428 16.0103 8.65414
36.8714 15.7258 8.676
36.9335 16.289 8.84973
38.0321 16.6912 9.27329
39.2018 17.7616 10.0375
38.2586 16.4524 9.123
33.5871 15.0429 8.57872
33.253 15.4478 8.68662
36.2927 16.4757 9.68151
37.0642 16.682 9.43331
36.6144 16.8548 9.52635
34.3785 15.4595 9.10817
30.7622 14.2798 8.24738
34.8642 15.0266 8.60726
34.7156 16.5551 9.39001
34.5565 16.9172 10.1402
32.6278 15.7166 9.30611
34.1562 15.7193 9.27768
35.0425 16.1911 9.67152
37.1805 17.2219 10.1536
33.8839 16.1033 9.79341
34.1009 17.0952 10.3603
30.2266 15.0029 9.15534
33.1872 16.4401 10.1331
32.9586 15.7425 9.71079
30.1377 15.2961 9.44862
32.571 16.0702 10.2184
33.8597 16.6399 10.2261
32.574 16.3213 10.4489
31.9337 16.5751 10.5938
34.2157 17.5836 11.0331
34.7624 17.8842 11.203
32.0248 16.4596 10.4635
29.5734 14.9681 9.55313
30.4457 15.5654 10.2459
30.0892 15.4422 10.313
28.468 14.9594 9.81476
30.6075 15.8514 10.849
30.8294 16.23 10.6706
30.1438 15.6569 10.4805
30.7521 16.0575 10.5938
30.9191 15.7024 10.5682
29.2455 16.1515 10.6316
28.1127 15.7661 10.7722
30.5964 16.5673 11.3156
32.2678 16.8201 11.4217
28.562 15.6006 10.897
31.1561 16.678 11.5328
31.189 17.6416 12.2029
27.1656 15.5545 11.1235
26.384 14.0151 10.0555
28.2717 15.8074 10.9085
28.3372 15.2869 10.6671
25.6238 14.5031 10.289
28.3055 16.1715 11.3917
26.5918 16.6449 12.025
31.5143 17.8699 12.7989
25.3989 14.7475 11.1022
28.3067 16.343 11.8277
27.0364 16.261 11.8507
27.1923 15.4541 11.0935
28.5065 16.5681 12.1718
25.239 15.4853 11.7475
27.4913 16.4324 12.3502
26.6145 15.9929 12.0587
26.3806 16.4529 12.3609
26.6499 16.4941 12.5628
27.0154 15.3164 11.5332
29.6279 17.5762 13.2071
28.7268 16.7469 12.5789
26.8229 16.9566 13.4113
26.0703 15.666 11.7935
25.7092 15.662 11.9638
26.554 16.6207 12.8356
25.6023 16.6038 13.0085
24.9682 15.9488 12.9182
25.7643 16.1474 12.6472
22.9832 14.7786 11.8627
26.0022 16.3691 13.1848
28.0886 17.1738 13.3057
25.4635 16.6403 13.3649
26.0683 16.4901 12.7972
24.5452 16.2132 13.1624
25.4416 16.1973 13.5484
24.1332 15.3963 12.6191
23.8587 15.2138 12.8375
25.9451 16.1575 13.2466
25.1252 15.5777 12.5668
22.3411 15.7158 13.0742
23.166 15.6446 13.6421
27.0474 18.6793 15.2494
23.609 15.914 13.7854
25.4672 16.6514 13.9615
26.0408 15.9859 13.2353
24.8599 16.6297 14.1694
23.2044 16.3944 14.4121
21.9534 14.5973 12.5084
24.2781 17.2143 14.8361
23.4287 15.6661 13.6315
22.5828 15.6688 13.7169
24.5645 16.9049 14.4431
23.1538 16.1681 14.5873
22.9425 16.553 14.6162
22.6902 15.2091 13.7311
22.8052 16.2743 14.4707
22.0625 15.9583 14.2185
22.7329 16.2644 14.5864
22.5388 15.5818 14.01
23.016 16.5593 14.9222
22.112 15.3339 13.9915
21.5042 15.1069 13.6791
21.8942 15.6062 14.8501
21.9269 15.2881 13.48
21.3419 16.1394 15.0133
21.6084 15.9042 14.956
21.6534 16.1166 14.8323
19.7367 14.5487 13.6716
23.0969 17.6217 15.9339
22.7906 17.1668 16.3239
22.0171 17.3363 16.8364
22.0104 15.896 14.4673
20.57 15.6197 14.7829
21.9068 16.5769 15.888
20.63 15.9572 15.6341
21.5419 15.5105 14.8414
20.9278 15.7863 14.8061
19.9878 16.2032 15.8669
20.7424 15.5291 14.9741
20.2318 14.9199 14.5572
20.8205 15.8762 16.0077
19.8471 15.8375 15.8425
20.4044 15.8001 15.7153
20.7342 16.561 15.8964
19.7588 15.2889 15.7163
20.8938 16.7533 16.7917
20.9046 16.6671 16.562
17.7761 13.7368 14.0932
19.7509 14.7987 14.9628
18.7668 15.3784 15.842
19.9008 15.6118 15.6906
20.0507 16.2136 16.5403
19.3211 15.5103 15.7506
19.6403 16.3354 16.5192
17.0485 14.5191 16.0665
20.3047 16.5547 16.5538
18.7612 16.2316 16.5481
18.6953 15.3248 16.1287
20.01 15.8644 16.6416
19.7895 16.1857 17.0719
19.5057 15.7655 16.5161
19.4848 17.0422 18.4111
19.5238 15.3099 15.6386
18.407 16.1934 17.9826
18.9243 16.0024 17.0212
19.4895 15.5779 16.6355
18.3988 16.1608 17.5901
18.7066 16.0849 17.3782
19.1089 15.9675 17.6724
18.8521 16.0248 17.1333
17.2272 15.7532 17.749
18.6735 16.4247 17.7106
17.5246 15.2939 17.432
18.716 16.3798 18.0314
18.0342 15.283 16.8332
19.2453 16.5464 18.0573
17.85 15.5223 17.6998
17.7136 15.2501 17.4639
18.7587 17.0393 19.0511
19.2943 17.6156 18.9771
17.5068 16.4389 18.7079
17.174 14.6883 17.0639
18.3615 16.4104 18.0756
17.468 15.7098 18.691
17.7106 15.837 17.8172
16.2556 14.7026 17.307
15.8672 14.2114 17.1379
19.0823 16.5714 18.7382
17.072 15.5647 17.7978
17.976 17.6594 21.2694
17.599 15.9646 17.9645
16.748 15.4728 17.9493
16.2507 14.7834 17.497
16.569 15.4591 18.6013
17.5245 15.6776 18.4655
15.9706 14.7648 18.2411
16.137 16.2574 19.0427
15.9516 15.481 19.0484
16.7342 15.8722 19.2057
15.2836 14.1114 17.5812
14.8404 13.7019 16.7341
17.0644 16.1261 18.7726
16.115 15.1188 18.7526
17.6616 17.1485 20.9433
16.1192 15.4445 19.0838
17.3969 16.753 20.5575
15.8973 15.223 19.5887
17.0336 17.3536 21.4355
15.6088 15.3866 19.6601
16.1392 16.0398 20.0679
16.3729 15.282 18.7547
16.3806 15.7778 19.5075
16.0502 15.3051 19.2543
15.9391 15.3587 19.5657
17.0547 16.2085 20.0728
14.6111 15.223 19.9658
15.2936 15.7122 20.7898
15.4109 15.4122 19.3909
14.6286 15.8131 20.49
15.9195 15.9661 20.2213
15.8177 16.1641 21.1
15.3817 15.846 20.8682
15.7604 16.6877 21.3522
15.4516 15.7985 20.8319
16.6458 16.483 21.7443
15.7181 16.0323 21.0141
15.5246 14.6023 19.2569
16.016 16.1961 21.8045
15.3069 16.0087 21.6806
15.1114 15.2796 20.6883
15.9589 15.8398 20.6946
15.8115 16.2513 21.9034
15.6869 15.437 20.2084
14.8112 15.7849 21.0407
15.0849 16.2001 21.7366
14.9913 17.2608 24.3066
16.0011 16.9153 23.6257
15.4591 16.5271 22.4035
15.5009 16.0551 22.0042
16.1554 16.4851 22.5543
14.818 15.657 20.7791
13.0848 13.5017 19.1996
14.3714 16.3401 23.4281
15.3085 16.8053 23.3135
14.8363 17.2293 23.2403
15.1955 15.315 21.3194
14.0319 15.795 22.5017
14.5451 16.8377 24.1603
14.6378 16.1512 21.9512
13.4649 14.4212 20.2828
14.0353 15.5742 22.7713
14.9141 15.6351 21.2472
12.9384 14.9945 21.8395
14.8679 16.3221 22.6585
14.2186 16.9906 25.1458
13.9553 14.8526 21.905
14.0935 15.8442 22.7615
14.9736 15.4837 21.5178
13.7834 16.6832 23.7527
15.0144 16.8159 24.2152
13.4244 15.8006 23.1185
13.4062 15.8342 24.299
14.0234 15.204 22.5009
14.524 16.4685 23.1862
13.2702 15.591 23.8158
13.1849 14.6149 20.9853
12.5235 14.933 22.9259
12.6644 14.9609 22.0746
13.3116 15.6526 23.8526
13.4699 15.0379 21.8833
13.1491 15.9162 24.1041
13.257 15.4408 23.0978
13.5885 16.4012 25.0169
14.8211 16.3656 24.45
13.5733 16.5022 25.0583
13.2788 15.7326 23.4927
13.3501 15.5993 23.5961
13.7262 16.7523 26.5582
12.9618 15.6237 23.9162
12.8241 16.2916 25.5046
12.8657 14.673 23.9433
14.1219 16.0992 24.7625
13.1052 15.4875 23.906
14.0074 15.894 24.358
13.6034 15.225 24.1866
12.5295 15.3197 23.7453
12.274 13.9868 22.2422
12.2213 14.4062 22.5109
12.394 15.0746 23.0297
12.371 15.7762 25.7829
11.8612 14.6827 23.037
12.9771 15.0255 22.8368
12.715 16.4335 26.5647
12.8878 15.7552 25.6099
12.2899 14.411 23.6426
14.0874 17.2407 26.236
11.2392 14.2265 24.1869
12.1843 15.6298 25.9152
13.3505 16.6318 27.3426
13.5614 16.3651 26.1572
13.6248 16.6723 26.002
12.3411 14.9709 25.4105
12.3924 15.3536 24.8387
11.8839 15.4684 25.9268
12.2263 15.1914 25.2955
11.3298 14.0045 24.0937
12.8238 16.5664 26.8218
12.1888 15.8228 26.8196
12.3881 15.6264 27.2139
12.5559 15.8591 26.5798
12.5546 15.8667 25.7906
11.8792 14.4614 23.8535
12.3759 14.8621 24.7824
12.5193 15.5014 25.4532
12.886 17.7759 29.4065
12.6496 15.6439 26.0427
11.5771 16.1815 28.7357
11.1251 14.8437 25.194
11.7917 15.3563 26.2915
11.7091 16.0813 27.9186
11.7831 15.1141 25.38
11.3872 14.4278 24.088
11.0261 15.4308 26.7778
12.0587 16.1521 27.6966
10.6484 14.695 26.2017
12.2129 15.8066 27.6571
12.5499 16.4788 28.0357
11.2065 14.6514 25.0702
11.0351 16.1843 28.4568
11.4477 14.8836 26.4434
11.4804 15.4984 26.6336
11.1207 15.5807 27.6772
11.256 14.6145 25.4469
10.6364 15.4421 28.2869
11.8341 16.1599 28.983
11.6331 16.4833 29.2457
11.6666 15.5403 27.448
11.2816 16.5278 28.3909
11.3531 15.6942 28.3089
11.0509 15.9994 29.8248
11.0564 14.5149 27.1867
11.5953 16.9173 29.7992
11.0386 15.2692 27.2645
10.9952 15.3585 27.0861
11.6824 15.6038 29.2621
10.459 14.8279 27.601
11.6091 16.7189 30.0432
10.8266 15.0717 28.7677
11.4431 15.2676 27.2812
11.3881 15.4953 28.1947
10.3578 15.0762 28.5736
11.2893 16.5161 30.123
11.175 16.009 29.3701
10.9299 14.5757 27.4845
10.3872 14.9803 27.9314
10.025 15.0369 28.4153
10.8867 15.0226 28.0811
10.9461 15.499 29.8611
11.5743 16.9362 32.3423
10.6015 14.8845 27.4571
10.8891 15.8189 30.4669
11.3766 16.2628 30.7328
11.4805 16.0541 29.3497
10.0125 14.884 29.6987
10.5265 14.7841 28.1298
9.86207 15.2263 29.962
10.42 15.3262 28.7497
10.3661 14.9501 28.4249
10.1756 14.4718 28.4283
10.0725 15.5831 30.4112
9.71389 15.04 28.0635
10.4554 14.7938 28.7998
10.6348 15.3677 30.1703
10.1683 15.5283 30.3507
10.653 16.0023 30.9568
10.4044 15.2244 29.6418
10.4041 15.0496 29.7286
10.6878 17.1308 33.1398
10.3689 15.6348 30.0944
10.2666 16.2769 32.6063
10.4876 15.1668 29.4348
9.79728 15.0131 30.0967
9.97013 15.182 30.0027
10.0987 15.2202 30.1452
9.64355 14.1588 27.8659
10.1836 16.2045 33.1282
10.1059 15.2271 31.2484
9.70833 14.6432 28.333
10.1292 15.1876 29.9398
9.58563 15.5809 32.0417
10.2735 14.0927 29.1337
9.99421 15.9219 32.4443
9.76752 15.5401 31.4441
10.511 17.1044 34.9052
11.1566 17.2682 34.5647
9.9894 15.4329 31.358
10.0797 15.4977 31.6217
9.83553 15.3406 31.9582
9.88165 15.6168 31.7392
9.15707 14.2505 28.8624
9.54066 15.6679 32.599
9.60801 15.7908 33.4441
10.147 15.504 32.1192
8.84229 13.787 29.0165
9.69345 15.0921 31.1731
10.308 16.317 32.6493
9.33467 15.4252 33.1379
9.22145 14.4283 31.5353
10.2099 16.555 33.2105
9.43104 15.7487 35.107
10.1006 15.6425 31.988
9.37032 14.7607 31.3712
9.36344 14.4576 32.0903
10.739 15.8159 32.0345
10.0281 15.7709 33.1287
9.9575 15.6803 33.0127
9.60227 15.8451 33.8608
9.59199 15.7905 33.4582
9.43866 15.4914 33.1574
9.4411 14.4764 31.2171
9.26673 14.9008 32.2869
9.50874 15.604 33.7972
9.43351 15.3156 32.9144
9.16036 14.3159 31.1967
9.20092 15.2813 33.7219
9.25338 14.5502 30.1093
9.03847 15.0933 33.1469
9.27306 15.0485 33.691
10.2863 16.8885 35.3359
8.93071 15.6753 34.8896
9.61463 15.2928 32.7187
8.51346 14.7692 32.761
8.97693 15.5618 34.8371
9.12949 14.7464 31.1647
8.60489 14.7891 33.5151
9.09061 15.5 33.8845
9.42773 15.5697 34.5646
8.95468 15.1499 35.6105
9.6082 14.4111 29.5391
8.40699 15.5818 35.7884
9.42683 16.156 34.2073
8.57241 15.5451 35.5214
8.79344 15.0867 35.1621
8.83118 15.2483 33.675
8.64842 14.9529 33.9468
9.65085 15.8016 35.8311
9.09809 15.7344 36.1534
9.30749 16.2351 36.6108
9.0927 15.4102 35.4707
8.84906 15.1208 34.0511
9.23189 16.3767 38.5745
9.83782 16.1131 35.9633
9.5692 16.7145 36.9971
8.6477 14.8891 35.2552
9.38603 14.7028 33.3751
8.47561 15.0686 34.6863
9.53045 17.0999 38.4686
9.65705 16.0757 38.9129
9.19675 14.9391 34.1065
9.53074 16.0639 37.0727
8.74613 13.97 33.5753
8.60999 16.0995 37.3975
8.82223 15.1876 35.0475
9.03611 16.1079 38.0182
8.54953 13.2203 31.5625
8.9155 15.8021 36.7256
8.57114 14.7557 36.1822
8.93368 15.7134 36.8398
9.15793 15.8419 36.4329
9.28685 16.2921 36.4523
7.7201 13.885 32.8349
8.34265 14.8429 36.952
8.7691 14.9077 33.555
8.36784 14.7044 35.472
8.93468 15.3237 36.2942
8.70066 15.5793 37.5344
8.85227 14.9478 36.7539
8.65371 16.5803 39.7035
8.95724 14.8618 35.6616
8.72278 15.6254 36.2765
7.93085 14.8331 35.9979
8.0381 14.416 35.9552
8.38909 15.7432 38.5624
8.40382 14.1319 33.029
8.17178 15.1994 38.4324
8.58668 14.8046 35.8297
8.52477 14.9444 34.9434
7.69895 14.8096 38.3022
8.70897 14.9706 36.4995
9.18966 15.8727 37.1656
8.793 15.9716 39.8809
7.9051 15.0194 37.7979
8.82934 15.6597 38.4272
8.82798 14.9879 37.3103
8.71414 15.0475 37.3042
8.47595 14.8712 35.1532
8.43365 15.2364 38.4359
