# pn-170911/CsIIA-30-AMC2-1280-1959.psd
# Power spectrum* (dif=0,1,2) (really just |FT|^2)
# NOTE: only the first half! (symmetric)
# weeks: 1280-1959
# 43 clock-days, 13 excluded
# PSD: 1441
15153.3 0.950295 0.0440132
1.24675e+06 25.5483 0.0213305
5.58739e+06 116.889 0.0205416
1.34628e+06 58.4015 0.0230849
1.15424e+06 78.2344 0.0235635
574669 57.6103 0.0292461
352660 64.6742 0.03093
320678 77.0242 0.0322378
210271 65.7542 0.0420654
256092 80.7681 0.0566459
167984 67.4985 0.0570286
130909 80.4806 0.065491
119357 64.6117 0.0621773
88685.3 68.3811 0.0797213
66283.9 59.4166 0.0678692
89762 85.4042 0.12871
100268 119.53 0.164395
64177.3 76.2971 0.105109
39884.4 54.8279 0.0975359
38378.4 59.6916 0.118801
37747.3 59.8372 0.140972
42401.9 82.6628 0.183543
35825.3 73.7476 0.213604
29075.2 56.1462 0.159339
41396.2 108.14 0.315266
24680.5 69.8816 0.23841
25047.4 75.363 0.258178
16695.9 50.6354 0.213013
27056.4 96.1381 0.363015
17841.8 56.8875 0.234945
20078.3 66.2742 0.307587
16546.7 68.7416 0.35464
17756.7 73.0648 0.390252
21420.4 79.7382 0.442144
14975.8 63.28 0.335784
10963.6 54.3723 0.342589
13148.6 67.8369 0.433443
14242.9 75.0529 0.495302
13299.4 64.9194 0.449548
13066.1 75.1769 0.566709
8467.13 49.4171 0.390845
8631.02 61.1819 0.490335
8157.01 55.7645 0.478852
8089.49 59.6677 0.532256
7621.96 57.2792 0.579211
7505.22 61.0489 0.592481
8143.09 68.4505 0.690227
7542.03 67.1095 0.715391
8736.47 78.3259 0.877989
5892.75 55.6727 0.672543
5351.92 61.1518 0.791303
6832.68 69.8567 0.819109
4984.91 58.3625 0.793494
5907.91 66.7079 0.881164
5384.29 65.4157 0.912733
5505.37 67.3282 0.964401
4280.93 58.3108 0.860035
5671.4 76.1294 1.15389
4196.72 56.2493 0.909536
4029.32 64.0484 1.11233
3663.71 54.4164 0.974862
4190.89 58.5991 1.05618
3634.1 55.7721 1.03172
3559.66 47.7911 0.919139
4225.76 58.3596 1.12465
4097.89 74.1526 1.52955
3639.15 61.4814 1.32
3306.49 64.4923 1.44394
3225.06 49.4097 1.05796
2821.67 58.3899 1.30218
3162.29 71.6106 1.59913
3242.1 69.8466 1.65793
3533.26 66.7591 1.63185
2829.44 53.0246 1.40714
2740.5 56.8841 1.44179
2709.49 62.4955 1.71803
2558.9 57.7337 1.586
2559.65 59.5822 1.71571
2144.22 52.9226 1.51219
2006.76 43.6724 1.288
2241.17 62.0328 1.94072
2135.02 55.5019 1.76285
1925.18 53.2131 1.67461
2272.46 65.0445 2.12516
2124.65 65.0908 2.18313
2068.71 56.4295 1.97702
1838.08 46.1535 1.70184
2239.93 65.2093 2.30604
1339.27 40.1284 1.51094
2072.59 59.9498 2.32549
1490.58 57.1895 2.22746
1989.77 57.5411 2.32117
1443.52 45.53 1.79775
1672.2 70.4055 2.95745
1478.77 48.9098 2.14978
1714.52 56.2923 2.49389
1965.18 64.3612 2.83403
1607.68 63.6384 2.89442
1387.64 54.359 2.59287
1592.73 69.9036 3.23978
1313.69 50.7664 2.43714
1339.03 48.7618 2.25017
1589.9 63.0845 3.18545
1349.04 62.7098 3.07851
1275.73 67.3409 3.50372
1271.63 56.9242 2.8815
1237.07 69.8797 3.9217
1297.4 63.8506 3.4914
1207.22 60.5753 3.3072
1215.61 56.9531 3.24559
1123.02 57.6156 3.20335
1578.66 70.6777 4.09819
1083.02 53.3421 3.26903
841.896 54.1484 3.3809
1146.33 62.6811 3.78514
1370.18 65.6684 4.14416
1256.28 67.4772 4.39206
1031.33 51.2713 3.35016
1004.38 52.1942 3.3954
933.765 56.2285 3.93909
1475.98 80.1157 5.49673
996.534 54.0828 3.73002
825.826 47.9513 3.44675
1171.81 66.371 4.89232
869.99 51.8755 3.90269
1237.78 76.5392 5.28712
1080.04 62.606 4.82856
1043.35 68.5552 5.25715
913.378 53.5048 4.17484
749.175 55.0692 4.26233
1043.01 64.0746 5.16778
929.486 66.138 5.29263
921.714 67.3607 5.64619
729.781 54.9991 4.81963
814.869 62.2021 5.15624
740.422 51.8048 4.51739
732.61 50.603 4.45075
641.264 51.4576 4.5239
978.916 71.5123 6.5757
688.599 50.9801 4.60251
665.859 49.0382 4.41373
640.389 52.2554 4.80567
724.471 56.7977 5.42011
770.124 59.9669 5.96408
538.277 53.8998 5.39876
734.233 59.1492 5.81356
719.831 56.0894 5.63556
703.153 61.2626 6.18495
537.258 44.3018 4.63786
650.827 54.8925 5.8255
725.362 60.5541 6.6258
695.928 64.2912 6.91983
561.583 40.9914 4.3972
537.557 49.0607 5.47591
497.16 37.2989 4.0821
569.769 47.7826 5.59016
602.788 54.8545 6.34932
554.082 49.7607 5.49501
609.192 64.3925 7.86124
477.002 48.3524 5.74156
584.543 56.6106 7.10063
595.162 56.5554 6.82112
494.297 52.3746 6.52368
414.753 41.8952 5.60293
618.307 60.5056 7.40205
441.622 45.1646 5.69466
557.256 56.1418 7.17937
751.071 77.9899 10.524
460.131 54.2017 7.02862
457.521 53.9504 7.33363
555.267 68.2959 9.47177
483.871 62.5575 8.70678
437.153 45.7544 6.55428
415.213 55.4848 7.68848
373.016 41.0054 6.00263
439.446 50.9316 7.31612
475.292 48.4655 6.93084
445.692 53.3498 8.34037
469.577 59.7319 8.7838
457.073 54.4335 8.07398
446.538 52.9896 7.83975
509.054 67.7958 10.4792
617.069 65.9867 10.5106
462.19 63.255 10.2421
492.476 58.6268 9.19525
429.112 60.0584 9.12599
477.724 58.4702 9.4506
439.795 69.3751 11.4945
412.514 57.1076 9.36093
430.784 55.3685 9.71465
411.235 52.4545 9.01959
335.074 45.1529 7.8859
426.098 48.4904 8.2411
357.184 54.0891 9.33702
464.521 65.2624 11.3658
354.916 59.7372 10.4254
419.744 60.6881 10.8964
438.191 57.6177 10.4092
379.624 51.8828 10.1615
310.119 57.034 10.8579
395.254 59.7266 10.7411
236.038 42.9714 8.37422
351.349 55.0278 10.17
379.681 57.7314 11.083
311.322 48.4836 9.14452
261.787 44.058 8.52478
271.764 46.253 9.17497
236.19 42.4344 8.76187
266.134 39.2333 7.96856
343.754 55.1217 11.1177
257.524 46.4312 9.95877
252.517 41.9677 9.02738
343.181 55.3128 11.5376
290.748 47.2932 10.0712
311.462 55.9547 11.4876
259.376 43.0644 8.8966
296.115 54.7597 12.116
255.49 52.023 11.5291
286.123 54.9605 12.7374
239.267 46.9169 10.0107
285.377 49.4524 11.0763
206.583 48.1825 10.8341
283.848 49.3692 11.838
269.181 53.0602 12.0891
302.4 57.211 13.0387
217.37 47.4339 11.597
264.256 54.1224 12.8979
291.366 55.1659 12.8626
317.646 58.6766 13.9096
295.531 56.95 13.6192
210.29 40.7932 10.4926
218.258 46.775 11.9091
231.186 43.0946 10.6181
266.299 59.0574 14.7399
255.524 42.8069 10.7889
252.713 48.6337 12.7812
230.99 42.0456 10.7854
243.338 56.8784 15.4749
268.959 64.1137 17.6857
201.761 44.6473 11.3765
223.888 48.206 12.2486
171.736 39.2579 11.2261
223.922 48.1108 12.9947
243.457 50.6266 13.6953
263.649 61.2481 16.909
190.454 49.2241 13.7587
187.137 42.6838 12.2361
183.613 39.9857 10.7655
184.981 44.547 13.4393
182.198 35.988 9.54498
253.074 64.028 18.4467
185.992 47.2472 14.477
297.83 60.7163 17.1951
186.341 46.3926 13.8699
232.594 47.3805 13.9627
172.806 39.4462 12.221
181.175 46.8329 13.9536
250.997 64.6152 19.8701
167.11 45.3944 13.9821
214.694 58.024 18.8081
168.766 41.4267 13.071
199.463 58.3595 18.7965
182.82 43.0088 12.9974
178.847 54.5443 16.8387
162.823 41.5252 13.603
185.765 43.3713 13.4093
150.273 39.4462 12.8472
222.217 55.5381 18.5995
180.433 46.1891 14.8209
183.766 48.6211 16.9308
185.62 48.7742 16.0367
226.003 59.4886 19.646
145.573 41.836 14.6325
168.586 46.6718 16.7548
161.699 40.2311 13.2771
120.949 44.0025 16.2876
204.065 54.5327 19.2253
160.19 47.8428 16.0188
158.916 47.5886 18.2196
161.839 56.129 19.2005
139.981 42.9735 16.1546
166.538 45.6529 16.1083
170.188 58.9923 21.0845
143.71 41.9402 16.4674
146.306 44.9441 16.9165
186.022 53.9899 19.5261
171.482 53.7134 19.913
178.172 48.3719 18.6055
190.743 59.8033 22.2175
140.295 43.8827 16.3673
117.205 39.3266 16.6436
118.839 43.5405 17.6805
134.053 41.5109 16.5633
180.196 67.405 28.6056
174.978 49.4664 18.426
182.213 57.1596 22.0236
132.74 43.4204 17.5302
163.713 47.9746 18.2368
167.839 61.0184 24.7263
124.864 45.6351 20.2171
133.677 52.4703 21.5874
157.734 55.3946 22.4088
152.637 54.3968 21.9037
118.402 38.6771 18.3393
170.788 41.5639 16.028
131.845 38.8065 16.122
120.001 47.4131 21.4484
119.112 41.4026 17.5103
115.466 38.6653 17.3945
146.884 51.059 22.2151
128.967 48.5844 21.7613
113.617 38.4792 18.1015
121.495 41.8507 18.399
125.581 41.327 19.1131
155.951 54.6951 24.7676
172.441 54.8045 24.3082
100.959 34.1956 16.2055
108.045 36.3375 14.8304
139.336 55.7303 27.3594
144.024 53.4626 23.1631
97.1631 45.1227 21.1079
136.475 50.3997 23.9144
114.185 38.4058 16.6535
107.138 37.3015 18.1471
159.369 52.9631 24.9075
125.614 52.0765 26.5245
119.021 46.325 22.8208
118.018 39.5607 18.21
93.6086 39.3285 20.121
110.841 40.7814 20.2234
121.906 44.809 22.8822
101.743 40.097 19.2801
76.9858 27.4434 13.9753
97.2271 39.8648 20.3487
161.926 59.289 29.5731
87.2201 34.8186 18.9807
108.402 44.455 20.6518
100.477 38.0563 20.5235
111.504 44.9937 23.2222
78.5863 35.4789 19.3074
80.8792 33.4697 16.4557
100.376 51.1578 27.6179
108.132 38.2331 19.6371
104.633 40.4646 21.2144
100.064 47.5523 26.8222
86.0753 33.4486 18.6887
93.5293 43.9442 23.3519
95.3079 39.4752 21.0181
129.619 58.3368 30.5161
102.011 42.1847 23.8156
73.8556 33.0676 18.828
144.431 60.8297 33.8756
104.989 45.1069 23.5524
95.4706 39.5808 24.3233
75.0628 35.1594 19.3489
73.327 33.9967 22.4313
82.4079 35.5329 19.9037
117.305 48.7769 26.0768
70.6873 37.3156 23.9335
93.3637 44.3036 24.7607
98.5933 42.4906 24.6904
89.4873 44.3395 28.0921
86.8773 36.3895 19.2843
72.2793 37.927 23.09
104.439 43.2143 26.9926
92.8455 41.135 26.2481
84.2229 36.8995 19.4463
76.2874 48.7663 31.326
97.293 36.8267 21.3115
98.6241 49.9077 31.9278
69.5894 44.0613 27.9309
100.896 43.1154 24.1347
80.1927 45.4826 27.6459
80.6628 38.9986 24.5439
84.3613 36.7453 23.9723
75.215 36.6821 23.8356
68.019 41.5523 25.8793
76.0508 46.5551 28.9255
86.5107 46.5637 30.51
91.7431 38.8428 24.7827
92.7979 44.8788 30.0823
97.857 40.1045 27.6092
80.2408 41.463 25.1085
72.9849 37.6388 26.3313
77.6057 34.2515 22.4662
81.1767 37.839 24.5135
85.8969 37.6782 24.4884
65.1715 36.0578 25.1294
71.598 38.6736 27.4935
86.6238 46.3388 29.3808
83.4569 46.9179 30.3889
73.6597 44.9804 29.0327
64.1937 32.9786 24.3306
73.7264 44.9681 33.2105
84.0749 49.5795 34.1631
65.9855 42.3931 30.8735
78.3006 38.2256 26.019
53.0539 27.1808 20.9273
79.638 40.2884 25.5895
79.6227 36.9005 24.6507
62.4326 34.2376 25.3556
57.4743 26.2107 19.3286
70.2471 38.2133 27.3836
73.6818 47.7766 34.0931
70.6264 37.1211 26.2487
77.0472 40.7908 30.1262
60.3672 34.6475 25.579
47.706 26.7887 21.4444
75.7983 36.8624 26.486
67.1863 32.7538 24.3737
60.7097 33.7546 24.1995
82.3304 39.9619 29.1296
62.0223 39.2491 30.6914
42.3309 24.0754 18.5969
58.8338 36.8634 26.084
57.5557 36.4655 30.2987
86.118 39.4055 29.2176
62.643 39.2394 31.1866
46.2167 37.1798 30.4116
59.4497 39.9926 30.5632
52.6352 38.0555 32.3235
72.2947 37.4731 29.6922
69.3276 41.4783 32.7138
60.5949 38.6991 27.7298
46.319 28.4495 22.7562
45.6787 28.6749 24.2345
68.8439 31.8611 23.8373
55.3436 36.3025 29.6365
60.8277 38.9346 35.1366
61.7999 39.2918 33.691
62.5558 36.8097 29.4408
76.6619 49.893 39.0199
62.6219 33.8611 28.4849
72.2688 38.2283 29.3238
65.9385 43.0697 33.889
50.2247 35.4995 29.9176
78.4522 43.681 34.0371
69.0581 39.2179 33.2451
47.9785 28.6325 26.1094
57.0247 36.255 31.2798
63.2306 41.9113 31.9655
52.083 33.5352 29.0827
38.4844 32.143 29.9051
65.0699 40.8705 36.2648
58.9245 42.2006 39.1647
65.5294 44.7823 35.749
53.923 32.6775 28.1653
61.1594 38.6798 35.8016
66.4772 42.2269 40.2436
54.2055 36.2278 29.7075
48.3581 26.4149 21.6191
58.9318 31.0394 28.3076
48.8108 32.5684 30.5429
50.6325 30.7748 32.2631
74.8315 42.9355 37.6777
63.4235 41.6507 36.8699
52.0062 38.1359 32.5327
54.0835 29.3755 25.6752
47.8731 30.8427 29.6964
39.312 32.192 30.9853
59.2678 35.1553 29.1832
48.3355 43.0242 39.166
48.927 31.2295 29.0085
46.9047 38.5061 38.0521
64.9632 42.3268 42.9039
56.2453 38.0434 34.4227
59.2375 32.4859 32.1752
53.5419 36.3592 34.7985
61.7341 33.8283 30.7194
51.3636 33.7293 32.0773
51.9893 34.5849 33.7756
41.2317 29.1956 29.9884
54.3557 42.0533 39.3087
42.5855 28.2346 27.6026
46.5343 33.694 32.824
48.7327 33.2196 30.2984
62.2027 37.7202 34.3945
51.9381 38.8728 41.1946
52.183 32.9601 35.8728
38.8243 24.9337 25.5195
41.5171 29.8914 27.3583
40.9981 34.133 37.4087
47.4649 37.7124 32.7939
41.9167 41.4484 40.4855
38.0257 26.7284 30.1418
43.7886 32.5181 36.0706
38.5675 29.12 32.6289
52.1706 40.1507 39.3031
45.7351 32.1739 29.4546
32.5371 32.5433 37.3924
39.4443 30.5113 28.9991
45.8364 40.3458 47.4179
54.2501 37.5223 34.6152
41.7906 31.8197 31.6645
35.6572 30.5478 35.689
37.8558 30.685 30.109
53.5581 36.8404 40.278
47.0801 31.0755 31.1782
43.3649 40.7604 42.2501
50.8585 31.0537 33.6353
39.1678 30.1263 31.3625
44.2742 37.8078 41.5885
45.6828 36.7261 43.0751
44.0843 35.4238 38.5149
50.412 35.2871 32.8141
38.9086 30.639 31.9231
40.7617 32.618 35.9508
40.4566 38.1357 42.5952
35.0529 28.3609 30.1843
42.787 39.779 47.3652
41.1488 33.9178 35.4748
37.3513 27.4925 29.1377
35.5378 25.7963 29.6461
38.6391 32.2514 38.396
34.9282 24.1461 30.9927
31.9237 35.108 41.9548
44.7456 35.9403 39.7408
36.4339 33.0182 36.5712
39.1175 31.9279 40.5046
56.3531 39.8318 44.3272
39.6205 30.0845 33.2831
35.7951 38.0333 46.4915
38.2991 29.8174 28.7966
32.5656 27.6553 36.8613
27.6203 29.0193 32.7037
36.9939 36.5013 44.7907
44.1999 36.9815 40.9322
29.2127 25.8339 32.3848
35.2466 30.5397 36.8753
40.6812 36.6829 46.4794
43.4216 35.4256 40.2571
36.8743 32.5283 36.6167
34.2427 36.7661 50.8734
41.738 29.4774 29.6846
37.4743 34.9496 46.3293
28.9139 29.7289 40.4151
49.3596 34.075 36.5511
40.736 40.9332 47.5726
39.9914 32.701 38.7924
32.0748 29.4968 35.0158
33.0983 32.6531 41.4996
27.2851 26.1595 36.26
45.7926 35.8214 43.1878
28.3467 29.3685 40.3439
43.6519 38.5963 40.5833
35.5042 30.9439 41.5506
42.402 45.6276 59.5879
36.1958 33.3212 42.4128
29.0196 20.0995 29.9377
31.1098 24.7578 27.5541
39.1095 31.5768 39.6871
31.0809 26.8595 35.1971
29.1239 27.6995 33.674
29.8866 23.0735 33.2091
27.9442 32.5166 37.2399
27.6545 20.2589 28.6816
31.1234 28.1762 35.8516
29.3175 30.6127 36.219
29.4132 26.3114 33.7976
31.9065 28.4198 37.5135
27.0846 22.5851 31.8416
27.8489 27.6866 36.6797
32.9758 36.3316 46.7799
34.3208 30.1992 40.6437
30.8271 30.6455 40.876
30.2237 24.9958 34.3917
30.0185 26.6976 35.5316
28.9666 22.5196 35.2729
33.0033 35.8056 48.6918
41.0378 36.8788 47.6138
26.1372 32.8146 40.6122
29.1518 24.4752 36.6534
34.6611 36.6559 48.683
23.2576 21.2124 32.55
26.5239 26.042 32.7408
34.65 27.1317 35.4254
21.3279 16.6936 23.3982
27.8562 21.6356 29.235
24.9114 28.2987 39.2583
25.186 21.0111 33.7683
31.1215 26.0535 30.7469
25.117 22.894 31.4614
21.1933 19.0723 28.5403
29.81 35.6703 49.0935
23.7699 22.8015 32.9675
24.0539 25.3097 42.3272
29.0682 25.4298 31.6164
34.0422 28.8187 39.7584
28.2376 32.3918 47.3107
22.9966 18.7411 28.5601
26.4818 30.3124 48.9248
29.4347 28.0331 39.8593
26.5748 21.5026 30.3766
23.1281 25.0714 34.2913
21.8825 28.0669 37.3887
29.0641 31.4075 49.9236
28.7974 25.2469 37.0431
26.6175 26.0799 35.7677
25.0665 27.5045 42.9275
32.4442 29.8468 41.6375
26.1277 29.2512 43.4383
25.5111 24.5448 33.5632
27.4392 27.3956 40.875
19.6627 17.0904 24.1159
23.2266 29.644 51.4012
25.7472 24.5076 36.6777
29.4787 35.1552 48.2948
20.9879 20.835 41.4499
35.7116 34.6199 49.5845
26.2395 24.6432 37.0179
26.2711 23.2888 33.341
27.6853 29.9251 44.2447
26.5805 27.1661 41.7663
21.842 25.1946 40.6124
25.4489 22.3822 31.3
21.1243 29.6149 49.2173
29.984 27.0104 42.8703
28.5986 26.4088 43.391
33.4311 30.2621 43.222
25.3293 27.5311 45.575
25.6042 25.1915 38.7275
24.1515 23.8134 40.2165
21.1348 24.6359 40.2943
29.6716 28.6678 44.2646
25.2497 24.1563 35.0717
22.5644 21.8789 32.0195
21.4845 24.7724 39.7015
21.6752 24.5788 38.5797
22.8285 24.1921 40.8194
27.2788 29.4708 45.7464
20.2132 21.0969 36.5079
24.5219 26.1234 39.317
22.0452 22.3303 35.2641
19.5865 24.1012 36.3982
19.6645 22.0937 40.4303
23.5353 21.7116 38.4297
26.083 33.0854 51.9293
22.823 24.2407 38.563
26.2712 28.7917 48.9549
22.9525 29.2948 47.1963
22.3252 28.2896 49.2414
25.1456 29.0968 52.1267
27.7668 25.2024 33.213
19.8683 21.2273 37.5363
15.3869 17.4585 33.2471
23.3154 24.591 37.6946
23.4649 27.1356 40.2294
19.655 23.058 37.9759
15.8003 22.4225 35.7866
19.8076 22.5207 41.1577
27.5905 29.8188 55.962
19.2328 26.5641 50.6313
29.3934 29.9222 44.7507
24.638 30.7035 52.395
22.3707 19.5595 36.5242
15.1201 14.6904 31.83
24.466 25.6316 38.7125
22.376 33.0198 51.0921
24.6716 27.2049 52.3511
17.5673 19.6206 37.2507
24.8223 27.1722 46.0391
24.307 28.3304 47.9701
17.4082 18.2749 29.7666
17.1308 18.6599 33.3713
17.799 20.1839 37.5385
21.9398 23.6588 40.6779
23.0238 24.9722 42.097
23.9213 25.7811 43.8104
15.6649 17.4361 26.2614
16.9564 20.2366 40.2232
18.9654 26.137 51.9055
24.5851 27.4338 42.0741
21.2351 23.2995 40.4259
17.3257 19.5065 33.1838
20.1231 23.9819 44.8031
18.9268 24.7736 45.2008
18.7735 24.3417 44.1214
16.2097 22.7269 44.1273
18.4578 18.771 31.8308
15.4371 21.3481 42.078
21.1069 21.1959 39.3324
18.6855 22.6526 43.4486
19.7259 25.2876 36.5479
14.7254 23.3103 46.191
15.7434 16.9737 34.6024
18.8213 20.1073 37.7356
16.631 17.867 34.6258
21.09 26.9406 50.5144
19.5922 22.4761 38.8093
18.1046 23.0176 44.5108
16.3217 19.7065 41.5284
17.8361 23.8104 42.7093
19.3724 20.2187 37.6126
19.0568 23.6265 38.88
17.2085 23.1058 45.9971
16.4428 20.6687 38.8868
18.3141 19.3751 41.5804
22.5343 29.1303 45.6669
16.9365 25.203 49.7893
15.4543 17.3231 33.8497
16.6737 26.3898 51.8084
17.9869 21.2298 40.4204
16.0817 18.8665 30.4665
12.9369 16.916 39.7411
24.6793 24.1368 42.158
17.8055 24.0636 44.5239
20.0247 27.8811 55.8981
16.8539 21.9015 41.2732
16.5714 22.1329 53.0971
18.9747 24.7997 47.4781
22.331 32.5633 57.0817
21.94 26.506 51.6066
20.3213 27.0247 43.4126
13.2285 13.0754 31.9244
12.833 19.1276 38.2532
13.6483 15.982 31.5861
15.6989 26.6807 56.591
16.2096 19.2766 40.6995
17.0266 16.9265 31.0794
15.4272 29.8005 61.8878
20.475 25.9574 46.5514
17.3784 23.0888 40.1653
16.7554 23.0546 47.681
13.2444 21.062 47.6976
23.7697 24.9784 48.4314
15.9201 16.8802 34.5206
18.1423 19.172 37.748
13.5869 18.4169 33.8112
11.6518 17.5337 42.2899
18.3735 20.1319 45.0342
16.2818 16.3857 29.6409
13.7792 17.3057 35.293
11.9749 14.9879 31.6044
13.7461 14.0135 28.6184
14.0556 20.4981 47.0577
19.7105 19.2157 38.2825
16.2093 23.2252 41.4779
11.2383 10.5858 26.2463
19.8162 23.6421 43.7815
13.5604 21.6861 48.3029
15.8445 22.1263 43.4798
13.0161 16.142 37.7339
21.2583 21.9546 43.6145
13.5984 18.5512 35.4713
13.8015 23.9605 54.2206
14.2539 20.2125 45.3313
14.93 21.5834 44.0549
15.1515 18.5306 37.6811
14.963 18.5037 46.786
16.9511 33.4575 64.3891
17.9523 22.6705 50.7225
16.0355 21.4504 49.0911
16.7307 19.7503 43.017
12.0652 14.8835 35.2933
14.7449 19.6952 42.3913
14.2643 17.4669 36.8289
14.1332 23.1592 47.3601
14.3549 19.3806 43.5892
15.7974 22.6636 60.2486
21.6154 28.0748 55.6028
13.8093 19.1109 40.4248
13.7523 18.8095 45.1319
19.538 19.4266 36.2832
16.725 23.8264 51.2035
13.5577 16.7103 36.0892
13.7175 25.0848 54.1088
21.5302 28.9732 54.9263
14.3947 21.5693 50.9658
14.7178 20.4052 46.9594
13.1535 20.0386 40.0351
13.5267 23.8834 57.9545
16.3394 20.7227 39.6486
16.2208 26.8726 57.8427
18.2727 20.5728 50.4095
13.5449 17.1303 36.9914
12.0847 19.692 45.9237
12.783 19.5319 48.7955
13.6343 16.2549 39.118
15.4698 20.833 47.5348
14.4705 19.5531 43.9491
15.9247 17.8576 42.4987
17.1373 21.3016 44.065
14.0659 16.1337 34.2074
9.55887 11.5286 31.4726
12.8573 21.1534 45.1214
10.3538 20.6221 52.5393
11.3242 17.6948 46.0598
16.2425 23.5527 52.2516
14.2902 18.8167 41.2099
15.8524 21.1365 53.558
13.8658 15.609 39.2631
17.841 20.0633 40.2507
13.7742 14.1498 30.2977
15.3485 19.6289 41.068
12.8367 21.3729 46.1317
11.8777 20.2041 51.8826
13.2276 19.1789 48.2222
12.3784 16.6609 41.8221
13.1831 15.9568 41.1249
14.4447 17.7242 39.1109
12.7765 17.8516 46.0893
12.7132 19.4845 40.7246
14.994 30.2033 73.751
15.654 17.0162 39.4414
14.3169 16.1646 34.0921
13.0939 18.0283 41.6732
14.37 18.5887 39.4672
11.5849 16.2894 41.7073
12.0454 21.6287 49.5232
10.8864 16.8566 39.9162
10.8186 17.5313 55.3932
14.1884 21.8019 37.6705
10.4626 17.1258 40.409
9.97143 19.2729 48.6044
14.7415 16.8878 39.2551
14.3008 17.7257 43.533
14.4077 21.6009 44.7353
12.5038 18.4894 46.7692
14.9505 17.4702 42.0604
14.1747 19.9285 47.8384
9.06556 16.156 47.3658
16.6746 20.5596 46.208
14.3903 17.3881 41.6099
12.6618 17.5738 42.707
12.6016 18.6304 37.0422
12.8097 17.9789 42.9232
11.5673 17.0665 41.4755
8.91781 12.362 33.2319
8.4955 12.8178 31.0295
12.6539 20.3189 51.1196
11.2389 18.1594 48.937
13.0836 19.4621 42.1087
15.6501 17.0983 43.7065
