# pn-170911/CsII-av-AMC2-1280-1959.psd
# Power spectrum* (dif=0,1,2) (really just |FT|^2)
# NOTE: only the first half! (symmetric)
# weeks: 1280-1959
# 22 clock-days, 7 excluded
# PSD: 1441
85519.4 2.88017 0.0189163
2.31563e+06 49.5984 0.0122325
1.37812e+07 259.916 0.0193569
1.89737e+06 92.7265 0.0182097
1.49761e+06 90.3945 0.0163801
791721 64.0314 0.0123814
391250 66.4725 0.0224846
555009 129.013 0.0437657
259720 63.5592 0.0273758
289508 87.577 0.0523954
211314 71.7698 0.0463626
184984 80.2417 0.0479264
157282 84.4255 0.0904429
132619 98.0163 0.0947415
114781 86.5079 0.0885861
74326.4 64.7239 0.0891937
84704.8 86.605 0.120254
60156.5 62.8316 0.109851
69398 79.7069 0.111505
59215.6 84.4969 0.159005
45536.7 79.4868 0.157292
44976.6 94.8936 0.219713
42862.1 81.2307 0.222959
33590.8 66.9878 0.196167
47501.7 96.866 0.300515
43664.2 105.7 0.294756
30269.8 69.1472 0.253899
40578.4 95.8778 0.312615
33592.9 98.8658 0.340311
28948.8 95.2856 0.391539
18595.1 93.4966 0.414874
28269.1 102.37 0.476263
15100.6 66.5246 0.339266
22551.5 91.7105 0.514516
19016.7 91.0361 0.525059
19025.7 96.5548 0.543052
18806.8 99.1579 0.656358
11182.1 69.2543 0.451784
19238.6 96.5538 0.651176
22701.1 120.711 0.929009
13472.5 97.9593 0.764858
14246.7 97.0332 0.749554
13038.8 99.8683 0.845698
16767.4 121.903 1.02067
11543.4 98.4667 0.871763
14568.9 103.605 1.06043
13278.4 89.7514 0.896397
8875.27 62.6001 0.656051
9390.64 79.9163 0.874389
11937.6 102.377 1.17284
8276.84 89.7735 1.08302
9290.91 94.7854 1.18412
9366.66 120.4 1.58775
6763.11 87.4809 1.13733
7243.77 80.5731 1.09663
6794.17 84.1617 1.29551
6123.51 85.6924 1.32384
5913.91 69.6322 1.10323
6290.95 70.5238 1.16909
5213.91 91.7711 1.5949
5996.66 69.8927 1.16622
5058.41 80.4625 1.37579
6381.38 80.4679 1.49484
6227.55 79.9886 1.49205
4645.58 76.9001 1.4859
4024.89 70.4633 1.44575
5524.95 90.2268 1.82537
6073.55 100.201 2.18812
5484.07 93.9629 2.09371
4502.7 74.4314 1.7461
4706.14 99.4723 2.33451
3858.33 72.6608 1.80113
3726.46 81.1752 2.03161
3190.75 51.3755 1.3078
4503.38 82.7303 2.15833
3687.05 69.1652 1.87038
4555.17 110.465 3.03574
3754.26 74.5939 2.08636
3155.84 68.0399 2.00017
3400.1 83.3274 2.61087
2194.51 46.0943 1.37258
2312.64 68.452 2.08573
2609.4 61.1847 2.01571
3782.92 79.7019 2.65047
3866.36 121.773 4.047
1803.75 58.0527 1.95917
2730.82 62.0828 2.21342
3560.02 101.376 3.51638
2971.09 85.2269 3.20061
2084.17 63.0946 2.4016
2465.73 68.2468 2.65361
1819.93 54.4507 2.12509
3197.66 85.5254 3.45176
2473.51 88.7076 3.79615
1690.78 61.1781 2.53165
1391.99 51.1854 2.24535
2065.97 62.0301 2.6319
2104.59 77.781 3.65371
1898.07 73.5263 3.30472
2921.21 111.589 5.05521
2710.71 90.157 4.32517
1754.29 68.2196 3.33251
1515.69 52.9272 2.63345
1615.38 91.8163 4.645
2125.76 88.0798 4.49265
1450.71 55.0537 2.90714
2048.87 84.4831 4.3115
1403.59 63.757 3.39715
1522.03 60.6391 3.33283
1706.02 80.6398 4.34698
1565.36 96.4503 5.70101
1372.04 55.0702 3.25745
1405.7 75.832 4.4816
1065.44 58.7612 3.72265
1866.95 75.5259 4.70116
1472.25 79.8269 4.90267
1421.06 70.9937 4.44628
1083.72 52.3254 3.48983
1640.4 71.8773 4.77337
1091.75 84.921 5.68413
1259.66 62.6358 4.36948
1075.47 55.0956 3.89111
1344.51 62.5264 4.33669
978.208 58.4056 4.27144
1480.1 69.8196 5.2248
1124.25 53.9703 4.02052
1363.05 74.9749 5.68381
1063.69 71.4888 5.48778
1054.65 53.2652 4.35675
1207.68 69.5043 5.33804
1185.68 80.8994 6.45924
908.581 58.3459 4.98401
1066.32 63.6208 5.16446
1216.81 73.656 6.34277
821.366 53.1496 4.50813
1096.06 68.9931 5.78928
653.179 38.4398 3.22937
812.789 53.0946 4.69255
897.12 70.1874 6.26083
977.269 59.8707 5.51498
968.094 59.3276 5.28112
721.544 55.2817 5.43876
1135.66 86.9293 8.22443
933.134 62.9203 6.13859
995.897 56.8878 5.38093
816.729 76.6274 7.48108
870.719 80.3198 8.11877
790.865 58.1694 5.93515
857.982 77.0725 8.19618
804.405 50.7023 5.46588
622.981 47.6708 4.80664
770.294 48.669 5.08849
799.51 54.6342 6.12119
607.725 48.5371 5.20743
733.287 62.0227 6.5046
665.162 79.8632 9.31558
574.818 40.6591 4.41864
683.652 51.7945 5.82465
479.464 49.0163 6.23647
1028.54 85.4147 9.84062
396.38 34.2145 4.13305
827.1 62.4038 7.60761
605.87 78.7891 9.67177
485.871 29.5263 3.6747
605.868 50.3042 6.97064
664.76 63.8996 7.8564
543.529 60.195 8.0068
742.041 69.129 9.02907
765.322 73.2498 9.38148
697.036 52.0887 7.16298
672.251 64.5839 8.94602
894.561 92.0334 12.5066
580.188 51.3791 7.4654
431.053 42.8433 5.67818
573.624 55.147 8.39428
553.658 58.8239 8.41382
357.867 45.0809 6.49053
521.692 42.2275 6.1865
405.52 49.4925 7.17079
438.93 45.9182 6.89684
490.791 69.8081 10.4528
529.421 52.2556 8.47743
467.29 47.9313 7.38524
562.751 61.7375 9.43664
414.446 39.2774 6.41769
432.044 53.1377 8.12669
485.817 62.8192 10.8486
387.445 44.9716 6.88567
670.039 76.1373 13.1874
355.868 34.3484 5.92
467.995 48.8304 8.20677
443.441 45.0883 7.52013
431.893 37.5792 6.50975
411.414 45.9786 8.12301
339.641 50.6161 8.64428
327.869 43.7809 7.46795
316.334 41.5924 7.75458
304.001 40.6346 7.62836
340.954 42.9872 7.6084
452.018 52.7497 9.75524
374.325 46.9813 9.38122
443.824 59.2733 11.5519
369.635 46.8465 8.60801
334.527 43.4075 8.38238
433.665 57.1533 12.0519
271.829 31.5932 5.59169
351.16 48.8923 9.88947
330.972 46.468 8.76377
296.004 46.3314 9.43318
223.098 35.806 7.38479
346.406 51.9571 10.0514
427.055 70.3411 15.0964
220.023 37.1075 7.611
248.721 45.6241 9.53574
357.264 46.7212 9.6168
254.257 37.6561 8.36549
279.217 54.9171 12.2322
371.383 50.4684 10.2401
269.101 48.0414 11.1671
349.47 58.498 12.9702
301.576 46.8625 10.131
301.862 41.9338 9.91919
223.856 46.6295 10.3857
292.923 34.2028 7.62173
302.169 38.8871 9.44189
326.813 49.6871 11.877
216.181 31.3928 7.62399
203.513 30.7796 7.93213
313.824 58.3437 14.6753
314.156 52.0542 12.1946
218.437 33.4173 7.88298
201.897 46.8797 10.7714
177.681 49.0833 13.1498
325.175 51.105 12.4519
272.396 44.7901 10.7634
202.681 34.5767 9.78662
294.328 47.6959 12.1044
324.947 50.0605 13.2391
218.205 38.7867 10.6552
264.646 39.4228 10.8585
293.835 48.2166 12.06
214.138 38.4158 10.1924
217.993 37.4407 10.0468
182.183 34.1633 9.39512
327.783 63.5636 17.8533
178.207 32.2738 9.81404
240.35 43.2789 11.7714
221.12 60.425 17.147
180.774 33.2725 9.54122
180.359 49.749 14.2755
275.61 53.3726 15.2389
279.417 49.929 14.408
196.529 39.3074 12.0108
216.959 42.237 12.1131
199.169 45.2705 15.0171
247.247 48.9813 14.3392
147.924 36.7721 10.9442
173.415 39.8831 12.5899
109.535 21.873 7.25019
109.024 23.1749 6.83456
256.308 53.7866 16.6344
122.914 33.8905 10.7744
131.938 31.4939 10.491
243.106 43.6833 13.8184
203.464 34.0932 10.3965
130.542 30.3166 11.082
156.86 39.0123 11.9563
180.723 40.0336 14.6066
237.751 52.0618 15.9136
170.692 42.5403 14.19
183.347 40.2706 13.5131
186.867 43.6647 14.7288
154.15 39.3831 13.456
132.498 37.4821 12.715
143.23 22.9535 7.78872
181.695 39.7966 14.7243
168.044 30.7514 9.99854
141.364 28.0797 10.3539
223.955 48.0894 17.4173
156.663 34.0794 13.0059
159.719 38.6583 13.4398
131.431 29.0853 10.3267
138.665 31.8558 11.9179
180.378 43.3906 15.8905
191.073 37.0998 13.7746
87.4779 22.9197 9.09892
111.033 28.7439 11.0947
123.726 33.0087 12.6722
136.403 34.6475 13.1057
117.154 33.6955 13.735
130.521 39.7313 14.6591
111.283 20.887 8.32028
159.664 40.4706 13.9516
142.588 30.5212 11.8791
117.997 29.0332 11.6123
153.832 34.9258 13.5479
120.262 35.4202 15.1265
152.681 29.0493 11.2937
94.7314 24.6657 9.83999
110.399 21.9541 9.14403
66.2648 17.964 8.70235
112.965 22.0886 8.59446
108.026 32.1804 13.2961
139.877 31.1172 12.7909
92.1311 24.9082 9.97986
88.2961 27.7816 12.6699
106.461 29.8369 12.896
132.23 24.1886 9.08294
139.925 37.8811 18.0368
115.397 25.401 10.7162
109.574 31.3143 13.7109
105.053 20.875 9.27678
95.4052 24.1363 11.3217
124.976 22.3856 10.518
106.866 29.4804 12.024
111.76 24.0403 11.1976
110.432 30.4245 12.8053
124.097 30.4987 14.4756
87.6691 24.7771 11.3543
118.467 26.012 12.8209
76.9534 22.3772 11.3821
113.757 27.3117 12.4603
113.901 38.4981 18.3328
118.113 26.5452 11.4687
73.5091 23.0599 12.4562
100.648 29.4959 14.6279
93.3909 28.3475 13.333
67.1668 23.401 13.1861
104.843 22.3903 10.5525
98.034 19.7726 9.0808
91.8926 25.2517 12.0559
144.252 37.4964 18.9589
65.7032 15.5517 8.63166
92.0073 28.7188 12.9545
73.8177 29.6634 15.8048
109.556 36.4097 18.5649
101.339 22.6344 11.445
106.823 33.4266 16.6437
92.8772 27.7346 15.8127
105.17 29.992 13.9902
94.7226 25.5297 13.5322
109.657 25.0774 13.1558
79.2154 22.0961 11.6898
79.603 20.5966 11.6611
79.3083 17.4227 10.1391
101.34 29.4952 15.0422
78.0982 26.3217 14.917
88.9784 20.4612 12.4552
95.9128 33.7207 18.9529
88.2403 25.8885 12.9963
53.6476 20.6873 10.6193
107.197 28.9625 16.5309
71.8054 14.9694 9.03965
76.9753 28.3184 16.1227
96.6657 26.1258 15.3091
74.7067 19.9366 10.6868
66.8788 21.1325 11.5573
66.1917 24.8955 14.3137
52.4685 20.2967 11.8792
58.9439 19.0638 9.2579
50.9195 19.7223 12.0218
81.7073 20.6593 13.2494
83.0655 32.9808 19.392
66.4234 22.1071 11.8646
65.6916 26.6076 15.8965
60.726 18.1474 9.64472
62.2177 20.1277 14.8067
77.5747 22.0408 13.1639
103.789 34.9605 19.6559
55.9517 22.8264 14.008
59.2146 19.4706 13.5399
58.9877 29.4767 15.6123
73.8996 21.2128 14.5082
69.5518 32.7571 18.0446
60.5237 35.0075 22.0503
58.1061 20.5555 14.4476
72.7729 18.0564 12.9347
65.3993 17.199 11.0062
60.9419 26.8406 19.3955
72.9612 27.3935 16.4465
69.5037 13.5642 7.82325
45.0439 20.2761 13.4087
64.4692 20.6575 12.9912
54.1977 22.6091 14.9356
40.8764 13.9631 10.1904
75.568 22.9247 13.2142
44.5014 13.2093 8.58324
61.9997 21.5777 15.4688
73.6299 28.0796 19.5398
61.85 19.6556 12.5761
45.4192 10.7747 7.84764
62.4983 22.5579 15.5631
47.0151 16.5091 12.6431
67.8931 18.9067 10.8632
61.8831 27.0904 17.7877
56.2185 23.4932 18.4726
63.3739 23.4195 15.4342
56.2304 18.4904 12.5838
45.3312 13.5909 10.3764
42.6024 15.3915 10.1118
62.0847 23.3288 18.7352
47.9139 18.524 11.421
54.76 17.7172 13.5557
39.8744 15.2341 12.3718
47.6875 19.8604 14.0435
71.3567 20.4178 13.7643
44.9146 13.3722 10.247
55.7274 18.6153 14.8807
57.316 22.363 16.3266
39.3182 17.2235 13.377
45.8236 16.142 12.3582
58.846 20.4819 14.5524
57.6168 29.7387 21.8787
57.4003 19.8217 14.9381
55.1677 20.0585 14.3725
36.0066 17.5705 15.2962
52.8209 21.6569 15.4327
39.5818 12.1307 9.7455
52.8088 23.7235 20.0919
60.4552 20.4845 15.2946
39.5267 15.6305 14.2347
62.001 19.34 13.8867
46.5795 14.3291 10.7198
66.6146 20.2903 15.0909
41.678 18.5038 15.572
57.1487 17.4579 12.4535
40.8286 15.4085 12.9467
47.8211 16.2237 12.3461
34.5963 13.8867 10.437
45.2426 20.2414 15.2754
38.9483 18.7904 15.3002
43.5634 19.0222 18.0635
50.1605 18.2329 16.2244
71.576 19.0135 15.0205
50.0116 20.3505 15.7292
47.2255 20.1128 18.1479
58.2221 21.9635 18.7263
42.6766 14.7991 12.2571
37.8069 17.1786 16.0518
47.2684 15.74 13.1138
41.7273 18.0735 15.2001
37.7846 16.9951 12.5692
60.1718 19.5466 16.92
44.4162 19.7219 19.6283
40.7719 12.4179 8.98289
40.6363 16.3427 14.8167
40.7277 15.2586 14.4421
35.193 12.4683 9.68518
38.1833 14.8398 12.9813
28.2193 15.5079 13.4653
46.9932 18.448 16.4025
34.2021 18.6838 15.8222
32.093 15.4689 15.0604
43.8926 21.1729 18.189
34.1776 12.722 15.2791
52.2308 16.4638 14.8005
51.2511 18.2323 15.3398
47.707 15.847 14.6668
43.0688 15.4741 13.6533
43.5138 19.0546 17.8848
41.9101 13.0544 11.8839
36.0627 16.0428 15.0941
29.3912 16.41 14.248
40.6977 16.2972 14.8595
35.8603 11.3948 10.6948
30.8994 7.88208 7.6134
42.1316 17.2623 14.2025
39.0669 16.5273 17.2319
35.8634 11.2425 10.7924
33.1613 11.6318 11.6864
41.6458 20.2871 18.8048
56.2629 18.5333 17.6114
28.3492 13.636 14.0922
47.4859 20.8535 19.5187
27.5741 13.8478 11.622
26.3386 17.2402 18.2467
32.1328 10.5742 10.4206
46.156 20.9124 20.1128
41.6627 13.5744 14.6569
40.379 17.5212 16.6205
38.4346 15.1629 16.6303
46.4937 17.5492 18.9388
45.403 16.4427 14.1931
32.508 16.4094 14.7528
29.0942 11.5143 10.7791
28.477 13.3944 16.3355
38.1984 13.892 15.2904
42.8837 18.9272 17.4623
32.0596 16.4806 16.9887
27.3173 12.9479 15.3297
36.4056 17.509 18.2386
26.2332 8.08965 8.53466
32.5123 12.0742 13.1969
43.5084 21.8464 21.604
38.3845 16.5902 16.6244
24.1863 14.5632 16.4617
46.4116 17.1888 16.6208
31.3372 9.79501 11.5603
37.9025 17.3763 17.008
38.8442 16.1518 18.5545
24.7866 12.6151 11.5708
24.8088 13.2842 14.0581
26.4042 9.54028 13.4514
38.4607 11.1748 13.1599
22.8494 16.2919 17.0909
38.6167 12.382 15.8089
35.4081 14.2593 14.4761
28.6932 14.9731 19.1818
31.6113 13.1195 12.6709
22.3538 12.712 12.5054
38.9282 15.4073 15.6507
18.0028 9.93106 13.5127
29.8208 11.1012 12.7281
34.4388 18.3839 20.0059
25.7744 16.5957 17.3323
29.2623 8.10715 9.23571
29.1694 21.9091 25.7045
31.7332 18.0268 20.6774
35.5892 16.8224 22.5182
38.5851 17.5586 19.232
35.0098 10.3759 11.2147
39.6261 14.7584 17.2883
23.9759 8.82535 9.90647
28.6271 13.8897 15.041
27.8639 13.4394 16.0135
32.1994 12.472 15.3646
25.1422 9.10563 10.5903
23.1398 12.5118 13.6424
13.0157 8.23953 11.3082
18.6895 12.6162 15.1849
26.8119 10.8997 11.9289
21.8072 13.3591 17.5921
33.3104 11.3127 12.8066
29.797 12.763 18.341
29.0085 8.76941 8.38014
25.8516 11.6864 12.5217
21.9497 11.6652 16.1445
30.9523 14.3377 15.4389
27.5843 11.3864 14.3448
25.9937 10.5232 13.9729
32.6942 12.4752 14.6277
33.4311 15.9208 20.696
25.3691 10.6505 11.5061
26.865 12.1866 15.9026
33.1804 7.90409 10.954
27.6477 12.3844 13.2162
23.5668 9.64228 11.4433
22.0889 10.7607 14.5768
32.9447 12.524 17.4517
26.0633 12.5702 17.9112
36.5954 16.6761 18.1253
30.1028 10.9351 14.2035
26.9571 9.2897 10.2942
30.5331 12.7416 16.2381
27.5945 8.75109 12.2909
18.7495 7.92198 9.9145
16.9764 14.3329 18.5452
33.6237 12.5915 16.4097
31.8466 11.9003 15.3626
24.2077 9.2868 13.6144
23.4975 9.6155 14.3923
24.557 12.6164 14.6581
26.8445 9.9107 14.4423
22.5504 10.8437 14.4139
20.2249 9.09013 13.3303
26.5774 12.7002 15.5444
20.1527 10.4011 15.5387
24.8983 12.4302 15.5899
26.6234 10.0177 13.2936
26.7868 7.30433 8.20828
30.8173 15.2632 21.0504
20.1117 14.5758 19.622
24.9678 11.5518 15.3095
22.0009 11.6718 18.6879
22.4275 11.653 17.4265
22.471 11.7801 18.2717
24.8151 9.91915 11.4
25.0053 8.72921 13.075
25.2159 9.92993 14.7316
24.9158 14.1186 16.368
25.9143 11.0596 16.8097
14.4727 11.4103 13.4138
21.5259 8.39144 13.7648
22.8623 10.8658 12.1996
22.9669 8.53637 12.5926
20.7542 10.9013 15.6381
26.132 10.1995 14.4268
21.9699 10.7752 15.8359
24.9818 10.8962 15.4363
23.3376 11.9745 16.9249
22.3589 9.06986 14.3154
24.9372 12.6539 18.7469
24.9313 6.75648 8.84036
20.4826 10.4996 16.661
18.14 7.77237 12.0302
16.6049 7.27814 10.316
18.59 6.36187 8.61169
19.0421 9.02892 11.8609
23.3223 11.1592 17.8366
15.9578 9.8778 14.7635
25.2332 13.8727 21.416
21.4439 7.6732 12.1418
21.0181 8.39985 11.7937
20.3614 11.8242 16.1401
17.5195 7.23416 12.632
22.9517 10.3546 14.6034
19.0251 10.4709 15.6536
17.1829 12.2707 16.1322
19.4654 7.71403 11.2546
23.6456 11.2572 18.5262
12.4605 8.68311 14.0647
21.0349 11.0549 14.7751
17.5116 6.83623 12.0909
22.7773 9.35539 13.0612
18.9895 8.55579 12.598
21.4315 10.461 15.8351
21.0344 8.06123 11.6931
21.3236 11.2022 19.16
17.6892 9.63566 13.1109
18.3358 14.1311 22.4083
26.2549 9.99194 15.3587
21.8267 10.1727 15.4301
19.4195 9.24228 13.5472
20.0358 10.0737 17.2105
21.5968 10.8953 18.0758
21.2414 8.6368 13.6653
15.9848 10.2345 17.2735
25.0687 14.6439 18.7039
16.9704 6.70281 12.9468
21.9458 10.3318 15.0249
16.8092 12.3497 20.3342
19.5482 9.98744 17.9511
20.9099 9.46444 13.8909
17.882 13.2052 21.7853
20.9224 8.76209 14.0749
18.5206 11.5661 16.6606
19.9069 11.3236 20.0669
17.1768 7.11956 12.9163
14.1187 9.60106 11.9161
15.7212 7.69298 14.9302
12.3762 9.56994 15.6623
13.243 7.61439 14.5392
16.4983 11.2939 21.7132
22.4431 13.1852 16.7546
19.0841 10.187 17.9183
17.4772 12.6146 23.7127
19.645 8.31578 13.2024
18.8947 8.04486 13.645
14.5785 6.94557 11.3714
14.5279 10.3286 15.1298
17.6341 6.62071 10.8232
19.2983 9.19071 16.0914
15.4219 8.28026 15.9105
15.7146 7.40253 10.1015
13.5959 6.39336 12.8193
12.992 8.94416 13.9349
12.3757 6.78932 12.2634
17.21 8.18211 16.8604
19.4735 9.14043 15.0407
16.1372 7.79856 11.0903
18.1453 5.91225 9.47679
17.3498 7.90741 13.23
14.4131 5.6872 12.3357
14.5731 9.78008 17.1923
17.5879 4.33598 7.79302
16.1864 7.45168 12.198
15.5868 6.16038 12.087
11.7106 7.86923 12.3993
13.7534 7.48586 13.506
14.4547 10.207 16.8591
18.0083 8.11074 15.6777
15.2997 8.89311 16.6195
15.8255 6.99414 12.5265
13.6661 10.5221 17.543
16.7547 11.2129 22.1215
18.4494 9.30246 15.0005
16.9856 10.8942 18.3401
18.1129 8.55844 15.1883
15.7873 7.50758 12.969
17.2598 6.7517 14.8611
17.507 7.74129 10.8231
14.0033 5.87131 11.2584
17.4813 8.67855 18.7946
12.889 8.73498 14.35
14.224 6.52867 13.287
18.4429 10.3739 17.9565
14.2263 8.59233 15.1063
13.2509 5.60174 10.1188
15.0982 7.75518 13.5244
14.6456 7.25834 15.1752
15.6279 7.45232 17.3608
19.0518 8.47276 12.4346
13.4477 9.46461 15.4074
13.4519 6.94062 17.3069
14.9269 9.22697 17.6373
13.2969 7.38896 12.012
15.2196 7.18825 15.9226
14.8926 9.24275 16.1546
15.262 9.1098 17.5896
16.6984 7.46643 12.1172
13.1367 5.07439 9.69017
21.323 10.2566 21.6006
13.8762 6.08361 15.4125
16.6335 8.20255 15.5002
14.6938 6.94392 14.2606
15.2705 7.5091 14.8995
16.3839 9.97093 17.4944
16.2386 10.5871 18.4068
14.153 10.1473 19.933
15.9459 7.39011 11.3753
15.4502 9.39315 19.3322
15.0599 9.37851 19.2981
12.0694 7.59006 14.4095
11.3263 7.0658 16.7856
14.4573 7.74165 14.1261
15.461 9.72141 20.7361
16.1367 8.16653 15.3946
16.6245 7.12541 13.4147
13.8877 6.86998 17.2566
14.7309 9.52348 16.7063
14.3492 9.20764 19.7049
15.0397 8.70881 14.0157
14.6643 6.50624 11.1778
13.5261 7.59707 16.5963
12.73 7.46658 14.3026
12.2418 6.83683 12.8412
14.097 7.08859 14.2503
14.9342 8.54247 17.9162
11.8315 7.6566 16.274
13.4609 6.72791 12.4324
12.4763 7.74456 17.2235
13.2023 6.48204 14.3082
14.8514 7.1094 16.2169
15.9634 7.36475 12.5092
15.7438 9.5319 22.1251
16.6648 8.50797 15.096
14.0816 7.12944 18.6191
14.8326 7.798 12.8084
15.1538 5.8278 10.8138
11.9333 7.12487 16.8685
14.0085 7.64836 14.4701
14.3706 8.29677 20.1511
15.589 6.80251 11.2565
12.0274 7.10353 14.1043
10.6558 8.88971 20.3943
16.2851 8.03697 16.9797
15.0335 7.48809 16.1063
13.7078 7.27695 14.4921
13.4839 7.37395 16.1664
12.6403 5.58448 10.4314
15.0488 6.8901 12.1294
11.3997 6.29499 16.8029
12.3156 8.95252 17.5146
15.8928 5.98653 12.5159
12.5908 7.00054 19.5731
15.5868 7.85239 18.2387
13.7256 7.42977 12.0074
13.3828 6.6695 14.2982
12.6024 8.97942 16.7422
11.4091 6.025 12.2128
11.4195 5.60448 16.6243
11.5353 7.43077 13.8462
10.865 5.28974 12.6484
13.0701 5.5752 13.5862
12.3961 6.53597 15.777
13.7508 7.27291 14.2446
10.9953 6.786 15.1291
15.0286 6.10281 12.6037
15.0918 7.98905 15.1296
14.5781 7.3544 15.0676
12.5913 7.10259 16.1567
8.82716 6.11932 17.0899
12.9416 7.45715 16.4523
11.7139 6.11541 13.7942
11.6938 5.99951 17.0917
14.6074 8.66301 15.6873
10.5004 4.83138 10.3959
12.2289 5.31204 11.2986
10.7673 4.79776 11.1306
12.4438 6.34274 16.3581
12.866 6.76503 14.2264
9.56249 4.93334 13.5211
12.1305 8.68947 15.6635
11.2817 5.46683 12.5627
11.0725 7.0502 17.6546
10.947 4.91109 10.5188
10.6023 6.03868 13.8904
10.0087 5.74714 15.478
11.5869 6.64274 14.6234
9.77154 6.1221 12.3852
10.0768 5.46996 15.1246
13.1221 5.73102 8.6965
11.3567 6.93443 17.4425
12.7963 5.42034 14.457
10.2495 6.00967 14.1859
11.4357 5.452 10.3661
12.3307 6.62365 18.4412
14.1157 5.99921 13.4043
12.0812 5.66173 14.2898
13.8956 6.42468 11.2725
11.6941 5.57504 14.1947
8.33291 3.90478 9.53995
9.74599 5.26802 14.3174
7.56217 4.44557 11.0668
10.2285 5.35631 13.3674
7.19898 5.45348 11.3496
10.4565 6.37921 14.3214
9.09158 5.46553 10.3839
9.56756 5.20322 15.8154
11.4095 5.42515 14.0349
11.5784 3.63321 9.41257
9.31031 4.81521 13.3309
13.9111 5.94962 11.642
11.317 5.5397 13.0281
10.2094 8.21676 17.5139
11.7612 5.67074 13.9697
10.4601 4.69792 11.5137
12.4163 5.48386 14.7049
10.6644 6.51863 14.6536
10.5896 6.58063 15.7147
10.0316 4.0542 9.90336
11.4678 3.9516 9.79117
9.66279 4.25802 11.1407
11.8976 5.5 12.8253
10.5942 5.44417 14.1545
11.6837 6.78302 15.3475
10.5066 4.90428 17.4901
11.9129 8.39457 19.942
11.3532 7.27911 17.7202
8.3279 5.90189 13.531
11.8158 6.55215 15.3594
9.10023 5.06407 11.4551
11.7083 7.28866 14.5744
10.8885 4.02173 11.8645
