# pn-170911/CsIIA-40-CsIIF-1280-1959.psd
# Power spectrum* (dif=0,1,2) (really just |FT|^2)
# NOTE: only the first half! (symmetric)
# weeks: 1280-1959
# 623 clock-days, 435 excluded
# PSD: 1441
14497.1 1.13378 0.101102
1.73135e+06 39.6084 0.361134
5.37853e+06 106.736 0.501201
2.27544e+06 87.8339 0.590992
1.74159e+06 117.988 0.407816
814944 85.0677 0.512682
643130 92.9603 0.512897
454087 91.2526 0.454001
342395 86.4116 0.549398
276216 89.5279 0.951729
219479 85.1434 0.670156
182617 82.4411 0.630901
153585 89.4249 0.604967
127999 88.0747 0.626138
117440 89.1164 0.614062
102339 85.0171 0.638241
82263.9 84.9404 0.718209
73655.5 80.7102 0.896028
67042.4 84.2341 0.765502
63663.5 91.265 1.02028
50767.2 84.3624 0.714869
49516.3 83.4029 0.903185
45477.1 82.8516 0.823733
40755 81.1067 0.790772
36657.7 80.8686 0.792667
35217.6 81.8484 1.0073
32108.5 81.7049 0.954546
30719.1 84.5572 0.947871
30804.5 86.2061 0.941446
28953.3 90.6961 0.988093
25343.5 83.8293 1.05374
23426.8 80.0355 1.01272
22788.4 86.3674 0.944532
21116.1 86.7608 0.936465
21024.2 85.1976 1.00238
18028.7 82.7995 1.19842
18075.4 83.2905 1.47543
16214 82.5329 1.19589
15150.1 80.7174 1.26403
16747.1 89.4504 1.25027
13509.4 83.0486 1.23437
13431.7 85.6162 1.34413
13236.9 84.4364 1.20703
11892.4 80.5448 1.31444
11415.2 82.5148 1.29334
10687.6 83.1648 1.40492
10644.3 82.686 1.70442
10381 85.0477 1.54859
10364.8 84.8234 1.53602
9730.16 84.8381 1.58882
8474.93 78.0343 1.57297
8456.6 77.9156 1.7554
8475.17 82.0057 1.86052
8013.46 82.3349 1.63398
7615.22 86.0368 1.82369
8064.06 85.4072 1.87911
7101.82 81.865 1.73706
7646.81 84.0562 2.03976
7139.89 84.9445 1.74939
6599.12 82.9465 2.08871
6602.32 84.8733 2.08636
6864.63 89.277 2.55939
6047.99 84.199 2.32514
5919.2 77.6782 2.1158
5587.92 82.078 2.18039
5607.65 87.5361 2.43719
5082.96 84.0801 2.16132
5421.91 83.7092 2.16576
5391.65 86.9647 2.61647
4626.61 75.2684 2.26946
4941.68 86.414 2.61995
5021.76 87.9507 2.796
4638.53 78.4214 2.57463
4436.71 81.5943 2.66439
4685.77 84.7525 2.88891
3711.42 76.4289 2.62229
3840.98 80.083 3.06004
4010.53 81.5352 2.82976
4121.05 82.3198 2.85237
3759.89 82.5257 2.95326
3340.15 77.1113 2.85312
4098.44 87.3993 3.29485
3481.52 81.7234 3.23202
3449.42 85.8639 3.41922
3633.06 85.5568 3.27365
3369.15 80.8217 3.34787
3381.88 84.9476 3.61096
3322.65 89.3606 3.83704
2928.85 79.6501 3.68322
3288.99 85.4245 3.88435
2995.35 87.5202 3.86971
2900.65 87.7871 4.03022
2943.76 85.0484 3.95344
2721.05 81.8366 4.04124
2696.55 81.7576 4.10546
2454.05 79.6182 3.95017
2464.04 75.3256 3.51617
2631.86 83.7867 4.34633
2239.4 77.0973 4.04852
2399.03 80.8838 4.17994
2272.75 81.8947 4.56545
2334.2 85.0686 4.47945
2119.59 84.0923 4.53052
2281.19 82.5074 4.52652
2327.28 85.3617 4.61272
2087.48 82.3083 4.70762
2154.83 83.93 5.10167
2148.43 83.7148 5.21587
1977.06 83.118 4.91962
2026.97 82.5584 5.09983
1980.18 84.9826 5.26807
1974.82 84.9116 5.36647
1775.87 77.0602 5.09344
2068.96 87.8679 5.6581
1941.8 86.064 5.82571
1874.93 81.0949 5.62443
1823.61 78.6202 5.16921
1738.59 79.72 5.58477
1764.99 82.7579 5.63674
1561.97 79.78 5.67905
1582.08 79.0348 5.96724
1581.19 80.2962 5.94274
1738.13 85.2292 6.34615
1507.35 78.1547 6.0794
1422.77 76.7966 6.08614
1529.14 82.9969 6.34631
1315.52 74.5844 6.1342
1364.74 78.3069 6.28235
1513.69 85.6259 6.96291
1405.08 77.9066 6.43246
1318.55 74.6632 6.25773
1342.6 79.8404 7.09158
1375.32 80.3343 7.15977
1273.93 75.985 6.30479
1298.03 81.167 6.9125
1309.86 77.4114 6.88
1210.86 76.5506 7.2632
1157.1 75.6578 7.07236
1274.81 81.3595 7.79727
1173.94 76.9521 7.2878
1113.44 81.374 7.51318
1186.72 86.2049 8.54297
1219.58 85.4946 8.37666
1153.1 83.9408 8.29349
1095.33 85.7774 8.2791
1100.72 79.3348 8.46338
1160.47 77.3303 7.83809
1120.36 85.7463 8.98383
1114.93 81.1064 8.79978
1050.64 80.322 8.33246
984 78.1548 8.82012
1029.52 83.8462 9.14497
955.085 78.0258 8.82358
1056.39 79.6043 9.10179
1102.67 76.5495 8.50479
952.81 79.1306 9.37059
884.426 75.8473 8.92471
1012.75 80.329 9.47749
948.084 78.3026 9.03342
894.621 75.1898 9.40322
931.894 79.2439 9.70724
992.734 82.2952 10.0413
890.238 79.9539 10.105
875.529 78.1085 10.0672
872.843 76.9206 10.1782
822.38 78.9699 10.3654
915.888 76.0728 10.1972
795.829 75.4737 10.3886
792.97 79.7598 10.6768
822.628 76.7159 10.3802
928.528 78.7264 10.5856
866.914 80.3901 11.2714
868.274 79.3991 11.3678
808.325 77.565 11.1324
830.227 70.442 10.2929
835.167 78.7337 11.3561
696.96 72.6994 10.6015
817.911 79.1042 11.934
692.14 71.6337 10.5389
802.052 72.2678 10.7997
745.657 75.885 11.4686
826.843 79.9825 12.4492
769.628 74.4311 11.6385
664.242 78.9189 12.3757
722.536 79.3853 12.7021
803.642 77.9216 13.0275
691.178 77.9594 13.0052
726.419 82.3374 13.3486
705.252 75.4178 12.6046
669.179 78.5529 13.3021
655.389 75.1299 12.6074
674.99 74.4061 12.7009
773.739 80.8203 13.8146
670.329 73.0316 13.0449
625.926 79.9236 14.0335
702.313 82.0322 14.693
689.099 74.5913 13.374
614.075 75.2811 13.7413
608.381 69.8056 13.2203
652.024 75.7151 13.7983
654.828 80.8902 15.4039
611.485 76.1934 14.5515
635.441 74.7074 14.1932
671.615 81.9896 15.7662
591.522 73.7856 14.7513
569.3 72.4937 14.5589
638.547 81.1474 16.365
650.028 75.425 15.3535
578.749 77.2185 16.0161
556.493 70.5806 14.4529
586.386 74.2502 15.6413
593.801 73.5495 15.5706
553.084 72.8543 15.4227
537.132 74.6997 15.9915
555.198 74.626 16.0752
546.897 74.8901 15.9289
556.332 74.3546 16.109
494.14 67.6521 14.9573
529.233 79.3709 17.7974
484.41 70.0185 15.394
590.964 75.138 16.7023
534.579 78.5845 17.6087
532.784 80.9602 19.0531
584.146 75.6063 17.745
483.526 72.9919 17.0395
466.073 72.9448 17.0572
504.531 77.3246 18.5191
464.336 71.0695 16.8634
448.445 70.085 16.9711
507.296 76.9917 18.7164
422.25 69.0425 17.6686
447.001 69.7336 17.39
445.604 77.0354 18.8455
470.916 75.0551 18.96
442.558 68.6268 18.0882
425.83 66.7134 16.9079
440.289 70.1373 18.3729
438.144 68.1015 17.9329
418.997 74.2814 19.3671
435.703 74.7359 19.7495
417.764 76.5436 20.675
450.878 69.3219 18.228
404.714 72.0772 19.2956
470.774 73.7643 20.1919
392.065 70.5038 19.4321
409.087 70.8306 19.9481
415.529 73.2778 20.6823
429.985 73.4051 20.6037
440.527 71.9761 20.2077
370.294 72.177 20.3285
364.159 66.3264 18.7055
412.647 66.3381 19.2846
363.441 67.3703 20.1376
402.081 70.2279 20.9656
383.549 72.4919 21.2591
425.439 73.9282 21.6503
399.859 71.4791 22.1604
385.629 73.5178 23.1431
428.094 75.3636 23.8384
396.812 75.7939 23.3181
400.073 69.6255 21.8022
408.807 72.4502 22.4415
406.003 77.2562 24.4786
372.379 69.7743 22.6037
351.151 71.9488 23.4884
399.885 70.7171 22.9854
406.669 73.2491 23.6123
361.422 71.3086 23.2609
399.262 72.8583 24.7577
365.527 64.4594 22.0302
330.547 68.9454 23.2919
344.012 70.1122 23.9728
357.272 70.7145 24.0267
347.973 70.4026 24.1764
386.356 71.46 24.9732
325.461 69.5203 24.9072
299.56 72.438 25.037
364.712 73.0375 25.4029
326.842 70.8823 25.0839
336.958 74.0527 26.6904
353.56 71.1322 26.0807
325.59 68.7964 25.447
321.306 67.6851 24.904
387.123 70.9658 26.4508
376.92 65.2594 24.3571
424.551 68.1094 25.7336
489.855 68.4166 26.3966
400.645 67.7802 26.3456
297.413 70.4455 26.5031
365.191 69.316 26.6834
541.988 67.5842 26.7621
518.248 69.8011 26.76
421.077 68.3653 27.1195
368.555 69.4231 27.7458
370.412 67.4372 27.1572
324.255 71.2331 28.6378
332.875 66.275 26.9767
282.768 72.3657 30.042
291.614 70.9479 28.5498
294.482 70.5042 28.9969
278.859 68.0062 27.9594
338.549 73.3132 30.4948
327.681 65.4883 27.6136
305.147 73.3692 30.7312
284.273 66.7148 29.4252
293.971 68.0573 29.1626
305.801 65.1231 28.0534
268.485 69.3092 29.9084
275.497 64.5635 28.6025
241.46 69.5944 31.0243
255.821 67.4208 29.4285
231.208 66.2407 29.0228
268.372 63.4852 27.8063
264.192 65.2355 29.1467
268.274 64.9714 28.9371
253.147 70.0508 31.9205
232.045 65.4822 30.5426
259.11 63.8237 29.0742
272.488 70.5129 32.3335
256.683 65.8074 30.3571
244.937 67.2828 31.6515
253.968 70.0542 32.6733
242.541 66.7552 31.9739
279.622 70.6598 32.699
267.121 75.1032 36.2364
290.369 67.5338 33.2571
286.772 70.139 32.8625
261.224 62.3074 30.4397
232.66 61.0996 30.6567
288.38 60.8793 30.881
260.704 59.9985 29.497
238.927 67.4407 34.0122
218.271 68.8356 34.0328
272.094 60.3481 30.4733
252.111 72.0093 36.6326
238.152 68.0329 34.5072
251.984 64.736 32.903
242.624 67.6239 34.1592
227.404 59.5858 32.2074
228.792 65.8669 35.3446
242.449 64.2003 33.0989
225.335 66.9038 36.4565
220.115 61.1532 32.2856
221.028 64.8372 34.3055
238.503 66.9257 37.0228
209.521 65.3628 35.7817
236.07 66.2537 36.1591
229.508 66.6713 35.4706
209.182 61.3884 33.6809
212.367 67.4541 36.9246
198.968 59.8889 33.669
187.527 60.4993 33.8884
191.096 63.0951 34.9278
216.821 65.527 36.6984
217.817 62.5948 35.0876
205.673 64.411 36.3016
198.425 64.2087 37.0877
242.231 67.9379 38.9486
238.862 66.5381 38.7732
223.411 64.5267 37.8685
203.009 64.4066 37.7977
206.151 62.8525 37.0536
215.283 60.9362 36.1759
194.106 62.4608 37.2981
183.154 62.4946 37.1112
211.016 68.0562 41.9817
199.656 64.5224 39.9681
198.267 66.8639 39.7519
201.402 63.6026 38.1227
179.3 63.7609 38.6546
206.014 65.4535 40.2358
186.8 61.3497 38.5749
192.468 64.5396 39.6898
221.576 67.5816 42.3554
200.359 66.9705 42.1671
204.732 63.7952 41.546
167.182 62.0206 39.6104
205.532 59.7514 38.2205
199.466 64.023 40.2404
187.457 60.7964 39.6066
213.768 66.1933 42.4018
172.681 59.3879 38.3789
170.951 63.4767 41.1477
166.398 60.9786 39.8144
207.665 61.6058 40.8113
179.324 62.2082 41.12
166.594 62.06 40.9749
164.4 63.1203 42.1844
178.078 62.3626 41.7958
146.425 60.2108 41.3487
153.463 61.343 42.1334
179.216 62.2001 41.5033
156.859 59.4238 42.2849
175.623 66.9101 45.3883
160.123 59.7965 41.1953
159.866 64.0147 44.6658
155.311 57.5295 41.6796
143.941 55.91 39.4534
148.819 62.0293 43.2104
156.622 61.8333 43.3696
189.003 59.7943 40.9344
161.617 62.6541 45.4145
164.051 61.9833 46.3018
164.207 63.4381 45.6008
172.055 61.8495 44.3977
177.272 54.8276 41.7057
153.595 54.1897 40.0989
162.397 61.9064 46.5222
188.056 63.1338 45.5053
147.552 62.6375 45.6717
182.223 57.854 43.3932
135.788 54.9577 42.3313
168.257 58.0602 43.2023
171.413 66.3075 50.2011
157.495 55.8243 43.2952
162.671 64.4655 48.1639
163.802 58.7825 44.5652
165.737 57.9376 45.0318
150.805 57.3435 44.153
158.028 65.7787 50.2091
143.04 60.4754 47.8751
152.858 64.4833 48.5916
150.54 56.3474 46.0169
147.598 55.3811 44.2975
132.83 56.6064 45.705
171.555 63.1422 50.3031
156.179 64.3488 51.8369
135.432 57.6758 46.2907
150.718 60.7343 49.709
144.288 60.9403 48.6389
118.86 58.0652 48.1458
145.732 58.4032 46.9392
138.303 56.573 46.684
144.539 58.9873 48.1464
128.108 61.0386 52.1559
142.148 57.0466 46.8198
141.403 54.4779 46.0528
129.648 57.0754 48.8501
141.396 58.2819 48.323
130.197 58.4942 49.2309
135.388 62.5132 51.4982
132.182 61.8597 52.6941
138.007 52.8361 46.878
124.445 58.4703 50.1181
131.427 59.1161 49.9086
144.261 56.9599 50.672
128.036 62.186 53.6122
123.492 59.3432 51.6907
115.22 59.306 52.4736
137.439 58.7208 51.5976
124.276 56.1739 50.9885
113.11 54.6219 48.4801
117.776 54.1075 49.7145
121.113 62.2503 54.9835
135.909 55.6455 49.4263
138.077 60.5571 54.7732
142.832 58.5065 55.1576
117.381 55.3452 52.5318
120.097 54.4908 48.5636
128.216 57.1182 52.561
138.725 56.212 52.3102
134.553 59.1503 54.7417
129.992 64.3756 59.8356
131.043 59.4115 55.5174
133.53 56.453 53.461
129.197 58.5261 54.531
117.795 54.6699 51.7356
103.385 55.2113 53.376
114.274 56.5611 52.4591
140.726 52.5307 52.5139
117.913 59.0222 54.2534
112.031 53.3678 52.2334
130.257 57.0779 55.5352
141.906 54.0893 52.8795
126.119 55.0082 53.2834
117.257 55.32 51.8027
125.786 54.5544 55.5226
114.526 52.5383 51.2335
129.126 56.9023 56.5952
119.831 55.2753 55.6402
109.812 57.9391 55.8972
123.72 56.4104 56.9221
131.627 53.708 53.7726
131.661 58.7213 59.7434
126.958 59.7929 59.8383
124.067 56.7777 55.0648
116.917 57.9811 59.2155
100.665 54.3291 55.5383
132.48 56.5967 58.7123
136.683 52.1548 52.8073
117.449 54.9277 58.1499
131.048 54.665 56.3683
100.862 54.3746 57.3333
112.831 58.583 60.7327
129.933 59.6009 63.2773
139.15 55.4513 57.7746
103.864 52.0485 55.6552
131.027 52.34 55.6094
133.504 51.9834 56.6241
115.5 53.4183 55.8611
115.535 56.609 61.4841
122.1 57.0318 59.0169
114.489 55.7164 60.1811
147.476 54.6047 58.9346
126.588 52.8032 60.1414
100.976 57.0746 63.3483
122.293 58.2001 65.0009
105.021 57.8947 63.8165
119.581 57.6782 62.7511
112.016 53.1897 59.517
125.791 57.7552 63.4449
102.592 51.6101 58.7412
113.364 54.4735 58.3745
110.985 48.2993 59.2483
125.417 58.9966 63.1753
111.844 54.4989 61.0414
100.953 55.4039 64.7295
106.187 56.0169 62.8917
95.5414 59.3782 68.134
120.919 53.4192 61.3349
104.453 59.9387 67.7518
117.504 54.2278 61.1069
91.0551 56.1698 65.0705
104.907 54.7551 64.4058
95.2512 54.4113 64.1376
108.641 52.2654 63.1551
93.7038 50.7973 60.09
103.127 53.4983 59.4604
121.428 54.2744 66.3826
126.581 54.8066 63.6355
94.8083 53.1134 64.8322
113.376 55.0922 64.2035
110.933 53.2247 63.3286
114.612 51.6031 61.5939
96.5715 58.0147 70.3598
95.1932 51.0755 62.2303
118.767 50.3815 59.0939
95.8422 50.9994 62.9064
126.719 52.3404 65.5835
100.376 52.7868 64.8936
110.45 54.6154 68.4456
100.578 54.3239 67.6391
116.38 52.3811 64.6283
97.7171 54.1649 68.3231
97.2329 59.1631 72.1978
128.806 56.6775 67.7228
106.723 49.0186 62.5819
95.4297 53.5453 66.4488
96.0001 56.9991 70.3614
100.453 52.613 69.0318
92.3142 55.4938 70.1683
83.8246 48.3519 62.6171
94.1827 52.6896 67.526
87.147 49.64 64.2701
82.9596 48.0963 61.6848
102.395 52.5149 66.3514
81.2129 47.6681 63.3129
79.3102 54.1578 67.632
83.8565 53.2102 70.2864
91.9515 50.463 66.2443
107.954 51.1767 66.3475
89.887 52.3078 68.0837
85.1588 51.9909 70.3777
80.1543 52.2471 70.2875
131.151 49.5382 66.5684
90.6981 53.3703 70.3358
86.6739 51.8723 70.5512
89.9009 50.8756 67.9367
77.6588 50.4862 65.4416
92.4393 54.4474 76.1818
77.4645 52.0602 69.2112
92.5576 51.04 67.3883
89.5846 50.4452 67.256
95.0425 52.1244 72.712
117.074 52.5557 71.4181
85.9031 49.2834 68.7479
86.5856 46.9756 67.3587
129.864 50.8693 67.2452
96.4303 48.3361 69.9299
111.611 50.3572 69.8703
80.9966 50.8936 70.5088
91.7248 50.9855 71.3544
82.4997 50.6483 72.3275
97.4755 53.4346 71.8885
81.7441 46.9355 67.4157
90.6755 51.3261 72.7794
91.4093 51.4121 71.1031
86.8463 51.7444 76.2517
98.253 48.5304 69.4427
75.6187 48.3396 68.6805
81.4329 47.7211 68.8016
97.5885 51.798 70.7703
91.4073 49.5509 71.0451
84.8575 51.3228 73.5172
75.4601 50.3598 73.9536
88.2721 53.539 77.6672
68.5271 49.4165 73.5945
72.3312 50.6612 72.2702
79.4253 48.4622 73.704
68.5463 48.4887 73.5831
75.2968 52.4524 74.0299
80.5949 47.3604 70.3166
89.1421 47.5936 72.758
70.2352 47.464 69.1582
79.7658 51.4702 78.0776
92.9486 47.8559 70.0571
73.7488 47.1712 72.6179
88.2316 47.9172 72.6777
68.0555 50.4809 77.5171
93.3007 48.4745 72.7155
81.8922 47.023 72.3073
88.0372 50.5613 76.4997
73.7265 52.3736 80.9369
87.0939 53.9037 80.7244
80.223 51.4833 76.6391
61.9365 45.3916 71.5882
64.7045 48.5478 76.01
75.1348 48.2447 74.6077
74.8884 49.7949 77.0827
83.7931 50.4378 75.9348
75.3731 46.9655 75.615
83.217 49.8794 81.425
94.0494 48.5685 75.3141
74.8319 49.6709 80.3707
83.3105 50.9137 81.3714
65.7025 48.3828 75.5962
75.6216 47.9664 74.9013
70.0436 46.7616 78.3484
91.9926 47.7062 72.5394
87.5326 47.8368 77.4908
73.1989 49.8424 78.3797
60.7775 46.0494 73.8501
80.5345 48.8519 81.255
85.5233 52.5905 84.9356
74.7604 49.8631 81.2723
66.7602 50.7165 79.4932
82.6947 46.9199 75.493
77.5498 47.2964 75.3981
80.8634 47.4183 78.7569
65.8739 46.8844 74.5708
73.2238 49.0451 82.7208
102.041 48.0409 80.5696
90.2084 44.3395 74.9018
68.5054 47.7567 76.0282
72.1665 45.5987 76.184
72.4742 51.4504 87.4035
69.523 53.0063 85.1249
68.9555 47.1595 80.5141
65.9408 50.6743 84.7293
82.6088 45.4705 77.0726
74.2559 47.4385 80.7659
87.551 50.8867 84.1278
84.0837 47.7589 80.9168
83.7506 47.1262 79.5449
62.6111 45.8139 79.6537
77.6313 45.5816 76.8504
75.6176 45.7195 81.2108
71.187 49.0039 83.4648
83.291 45.7348 79.9722
82.0932 45.1601 81.0432
79.4435 48.7884 83.034
69.6938 51.2931 91.2973
78.8039 47.7582 79.6565
67.0833 48.9119 83.8951
61.488 44.8347 78.1383
68.5438 47.7303 82.797
78.9505 46.5061 80.5266
64.1783 46.6385 79.1794
76.49 49.4374 89.2071
71.0275 49.9034 86.1038
74.8255 45.3008 81.7407
61.1322 50.0315 88.0918
75.7422 49.7993 90.2215
66.8315 48.4874 83.2086
76.7893 45.488 84.4572
79.6494 43.4676 77.6935
79.6245 44.3672 82.4906
80.6835 47.7939 83.1503
67.9881 46.1015 82.3186
76.6543 49.121 91.8501
71.9955 49.5222 89.8572
74.9682 44.9754 83.0234
67.3592 45.8384 84.6474
61.3245 45.3985 83.9566
72.8616 47.0727 84.5956
69.2385 44.9739 88.0379
72.284 46.0256 85.1555
67.3826 42.6739 79.1603
96.3812 48.9128 89.4298
79.8991 50.1008 90.6105
55.3633 44.5548 81.8501
80.0536 45.8855 84.4027
62.8004 41.0822 75.7328
72.273 44.6762 86.8172
61.0507 46.5205 86.0458
55.2017 45.4708 84.4688
69.8059 45.8757 87.3126
78.1815 48.3415 88.2147
57.9089 46.3939 93.4878
80.8226 46.0342 84.9871
59.0953 47.765 91.615
58.2671 45.3881 85.025
57.0594 45.4953 86.2414
83.9418 44.1065 82.6238
67.3551 46.9864 90.5253
64.0056 44.207 89.1551
65.1143 46.9518 86.6139
72.3266 45.6498 92.0421
67.3595 45.4278 86.3889
66.5466 42.9509 85.4056
54.3998 45.0634 87.7607
89.611 44.3547 84.4987
61.2409 44.8535 84.2818
55.7451 42.1719 86.4949
59.1697 46.6591 87.6882
71.5512 40.691 83.4401
60.5866 42.961 87.5893
72.852 44.977 90.5457
68.288 47.701 93.0257
59.8591 41.9231 83.2765
57.3462 46.8389 92.2485
73.0292 44.8665 89.9587
74.5928 41.9507 85.1525
62.4653 47.6366 95.2834
53.3465 44.6699 88.5196
53.0793 45.7419 88.7114
62.4277 45.032 95.6709
52.1572 45.5197 92.2002
51.1915 45.8187 90.8543
47.4179 43.8713 87.6035
63.1501 41.2012 86.4058
51.0063 43.5737 88.9231
47.0202 44.2825 86.8698
57.0368 44.6355 91.4784
51.0054 42.6654 87.0809
66.093 48.8 100.664
54.0355 42.5212 83.8092
43.7231 45.483 97.9115
50.304 43.4769 88.3441
53.5597 46.1917 97.4435
57.5117 47.0326 97.157
64.2108 46.1623 91.2219
62.5014 43.3842 91.9935
54.4747 40.3211 82.8374
54.5124 44.5333 96.4365
49.2447 43.8028 89.847
57.1846 46.6421 98.8206
51.1318 41.3827 92.3565
57.325 43.632 91.5014
55.8068 46.4016 99.5602
58.1078 44.0185 90.7087
57.2997 43.6896 90.574
58.9488 42.715 94.4455
62.0207 46.3302 93.5394
51.698 41.5354 88.901
57.4182 45.0815 98.0179
66.4157 45.9564 94.5768
62.3193 41.4231 90.6251
62.3713 45.6252 99.1851
49.2959 43.7692 95.131
57.6208 43.9476 96.9337
55.1828 43.1749 95.9931
49.7104 45.2617 95.2912
54.0913 47.6204 104.86
60.7269 44.2158 97.6053
52.5323 47.634 102.715
70.0954 42.6554 92.4473
51.1185 40.3046 90.4387
59.8842 46.4963 102.303
66.5873 40.856 90.0774
61.7689 44.7902 100.231
58.599 41.9145 96.1594
67.1403 43.7579 90.6335
56.5732 41.2773 87.2212
63.5699 45.9033 104.395
68.7871 42.4954 99.7319
57.3154 41.7794 91.5292
59.0507 46.6436 100.974
60.6025 42.4132 96.1472
57.2507 43.8945 99.502
67.7064 43.2625 98.3097
59.9935 45.9753 103.234
39.268 43.7798 102.9
51.5021 43.3485 92.3972
66.8834 41.3329 93.3064
58.0861 40.2805 92.7706
58.7454 40.7176 90.8975
60.2503 40.357 94.773
52.0198 43.7296 100.904
66.1085 46.2152 107.628
73.5693 45.0812 99.5492
55.8191 41.6792 96.4847
46.8911 43.592 104.831
57.1696 45.1593 98.8396
55.1343 40.9205 95.9877
61.0657 45.1489 99.5771
58.3998 42.0584 95.8911
53.1511 45.385 107.412
60.2951 40.6453 92.7022
65.5066 42.3641 101.843
62.3822 41.4014 95.3514
54.1546 41.1741 92.4293
47.9703 44.1418 103.543
54.0616 41.5773 96.2244
50.3851 42.4825 103.36
59.3301 44.1325 99.5481
54.3286 45.4777 100.737
52.4716 42.0751 102.693
57.3284 44.118 104.68
69.9091 40.8483 104.149
58.3046 43.2885 98.1603
55.1775 42.6905 102.516
56.7222 43.0657 101.257
48.3915 41.7476 102.923
61.0774 40.6497 90.0177
52.5148 39.8382 99.775
66.9873 48.1218 110.986
70.7639 43.7382 104.16
50.0695 41.264 104.374
58.8976 39.9843 101.22
67.2148 43.657 102.147
72.5763 42.8827 101.714
40.6196 40.1551 96.7026
70.4721 39.7614 93.1758
72.1029 38.1622 96.721
62.7247 40.812 100.973
52.1496 40.1535 97.917
58.5644 43.3591 107.462
69.1194 44.0285 107.289
53.9239 38.9081 96.9151
67.1484 43.0736 106.145
55.536 39.8367 99.8374
56.8589 40.6575 97.0193
57.098 42.582 107.426
72.5095 43.2605 107.448
