# pn-170911/CsIIA-av-USNO-1280-1959.psd
# Power spectrum* (dif=0,1,2) (really just |FT|^2)
# NOTE: only the first half! (symmetric)
# weeks: 1280-1959
# 66 clock-days, 11 excluded
# PSD: 1441
215051 5.34982 0.0278335
2.26865e+06 29.5693 0.0305798
1.80954e+07 375.966 0.0393044
1.90363e+06 79.817 0.036874
3.02438e+06 242.257 0.0497606
623797 55.4218 0.0374773
389703 56.4507 0.0421182
323735 58.208 0.0452885
275102 66.7939 0.050948
186358 60.9748 0.0552349
134660 58.9278 0.0655134
109024 55.804 0.0631838
132665 74.049 0.0776917
94485.8 52.8348 0.0662704
89548.3 54.4201 0.0840894
82797.6 67.8475 0.103713
60740.3 62.0519 0.112153
54094.8 51.5219 0.084473
41542.6 56.0127 0.121536
55468.9 62.71 0.145628
38656.3 60.8655 0.149544
40208.7 67.1059 0.179846
30381.9 58.9774 0.171406
27585.9 57.3786 0.187009
34785.1 73.1794 0.219736
21321.3 53.0095 0.178134
23395.9 62.788 0.241447
17080.9 52.5416 0.220694
21199.1 62.5057 0.260966
14691 43.5026 0.212367
15819.7 49.5632 0.247414
18064.4 76.7466 0.373982
13117.1 56.907 0.283129
16407.9 65.0653 0.375383
10960.3 49.57 0.300128
10919.9 51.8013 0.329625
9927.71 53.1456 0.377721
8881.22 44.7885 0.33139
11013 60.6029 0.440153
11035.4 57.2945 0.467708
11606.1 67.1449 0.518109
7893.11 54.989 0.466275
8464.57 56.3374 0.498048
8388.13 66.0248 0.602716
8249.42 53.3816 0.529159
6912.16 55.8168 0.583401
7248.12 55.0901 0.574263
7283.53 65.7891 0.733455
6694.97 56.1126 0.665
5377.08 46.3476 0.521943
6576.44 68.0591 0.831049
5475.56 55.7347 0.718226
5085.43 41.2483 0.534585
7020.06 72.9521 0.998422
5601.34 58.912 0.866905
4194.39 47.8781 0.719408
5396.26 60.7573 0.86554
4866.83 52.036 0.841176
4673.81 58.7713 1.00878
3968.55 59.2156 1.03672
5257.04 69.3787 1.23436
3390.04 51.8393 0.931333
3493.37 53.5304 0.985174
3484.14 55.4442 1.11412
4184.63 61.8984 1.30053
3554.79 65.1224 1.36922
3581.82 53.6202 1.13733
3291.64 52.2723 1.09444
4273.65 74.5237 1.62579
3809.92 62.5136 1.45355
3166.33 56.9373 1.3605
2839.51 51.356 1.29856
2449.29 59.9085 1.50109
3294.6 64.031 1.70043
3266.54 65.5692 1.73922
3067.26 57.4981 1.59261
3086.06 60.2776 1.65111
2414.08 50.3257 1.46622
2537.52 56.801 1.61798
2434.55 50.4894 1.45211
3242.3 74.5153 2.24134
2584.45 59.8327 1.96118
1702.57 38.7 1.28799
2067.82 56.0064 1.91018
2014.01 55.6951 1.89029
2160.6 61.9765 2.1645
1955.62 55.3688 1.97207
1745.52 44.5612 1.65061
2297.22 60.8378 2.25746
2100.2 61.5268 2.30644
2145.27 67.5053 2.68921
1648.57 50.6993 1.98894
2036.99 59.6955 2.39545
1885.11 59.1395 2.38476
1988.46 56.725 2.3646
1996.95 64.5168 2.85448
1852.79 62.9943 2.7597
1585.81 51.8619 2.35516
1431.53 45.2475 2.05769
1422.27 44.334 2.08436
1960.7 61.2239 2.89324
1301.44 50.0641 2.53235
1657.15 64.1326 3.17639
1561.61 54.4802 2.73905
1574.39 49.4294 2.54804
1399.5 57.1311 3.09141
1239.88 47.4072 2.53731
1426.34 57.089 3.01515
1294.19 53.8117 3.02608
1235.6 57.5702 3.21296
1155.59 51.701 3.05444
1090.34 47.2647 2.72822
1278.8 61.1063 3.67104
1228.15 53.9256 3.28039
1339.52 53.7296 3.30359
1104.42 42.986 2.66976
1129.78 45.0229 2.93329
1256.5 61.0589 3.92414
1114.25 60.1709 3.90114
1212.59 50.7937 3.39081
1059.91 53.5473 3.51501
1196.35 54.762 3.87269
990.572 55.8688 3.99824
1160.9 62.6878 4.4291
911.755 52.8072 3.94086
961.88 44.0661 3.20179
873.096 40.7726 3.10832
945.674 55.441 4.17463
938.109 57.8552 4.58664
973.795 52.2636 4.08786
845.172 52.3479 4.1855
875.455 47.9819 3.74424
1012.24 56.6695 4.77729
757.766 53.5761 4.24728
898.468 47.6916 4.17266
767.97 49.8509 4.4526
756.522 52.9562 4.64936
731.24 40.7214 3.57996
753.316 45.114 4.11606
517.448 38.9492 3.54818
862.147 46.4844 4.31161
842.652 50.5522 4.78128
834.975 51.403 4.93655
700.754 52.5042 5.19889
713.654 47.2468 4.51784
985.367 67.7902 6.56173
558.925 36.3546 3.57439
910.44 76.7509 7.71441
708.339 50.3127 5.19828
596.949 51.1379 5.4727
769.797 58.008 6.24185
605.14 52.9465 5.76503
570.461 42.1882 4.65313
571.768 53.2032 5.84533
706.751 63.3815 7.24144
599.159 45.7248 5.17297
636.3 54.1887 6.4351
589.827 53.5615 6.14997
612.394 48.7662 5.82211
605.887 48.4555 5.81143
611.769 49.7549 6.11194
562.739 47.3456 5.87178
672.646 60.0835 7.22458
620.879 49.263 6.2677
468.016 39.2316 5.04248
608.943 49.2032 6.13279
574.274 48.8228 6.3657
519.349 50.3974 6.3993
493.369 45.2632 6.12869
490.533 44.457 5.89254
572.191 48.0617 6.39145
563.075 52.1641 7.4151
491.201 46.1298 6.43803
459.418 39.4404 5.79939
407.967 38.4018 5.43645
545.068 54.8277 8.18144
465.969 43.3015 5.90493
430.567 47.5917 6.99277
463.655 46.7997 6.86031
446.748 46.9956 7.1322
571.246 51.4163 7.63971
489.008 56.7198 8.62143
494.004 46.9537 7.40239
513.909 45.4165 7.09726
416.876 41.0543 6.51484
402.494 44.1001 7.20043
508.785 47.3182 7.44678
463.797 51.4581 8.82926
480.484 52.7751 9.09435
522.92 59.0011 9.75721
523.703 51.0729 8.36548
367.767 41.2404 7.16592
403.669 45.7101 7.99728
380.4 51.4676 9.30176
441.81 54.6878 9.49585
360.535 50.1059 8.69822
382.591 46.5667 8.45812
357.147 47.7917 8.72989
387.751 44.3539 8.0849
334.193 34.3774 6.34997
393.165 43.9065 7.9011
359.365 44.1765 8.62853
373.603 56.1402 10.2923
311.388 40.2485 7.80388
349.224 43.2464 8.14047
357.885 48.0011 9.55213
326.122 36.3227 7.40884
323.066 42.5499 8.82326
409.755 51.1547 10.2259
327.765 38.7205 7.93665
316.747 47.3623 9.7596
302.405 46.9981 9.71271
295.222 43.4755 9.06357
367.791 51.5205 11.0558
332.815 43.7519 9.36697
314.508 50.6963 11.0363
309.616 45.5568 10.0687
377.578 45.3032 9.99067
373.145 56.8427 12.407
271.683 47.5847 11.0726
335.769 50.8711 11.9937
245.892 45.5006 10.3643
317.045 48.093 10.7338
323.221 41.6793 9.33437
273.966 44.4704 10.2351
245.191 41.2972 9.85707
270.818 39.5713 9.32924
283.626 43.5358 10.7137
271.492 48.1054 11.4258
224.966 45.3828 11.6654
297.242 47.191 11.4239
295.648 47.0113 11.6327
218.415 38.8154 10.3544
248.056 51.4862 12.64
290.612 45.5887 11.5574
294.05 46.1022 12.1413
262.733 44.6095 11.0779
257.623 39.4941 10.0797
283.261 53.9797 14.6678
243.41 37.6032 10.0921
234.294 42.1645 11.7384
226.791 43.2728 11.6179
186.068 32.998 9.13361
252.885 43.9223 12.1297
268.656 43.1772 11.84
218.967 44.2743 12.2997
279.517 55.0093 15.9356
254.798 47.8296 13.2353
230.456 42.3858 12.28
246.004 45.5559 13.1382
227.632 35.4407 10.3967
227.425 39.2994 11.4526
214.546 42.5822 12.4661
230.108 42.8645 12.2318
237.427 45.45 13.3166
258.814 56.0949 17.7008
272.217 48.3352 14.694
244.783 41.309 13.0837
172.624 34.5735 10.2863
197.151 48.978 15.876
186.422 33.0616 10.8162
198.235 38.8723 11.12
182.441 41.1818 13.5656
181.98 41.2841 13.2049
166.078 32.3225 10.7385
181.052 43.8469 13.94
233.788 45.8906 14.9737
238.645 55.5809 17.9934
191.112 44.1009 14.8477
239.823 49.3878 16.2838
185.726 45.7059 15.4202
191.426 44.7353 15.3638
183.688 46.0961 15.7825
170.605 40.2528 13.6269
195.347 37.8999 12.8046
159.602 43.6172 16.3429
198.855 46.1547 16.2078
184.078 41.6809 14.1612
168.952 39.9064 14.1267
211.505 45.9051 16.9594
171.985 39.7079 14.1283
186.26 44.521 16.9793
185.699 45.6202 16.5143
191.959 44.3222 16.2001
185.064 39.7229 13.9346
181.428 36.0842 13.4505
174.283 39.2204 15.6849
177.516 45.4402 16.4884
170.673 41.2806 15.9986
189.887 42.0946 15.6944
152.343 39.5836 15.551
186.934 44.8473 17.0676
150.733 36.0048 15.0169
139.07 35.0735 13.7231
159.724 33.4968 13.3162
148.379 37.7747 14.8144
146.507 43.6528 17.5334
140.754 35.3945 14.8069
139.527 36.1142 14.6826
136.772 35.064 15.0228
140.04 32.8186 12.9047
150.443 38.1092 15.2629
155.303 41.0057 17.1925
110.362 32.4291 13.6736
172.673 42.7636 17.5073
150.546 39.5591 16.5097
130.107 35.3043 15.6035
175.325 44.9334 19.2107
125.019 33.022 15.2736
120.283 35.7644 15.0331
131.233 37.5479 17.3349
123.244 35.0051 15.9288
141.317 37.0189 16.0708
116.89 33.8005 14.4955
117.076 35.3817 16.1875
143.237 44.7572 20.5484
134.186 38.8121 17.2913
123.034 34.5 15.9943
116.835 35.6478 16.5144
118.569 33.7411 14.8887
115.479 35.5277 17.5155
119.358 35.1193 16.0329
90.146 33.0717 16.6526
127.395 36.7638 16.2931
102.225 31.9008 14.9499
127.872 36.401 18.1212
126.315 41.0836 19.4543
116.665 35.0221 16.9278
97.9128 30.0465 14.3613
114.548 35.9504 17.9125
134.82 42.7745 22.2443
101.348 35.5633 17.4849
84.2277 30.7869 16.1816
119.785 39.029 20.2404
123.843 44.7596 22.7267
147.381 45.9454 22.6838
112.621 42.0247 21.6086
107.157 39.6886 19.9494
97.5937 30.732 16.4195
109.82 34.9368 17.5167
109.435 36.4827 19.8686
103.411 32.1716 18.0547
118.575 35.7085 17.9775
94.7553 33.8538 19.296
119.345 38.7229 19.514
109.363 37.5564 21.1015
91.1201 31.9898 17.362
109.089 34.5448 18.3279
115.366 36.2838 18.7945
109.026 35.6443 20.0735
113.853 42.54 22.3036
100.42 39.5078 22.9316
78.1707 26.7063 15.4531
97.6892 34.8845 19.339
97.4208 36.5495 19.7026
87.0536 35.3905 21.5995
107.755 38.8895 21.7615
86.396 38.9102 20.9063
94.4668 34.862 19.9848
65.9058 31.6283 19.8048
94.1327 38.795 22.6841
97.5154 31.1653 17.8154
99.9775 35.8335 21.1982
92.3031 35.9267 20.9857
86.9622 36.3678 20.8429
82.4363 33.0114 20.4731
81.455 31.2267 19.9146
71.2429 30.9785 19.647
119.495 39.4597 22.6475
97.4307 42.0626 24.4013
79.4209 35.074 23.5483
105.59 35.4079 20.2077
74.7317 31.1407 19.942
88.9328 29.3458 17.6723
82.154 33.8379 22.047
82.0751 29.4926 18.6961
104.03 37.2548 22.8279
72.5896 26.6902 17.4502
73.8638 32.2285 21.4734
90.0051 38.2938 22.9842
79.7781 39.4708 27.0846
81.1741 37.7467 25.5548
73.5844 29.0831 19.5305
93.0456 37.6807 23.9386
80.8347 39.4251 26.5925
83.9063 37.2646 23.6799
79.094 29.5005 20.7634
80.4637 32.6777 20.0358
82.4215 35.9457 24.2497
89.9514 36.5754 24.7677
69.5784 30.4588 20.8386
72.9585 37.2183 26.509
70.9995 30.5072 20.3495
77.1058 37.7561 25.3928
79.349 34.422 24.6177
65.6684 28.8851 18.7625
65.4112 26.4481 20.2609
80.3002 33.3084 22.5002
73.5153 32.3898 22.6681
71.0356 25.4254 17.1352
71.5278 29.0883 21.3851
70.3447 30.922 23.0784
68.5981 31.6481 23.4204
65.0539 24.696 17.7314
79.6264 31.8705 22.9519
86.2212 37.1716 26.8527
76.2413 32.7657 22.5788
63.0736 31.9823 25.684
70.6446 36.2896 26.0152
86.9348 40.9445 29.205
60.7755 31.3563 24.5296
71.473 32.7342 25.0244
65.2874 27.9657 21.7806
71.5682 32.4133 24.8074
69.1659 32.0128 24.0209
57.3007 28.2007 22.4272
76.2509 38.6385 28.3758
56.5982 26.9843 21.8583
57.7102 24.1504 18.6791
61.9611 30.2189 23.2803
65.3213 32.5217 25.6419
56.4006 30.8109 26.3136
57.3921 27.9591 21.0197
62.8109 32.0881 24.9039
62.4564 30.3614 25.7865
62.5252 33.8444 28.486
64.9522 29.1412 22.0499
69.7323 36.1847 27.0595
62.2569 31.0876 25.1058
71.9838 35.0061 30.0215
63.1965 33.9273 25.7622
70.7979 35.4435 29.0032
47.7549 23.696 19.5995
54.1711 27.0257 21.7751
49.5151 25.0454 23.4045
63.7497 35.6642 27.8841
61.1981 32.5206 28.0455
63.8287 25.0417 20.813
64.149 32.3279 28.6864
55.6952 30.4474 25.0521
57.4104 32.9737 27.0893
52.1128 29.8598 27.4793
67.0581 29.0105 23.7857
60.4376 34.8285 31.5874
58.1875 27.3605 22.5596
42.7175 23.8369 21.342
49.9608 25.2734 20.7966
64.3902 30.2185 27.4186
53.347 25.732 21.7935
53.6812 25.9711 23.8942
53.5818 29.2505 24.5656
55.013 33.1397 27.6403
50.1028 33.8614 31.1906
43.2911 22.915 21.5789
61.816 35.4287 30.6882
41.9291 23.4298 23.2451
55.0574 28.8602 24.6582
51.4191 28.3997 27.3075
49.2162 20.5096 17.1917
39.9246 20.0106 19.0353
45.6481 28.0654 26.3246
60.183 35.1106 30.6308
48.3585 28.467 29.5293
45.6719 25.3672 24.9194
44.889 25.1814 23.1564
42.6749 29.8545 26.777
47.3209 28.885 27.0253
47.2466 27.857 28.773
48.2472 24.147 22.6993
42.3121 27.517 27.5587
48.7341 25.2762 22.3377
48.7711 27.9889 26.118
54.4899 31.2129 31.2203
48.0304 27.4422 25.8584
41.8562 29.9633 30.8392
55.0704 29.5294 26.7214
40.9548 24.2053 26.7211
48.6738 33.2717 31.534
47.8571 29.3614 29.5362
41.9204 23.1285 20.4123
42.2891 23.3991 24.1468
50.1405 31.872 30.4996
46.7662 27.3932 28.9004
50.2133 29.5802 29.6503
37.1751 22.7303 23.5958
47.6475 25.84 26.7244
46.3219 26.3652 27.1782
57.5282 35.5351 37.7426
50.9815 28.2761 28.238
39.6264 28.9908 28.8094
40.6519 32.1736 33.5811
39.0453 20.7153 22.8963
46.282 22.0612 23.6851
56.9 30.223 31.1258
47.0016 29.9103 31.5631
41.3571 24.4906 25.0084
36.8939 24.0855 25.7843
42 28.6869 32.7149
54.1738 27.9399 28.9293
41.4875 27.9948 28.3205
39.944 23.8773 24.7065
38.0298 24.0515 27.9974
40.2231 20.8497 20.8305
41.9149 24.1225 28.4027
37.3204 27.2484 28.6358
41.0396 31.5321 35.6153
47.2986 27.8084 30.0073
40.0133 32.7332 36.7124
47.7976 26.8188 27.9248
40.6634 32.4132 37.4841
46.9808 29.6737 32.6156
47.8704 30.6205 31.4896
44.9422 30.5322 34.5147
36.2867 23.7292 29.6609
36.099 24.556 25.6
34.636 26.4128 33.0461
37.0106 25.6907 29.2566
40.1324 23.8775 27.9251
52.823 28.9462 33.6911
40.0008 29.4179 32.0415
33.4615 24.4479 26.4721
35.4916 20.1094 22.1827
40.2359 28.2402 35.2363
41.4942 21.7089 25.997
44.8685 30.3985 32.3087
34.2365 24.3434 29.1315
39.688 23.2446 32.1846
41.3624 33.1763 38.5377
52.5014 30.6788 34.7674
42.2575 23.4981 27.3993
41.7502 21.431 27.465
41.7713 24.3197 29.926
43.6746 27.609 31.147
34.6635 17.4618 23.4303
35.5811 19.8145 25.5525
38.1859 28.6709 29.9259
41.2757 27.4782 33.5159
34.4578 22.2964 26.7522
36.0292 25.0631 31.342
38.2342 32.4668 39.4345
38.3081 21.9652 26.5398
37.9694 24.4801 30.4978
37.968 28.0291 38.2732
41.2842 27.2474 31.4026
36.5129 24.876 32.3795
37.2152 23.86 30.0383
34.5121 22.1895 28.2398
37.534 21.3895 25.9461
35.0196 19.9608 27.9888
39.0594 26.1972 30.5196
37.6374 29.565 35.3134
33.449 21.9653 29.8404
34.2945 22.32 25.91
33.6911 21.6343 28.2285
35.4547 23.1822 29.6242
34.9931 20.9036 29.6482
32.03 22.6133 31.011
29.017 22.2258 28.8387
36.8455 20.7538 24.4131
30.1927 20.6931 28.9222
34.9062 22.284 29.4193
30.4972 21.6153 27.2418
33.4916 21.6407 32.7813
31.6446 22.7115 28.1655
29.0435 19.9528 25.1715
29.8509 21.0484 31.727
39.6647 28.4371 37.7854
31.1023 23.2388 30.7405
33.7941 23.5179 30.9068
33.0027 25.2328 31.4727
31.9179 26.3998 34.2272
33.1079 24.4856 37.7684
37.4346 23.583 29.2491
35.599 30.3587 42.9837
37.0197 23.7635 35.6474
40.5209 26.523 32.5919
28.6687 24.5828 35.6112
35.7325 25.8373 36.3708
35.362 22.3154 32.3776
40.6826 24.9402 34.1063
39.8809 24.4831 31.5077
30.542 23.1984 31.1633
28.1616 20.4924 29.5496
31.0499 21.1716 34.1165
41.1399 29.5853 38.7852
29.8804 21.4127 29.7865
34.8636 26.3314 37.9492
36.6423 27.3475 36.8517
29.3733 20.5699 31.5753
32.0353 23.8946 33.665
35.6324 25.9679 33.9065
31.829 22.4496 34.0564
33.9078 26.4752 37.1917
34.6726 18.6007 27.7643
28.763 25.923 35.6984
30.6236 23.9184 35.6283
28.973 22.8642 35.0499
41.0997 27.3532 37.8294
27.6716 21.4562 32.4998
28.7104 21.9709 31.8926
27.5188 19.1708 29.4796
30.5457 25.4149 41.3864
29.4138 21.3341 24.9616
31.9104 21.2801 33.8293
30.8431 22.4882 34.5219
29.0244 20.892 29.0252
29.6423 20.2225 32.6367
32.6391 25.5668 35.6989
26.8094 21.0539 36.7398
32.4677 26.6872 38.7959
32.6743 20.5639 31.7458
35.9761 25.5266 38.4675
25.8953 17.2543 24.6807
28.3389 18.4068 29.9097
28.4001 22.7132 34.7912
29.3886 19.8754 32.3285
32.592 18.5143 30.1241
29.9728 20.8603 31.5411
28.2443 19.1738 32.7027
26.3716 21.9117 29.3048
27.5773 26.039 41.5946
25.0558 19.2183 33.5462
28.6082 18.7459 27.9126
27.9279 21.8528 34.1657
27.3885 20.9748 33.2985
25.8828 19.4738 30.8533
27.3057 19.8835 30.6053
22.6143 15.9163 30.181
31.9845 22.1349 33.0387
27.4661 18.8562 28.0866
22.7179 19.7275 28.2568
26.1663 25.3095 42.9773
28.2396 15.87 23.3596
24.0398 19.4458 36.0186
26.5768 23.4371 39.7314
37.9826 26.5876 43.207
27.5654 21.2047 34.6586
28.3134 21.8118 33.1005
25.0685 18.6712 29.1581
26.1598 20.9177 38.9655
26.9569 19.5748 30.8003
27.9521 21.2087 35.4885
27.9349 16.3263 26.5777
24.8696 18.9958 30.0341
28.1643 27.4198 45.9637
26.3979 19.6194 32.4823
28.8935 24.4269 42.1293
32.1984 18.0773 28.933
24.6211 21.1112 37.1477
24.5074 18.9505 32.2817
24.0387 17.6387 29.3133
23.5993 18.4238 32.3786
26.0234 20.6688 35.0101
24.478 20.8276 34.1286
25.1984 17.1583 29.9743
23.5635 20.1631 34.3912
23.994 17.1876 33.2621
27.0378 21.4067 35.9857
25.767 20.5739 31.7139
23.643 19.3143 33.217
27.4156 22.2934 39.9611
23.4785 15.1004 28.8958
23.9248 17.0768 29.0317
23.7568 18.7248 35.264
27.7142 23.0673 38.4003
30.0599 26.6268 44.0523
29.4062 20.6444 37.5347
24.6501 22.4978 38.2302
20.498 14.0159 25.4949
24.9639 21.1054 35.3969
24.3677 16.6157 25.9085
23.1361 18.0883 35.4614
22.765 20.5855 40.4993
23.1943 19.7272 34.253
23.2631 16.4655 29.988
23.573 19.1043 34.8604
24.483 21.9341 39.1693
23.4026 16.4662 33.7615
22.1311 17.5266 27.0138
21.9955 19.5127 36.652
26.6945 19.9505 35.3794
19.2771 16.2174 31.0671
24.2025 18.5533 31.8594
17.0898 13.5889 29.8292
22.5239 17.0978 27.6121
29.5945 20.847 38.6446
20.7226 15.9956 30.6302
19.3691 19.112 33.3057
19.5076 15.5674 31.515
25.2923 19.8637 35.9816
21.6404 18.1339 32.3289
20.7721 18.2629 33.8763
21.7101 18.9092 32.9664
17.8135 15.7479 32.32
21.2037 16.4834 34.4275
22.4313 19.1864 33.5738
19.1021 16.594 33.1141
22.2815 19.923 40.463
23.8959 18.3324 31.3802
20.7665 20.7568 34.7877
20.8242 21.2801 44.4896
26.2664 22.7557 38.7532
18.4925 14.2278 31.0931
19.8596 23.4401 43.4195
20.5713 18.3739 36.483
21.5013 13.8259 27.6942
18.4722 16.6089 34.545
21.2892 17.4269 32.0965
24.3064 18.6554 34.6314
22.1746 18.0741 37.3422
19.4478 15.3717 34.7191
24.3703 21.2581 43.024
18.5863 19.0141 32.1608
21.9929 22.7425 40.3748
20.1424 13.6442 29.2484
18.8516 10.3353 24.2126
20.751 18.1615 33.1325
19.3057 14.5142 33.1119
18.6921 12.2578 26.3028
21.9778 19.5852 35.4097
19.8733 15.4682 26.5242
16.0369 16.9166 35.4581
19.4882 12.5537 27.0814
23.0645 20.5478 38.1433
18.6609 16.0594 37.9529
20.4475 19.004 35.9362
21.5162 19.4753 38.2703
17.7736 20.0579 40.8852
22.3089 16.133 32.4171
17.4604 12.1341 24.8433
18.8655 17.4155 36.2694
21.2331 17.1897 31.8089
14.5338 12.8088 28.971
19.483 15.2134 26.5348
17.6757 12.079 24.3425
17.5125 14.9359 32.7821
18.6063 16.277 32.8823
15.9527 14.7085 28.734
17.8937 14.6838 29.5556
16.9047 18.4123 43.2998
20.3477 18.5872 34.3743
18.8957 15.1357 31.785
16.8102 14.9821 32.0775
15.1429 13.0105 29.6805
18.7336 18.7293 42.6839
17.9334 13.9012 34.1392
20.8859 16.6469 31.4717
17.1352 15.7342 35.2562
19.4896 21.8131 49.3125
20.8569 18.9676 38.613
16.5436 16.137 35.1878
17.5657 18.5571 39.0862
19.4881 14.5387 28.1703
21.6016 17.5423 42.7823
23.0764 23.5377 43.8884
15.3557 17.5004 41.1839
17.4964 12.3403 25.5895
16.2379 13.8997 30.3348
22.6373 19.7357 40.8057
17.1851 16.2057 42.2865
20.3557 20.2451 41.0786
19.6924 16.1189 39.2009
19.8364 18.1495 38.7627
19.4746 18.4689 41.2242
19.3595 17.9668 35.7957
15.9358 14.1832 33.9667
18.7587 15.3805 39.5518
20.0533 20.4824 42.7006
17.2279 15.1757 30.2989
15.0607 15.5045 36.7914
18.7129 18.2245 39.6288
23.8726 20.7765 40.2373
15.2982 18.0074 43.9845
16.3293 13.9377 35.6771
17.6328 17.9527 34.5314
16.0822 19.9683 44.3764
13.9888 13.1412 33.898
20.0821 14.6219 29.4645
16.8213 15.3311 35.0393
16.4552 20.3248 43.6318
18.0024 18.4037 39.2251
14.6233 18.8458 42.5992
16.9391 18.6553 39.6942
18.5417 13.1525 33.3301
15.8788 13.8505 32.029
13.2286 12.5413 26.9992
14.1827 16.0467 40.2449
14.7515 12.6335 28.5179
17.7357 19.0019 42.4408
18.7727 15.1133 36.8195
16.9491 16.7578 37.163
15.4397 17.3331 43.5671
17.9188 18.4424 41.8539
13.8907 13.4551 28.5961
15.3704 18.6683 39.7948
15.0267 15.6628 36.2847
18.8339 16.5804 38.9588
16.1196 15.0203 38.2786
15.6777 14.6322 31.2697
15.0591 12.5389 28.4116
14.0516 11.5391 31.9913
16.7891 14.8829 30.7081
14.7529 12.7391 32.3203
12.5543 16.0219 32.0753
13.8885 15.7699 39.575
15.9969 14.9971 43.0067
16.863 18.4935 42.6162
15.7587 14.9477 38.7643
18.76 16.3328 31.8723
18.647 17.0623 43.452
17.0141 15.9155 35.4578
14.1274 17.2145 41.0142
19.5053 18.6055 47.0413
14.3189 16.9822 38.787
15.8018 15.8631 34.6046
16.4184 14.3999 38.1655
15.7503 14.2768 30.818
17.6471 15.0171 33.9407
12.2052 11.8675 32.3871
15.0592 15.0866 34.9498
15.903 16.5342 38.9638
16.9737 16.2403 40.8338
18.6699 19.253 40.3537
13.712 12.6305 36.3261
15.0443 18.6219 40.1133
13.0051 12.5651 38.2993
17.4057 15.946 35.8842
16.5485 16.7464 37.7813
12.7142 12.2755 28.5023
13.3993 11.8082 27.7652
14.2908 13.3762 38.0016
13.273 14.0058 37.0834
15.7142 15.2073 32.5033
