# pn-170911/CsIIF-72-AMC2-1280-1959.psd
# Power spectrum* (dif=0,1,2) (really just |FT|^2)
# NOTE: only the first half! (symmetric)
# weeks: 1280-1959
# 163 clock-days, 9 excluded
# PSD: 1441
12673.2 0.333337 0.0247545
426337 9.5684 0.0296764
1.18628e+06 22.1007 0.0340614
481046 16.7442 0.033195
327440 21.3507 0.0367674
168246 15.9214 0.0338869
106283 15.1505 0.033887
77643.4 14.8817 0.0343894
63269.8 15.0564 0.0373935
45898.8 15.414 0.0346925
40709.8 17.657 0.0395698
33645.8 15.4638 0.0460276
24963.3 14.9056 0.04592
26908.3 17.2766 0.0516778
22870.6 17.26 0.042503
20867.2 17.8012 0.0483028
15979.2 16.3608 0.0472501
15096.7 16.0256 0.0499869
12350.2 16.3383 0.0501688
11605.3 15.6453 0.0553919
8794.13 15.2494 0.0639029
7896.52 14.8518 0.0654492
8714.19 17.0733 0.0721192
7207.27 15.0041 0.0734499
7162.51 15.7994 0.0746535
7034.81 17.1919 0.0834336
6793.22 17.4503 0.0888628
6093.18 15.9256 0.0872982
5388.59 17.3364 0.0997848
4436.17 13.8386 0.0805107
4631.11 15.7127 0.0964361
4312.12 16.9373 0.104128
4263.07 16.776 0.11862
3942.77 16.6712 0.124735
3404.15 16.1927 0.116868
3319.32 16.0974 0.120424
3320.82 17.0848 0.145411
2938.33 14.6103 0.125189
3070 16.9174 0.153658
2744.44 16.9656 0.152686
2686.9 16.7308 0.155792
2375.72 16.6742 0.157274
2411.03 16.1364 0.164157
1892.09 13.6651 0.149103
2264.39 16.9763 0.192413
2093.17 16.5557 0.188315
2240.06 20.3077 0.231089
1849.69 16.4111 0.2133
2009.25 17.5194 0.211511
1946.12 17.0067 0.22305
1967.08 20.3656 0.280207
1681.8 16.9425 0.229238
1673.72 16.5744 0.240567
1535.72 17.3532 0.26211
1416.91 15.7642 0.261192
1295.93 13.8919 0.233543
1496.06 18.4378 0.304425
1095.99 14.6371 0.239335
1171.68 13.2446 0.244087
1218.26 16.377 0.294504
1294.81 19.1451 0.362992
1169.7 15.918 0.323639
1312.77 19.5109 0.388968
1076.6 16.9546 0.347913
967.815 16.1382 0.339152
1078.63 18.3123 0.385098
801.859 14.4043 0.328265
843.185 14.7823 0.355592
954.428 17.1133 0.401673
797.774 14.9816 0.373615
990.33 19.1005 0.469625
846.896 16.2284 0.40776
776.79 14.6803 0.394128
747.399 15.2614 0.412453
791.429 16.6093 0.467823
701.856 14.634 0.408999
723.697 16.5587 0.477523
656.545 15.476 0.442182
543.536 12.6816 0.403141
715.79 18.1106 0.574796
699.607 17.0215 0.53499
688.498 18.7127 0.594892
669.2 16.9621 0.556801
584.483 17.0448 0.567812
632.426 16.1651 0.575418
540.622 15.9467 0.570944
505.794 14.2033 0.525606
553.433 15.3392 0.579144
626.166 17.7153 0.681971
517.548 15.6788 0.622424
505.452 15.4284 0.643389
549.488 17.7189 0.741108
458.807 14.414 0.614449
489.681 17.1495 0.754749
489.317 16.8862 0.692248
462.69 15.1644 0.68614
440.037 16.7556 0.755462
501.297 18.5038 0.850852
436.984 16.118 0.766627
432.883 16.7528 0.788057
457.757 17.3304 0.852807
401.294 16.5462 0.817828
458.681 17.5389 0.857195
408.514 17.5275 0.923029
374.367 16.1706 0.851875
407.386 15.8583 0.835007
395.317 16.3457 0.860926
374.353 16.3332 0.899858
381.72 16.1651 0.947853
407.573 18.9429 1.12149
366.178 16.3397 0.960004
363.17 15.9025 0.961322
326.85 16.5483 1.01708
340.497 15.8611 0.961705
330.483 15.9137 1.00025
307.129 17.1051 1.08641
348.049 16.8205 1.07852
304.304 16.1054 1.08084
300.494 17.0979 1.18235
271.588 14.7987 1.00068
255.58 14.8949 1.01488
283.155 15.3326 1.07837
286.898 17.3042 1.22614
305.457 17.5584 1.24136
302.069 17.2157 1.27861
284.687 17.2383 1.32107
245.034 14.5704 1.11842
276.717 18.8235 1.45236
256.454 17.769 1.42021
229.683 14.3647 1.15052
226.186 14.9848 1.23105
323.482 19.1885 1.56955
292.892 19.4363 1.58762
247.74 17.7703 1.53017
222.262 16.0881 1.48845
223.39 16.163 1.36023
264.375 19.8603 1.81652
266.751 18.8118 1.68475
226.386 16.1287 1.39564
221.742 17.5087 1.58232
225.238 16.4234 1.53528
227.938 16.5548 1.58376
218.513 17.6702 1.66674
173.335 13.0892 1.32092
231.39 18.9215 1.87488
198.014 16.7693 1.71198
197.691 16.1202 1.60245
197.71 16.9424 1.7785
203.836 19.2091 2.00089
208.966 17.527 1.86087
182.407 17.2325 1.8078
171.303 14.5342 1.5799
199.582 17.3563 1.90344
175.391 15.3717 1.74188
192.647 18.0937 2.01232
178.732 15.7525 1.82066
194.879 18.1583 2.08465
162.782 15.3647 1.71341
155.327 15.0899 1.75251
159.656 15.7973 1.87494
162.468 16.4254 1.93863
163.552 17.7139 2.14973
168.086 16.3233 1.95948
137.038 15.1944 1.93939
172.87 17.6139 2.22834
158.311 16.2452 2.1054
154.6 17.8798 2.30027
151.053 16.3244 2.07792
163.522 16.1467 2.1859
146.448 14.9206 1.99443
154.536 16.837 2.25756
155.666 18.2254 2.44209
154.231 18.3767 2.53973
164.219 18.1097 2.5221
139.086 15.7235 2.2433
137.771 15.8478 2.36559
137.606 16.3967 2.42117
134.438 15.4156 2.17795
137.737 18.6181 2.81049
128.8 16.3074 2.51401
112.362 14.5411 2.22496
126.951 16.3191 2.47241
118.896 15.6394 2.48125
129.89 16.8218 2.5664
128.314 16.9732 2.77742
137.992 16.6119 2.67428
127.672 16.1955 2.54988
135.761 17.3706 2.81967
128.348 16.2991 2.67412
111.208 16.2404 2.73045
111.991 16.0533 2.67489
128.311 17.8609 3.05695
120.631 16.643 2.80583
131.574 18.9294 3.32227
100.872 14.6648 2.63053
129.937 17.716 3.13642
108.362 16.4108 2.96511
120.719 17.4859 3.07852
110.273 16.4281 3.16404
110.077 17.3125 3.20544
110.913 17.3732 3.34565
95.201 15.4677 3.00581
107.185 15.5645 2.96674
100.375 16.4554 3.23302
98.1987 15.6928 3.00104
94.2711 15.7451 3.06869
104.55 16.5789 3.31466
97.9063 15.5068 3.22094
104.863 16.6055 3.32278
95.1579 14.7865 2.88719
104.026 17.3798 3.72729
100.334 16.3291 3.35413
101.585 18.2752 3.82266
93.2152 15.8289 3.34744
87.1502 15.3307 3.32943
83.6321 14.1947 3.10098
108.594 18.5266 3.94545
88.319 16.3681 3.53085
79.9504 14.8084 3.25331
103.54 18.9868 4.28823
103.318 19.8658 4.48096
82.8441 15.4272 3.54293
96.254 18.2933 4.12507
77.4946 14.4924 3.52577
87.2629 16.2925 3.85053
83.79 15.328 3.57613
90.9933 17.6509 4.21712
96.2646 17.5336 4.20516
84.814 16.2188 4.08925
80.4869 16.9993 4.15355
73.3687 15.0945 3.67472
84.8376 16.5604 4.09702
89.5252 18.3864 4.60545
78.3419 16.1145 3.9999
71.6369 15.6485 4.02098
96.5544 18.8567 4.76471
72.8754 17.4085 4.4798
70.4883 14.5333 3.81175
62.2933 14.8741 4.06558
70.9128 15.8974 4.36327
82.1174 17.4088 4.54545
72.6051 16.0714 4.2833
75.3723 15.8624 4.3854
75.945 16.8759 4.581
70.9818 16.2861 4.53559
73.7121 16.2527 4.55868
82.4057 16.3689 4.61367
72.3777 16.5098 4.75366
61.0213 12.3641 3.43059
70.5613 16.5937 4.88684
70.5641 16.4287 4.74331
65.2352 15.2283 4.46301
63.2932 15.1221 4.5312
66.3435 16.5197 4.92361
72.5357 17.927 5.34488
68.2556 15.8651 4.69292
70.8482 16.2837 4.92778
63.9207 16.1958 5.1622
65.4445 16.874 5.25194
69.3495 18.1692 5.63127
70.2213 17.526 5.35196
57.9265 14.3885 4.70998
68.2781 17.0938 5.48684
71.5038 18.3422 5.8804
63.2496 18.0614 5.76586
70.4293 17.8108 5.6483
62.81 15.9785 5.2064
54.879 15.4284 5.11348
56.7333 15.8144 5.30486
64.5297 16.9041 5.64368
69.9916 18.6045 6.01121
53.3743 16.4712 5.73877
62.1045 17.3845 5.79467
60.8813 17.5497 6.20399
61.6431 16.5091 5.65468
63.6105 17.5956 5.95344
58.535 16.0527 5.67513
52.3635 16.7263 6.23846
50.9437 16.0368 5.77166
62.4728 18.1341 6.53338
59.8204 17.2607 6.11934
60.8176 18.0987 6.57304
55.39 16.4387 6.06564
55.7981 16.8533 6.01919
50.5195 15.9345 5.96602
54.2898 16.5383 6.29009
56.5795 17.2258 6.50049
51.7413 16.2893 6.16161
63.4483 19.372 7.37035
55.2122 15.9377 5.94885
54.0703 16.7268 6.50905
48.3063 14.1046 5.58565
57.2415 17.2548 6.58039
60.0263 18.4962 7.38227
59.0269 17.9181 7.15197
52.886 16.9612 6.82361
47.9184 16.431 6.77421
56.8422 18.4153 7.30335
51.3337 17.5982 7.46049
52.7092 16.9966 6.90057
49.2172 16.4264 6.77781
47.2716 16.525 6.65631
41.0869 15.9052 6.69399
49.8454 17.495 7.32228
44.8186 15.184 6.54092
46.1226 15.3835 6.18448
49.2393 16.3126 7.00308
43.5886 16.0127 7.25052
49.1277 17.6779 7.56184
47.4826 17.2403 7.65214
45.6246 15.6357 6.95429
42.0459 15.7157 7.23092
45.4664 15.3846 6.77229
47.0294 15.1954 6.75933
46.2869 17.5738 7.87149
41.8658 15.5367 7.15408
46.6616 17.4059 8.06511
46.2797 17.2581 7.89878
41.9817 16.0296 7.24499
45.6756 16.7519 7.78133
42.9744 15.9183 7.81843
43.0972 16.4476 7.68631
41.9828 17.8552 8.47086
46.0713 17.3499 8.23045
41.8771 15.4543 7.33503
45.4088 18.4993 8.75282
39.2574 15.0482 7.46738
39.1216 14.7374 7.3298
46.8081 18.4689 9.07997
39.8751 15.6706 7.48877
44.4977 18.0574 9.16459
43.0882 17.7445 8.80599
39.2391 14.0919 6.75238
44.1554 17.0433 8.7154
36.7006 16.4066 8.29051
37.3348 14.8001 7.79156
43.1127 17.3631 8.71901
37.4432 15.8654 8.26996
39.1708 17.1514 9.07252
39.1989 17.6688 8.99487
38.206 14.4034 7.67477
37.8186 15.0469 7.93845
41.1432 17.0177 9.09433
37.441 16.4789 8.44145
36.5025 16.5576 9.44229
44.2577 17.6272 9.38165
37.9778 16.4812 9.10217
41.4264 18.3404 10.178
35.6966 15.4134 8.51946
38.3849 16.4808 9.01201
31.553 15.4458 8.71777
38.6164 19.2785 11.2207
35.9576 14.9325 7.96816
38.6359 17.1607 9.55548
35.2275 16.5278 9.54333
33.3769 15.9732 9.07353
38.9661 17.387 9.77075
32.388 15.9448 9.29415
34.054 17.2952 10.3832
43.3521 17.5785 10.2575
31.7472 14.1422 8.36927
37.7948 18.8158 10.2459
31.7699 15.0091 9.43219
38.6483 17.3916 10.1414
35.7713 15.8559 9.32408
30.9079 15.4455 9.37756
34.8056 16.6541 10.1853
34.8344 15.4826 9.62105
38.3756 16.4759 9.69224
37.8417 18.2797 10.9816
32.0559 15.2533 9.37259
29.0626 13.5955 8.74459
35.7207 18.1391 11.0208
28.3607 16.4118 10.0794
29.5931 15.601 10.2181
33.1965 16.4276 10.6237
31.2979 16.1396 10.097
27.7927 15.5305 9.97161
31.765 16.8684 10.6458
35.4297 20.017 12.675
29.249 15.7065 10.2621
30.4513 15.3976 9.98837
30.4097 15.3277 9.63993
32.8436 15.9669 10.3675
31.2121 16.0273 10.8987
32.0977 17.5682 10.9681
28.9689 16.3679 11.5916
30.7339 16.3568 11.0594
28.712 16.5702 11.2404
31.0937 15.4365 10.2312
30.8869 17.5614 11.9526
30.4661 16.0196 11.2174
28.4762 14.3081 9.89602
32.4505 18.136 12.5278
29.7852 17.1778 11.8672
29.8104 15.1745 10.5454
29.3156 15.6117 10.7214
27.6205 15.0328 10.8914
30.2608 16.0115 11.1708
33.0043 18.356 12.9833
28.4362 16.7114 12.073
28.4182 16.3972 11.5809
27.9715 15.2819 11.4061
27.4661 15.6567 11.6786
32.2928 18.594 13.3187
30.2632 18.6457 13.42
27.5241 16.5273 12.1542
27.2474 14.828 11.0655
25.7905 14.793 10.8448
27.4357 16.6597 12.3346
23.9987 15.1883 10.8852
23.9639 14.737 11.7074
31.4925 17.7817 13.0741
26.1763 15.8511 11.995
24.9765 16.6208 12.853
27.5046 15.4112 12.1149
24.5649 14.9409 11.8255
27.3163 16.3402 11.9208
26.8362 16.2159 12.9433
25.7333 17.1931 13.5576
26.6513 15.9712 12.8476
25.518 14.8571 11.3981
26.5967 15.8978 12.522
23.1881 14.7141 12.0214
27.1392 16.4909 13.1196
22.9853 13.9148 11.1436
27.8383 17.5648 14.426
34.1982 19.9295 15.3186
26.9148 16.8716 13.6855
26.6866 16.718 13.9752
27.7166 16.7832 13.5635
23.9946 16.6979 13.9574
22.1932 16.0084 13.3312
24.5416 14.7987 12.1455
21.305 13.8777 11.193
23.4534 15.1907 12.505
21.3343 13.4908 11.4646
25.6461 16.4858 13.7729
23.327 17.4931 15.1152
27.5371 18.0957 15.5704
26.4383 17.7553 14.8109
24.1709 16.3335 14.4681
25.0432 17.7042 15.0843
23.766 16.2272 14.1167
23.9694 16.8488 14.9667
25.6607 15.8091 12.6062
22.8098 14.9806 14.3347
27.507 17.9653 15.9111
24.8685 15.5718 13.7299
25.6038 15.9136 13.4847
21.834 14.4299 13.4163
24.457 19.3381 17.4477
23.1962 14.7228 12.7191
23.3516 17.1188 15.0466
20.165 15.3383 14.1905
22.3285 15.8191 14.3454
21.5678 15.5895 14.1498
22.1078 15.3855 14.0439
24.7529 16.1369 14.9406
25.4768 17.6833 16.169
24.8292 19.1547 17.5075
21.6547 16.0979 15.2816
22.9954 17.9876 16.6283
27.3535 19.3808 16.9938
17.8428 12.7093 12.3857
22.6685 15.9253 14.7853
20.0932 15.1178 14.6143
22.2736 17.0143 15.887
23.5065 16.6995 16.4487
23.4482 15.5757 15.3149
19.4354 15.215 15.3006
22.8086 17.7427 16.4977
23.0047 16.1672 15.2064
21.9461 16.6276 16.023
21.7827 15.7979 16.4271
22.8865 14.8565 14.296
21.6575 16.2896 16.3995
22.1072 17.5588 17.0414
21.7321 16.8296 17.3269
22.6496 15.1872 14.7689
20.6677 15.6953 15.7554
19.1723 13.8545 13.4579
20.0135 15.8144 16.1141
19.5608 15.4642 16.0852
19.1251 16.1238 16.585
20.0338 15.2799 15.4674
19.3535 16.0088 16.8906
19.521 14.1867 13.992
18.7547 14.5671 15.0107
22.1761 18.6798 19.1577
19.3067 15.305 16.0501
19.6486 16.1245 17.3106
20.2202 15.8916 17.2308
20.0133 15.959 16.5467
20.1128 15.3243 15.1663
18.3425 13.7268 15.0586
20.1147 16.5027 17.9301
18.6285 16.5747 17.5751
17.2579 15.3936 16.4169
18.7758 17.1244 18.3538
19.7949 16.4072 16.8444
18.2577 16.9466 18.5451
17.8143 14.0075 16.1268
20.4545 16.979 17.7876
17.5007 15.6519 17.1631
17.8393 14.4932 16.5222
18.1464 14.8335 15.8629
19.9209 17.5633 19.7545
17.83 15.8705 16.9331
19.8502 14.5239 16.2638
18.9562 16.3582 18.2249
18.0349 16.3627 18.4193
17.8478 14.2544 16.5613
21.5527 18.0885 19.4691
17.5368 16.1711 18.4593
19.2686 17.4043 19.409
17.3376 16.5937 18.8255
15.8223 14.0101 16.9191
20.3706 18.1995 21.2926
17.3255 14.9824 17.6674
16.8162 15.7242 17.9621
19.877 18.4 20.8618
17.6435 16.211 19.5039
19.6119 17.0213 20.5448
18.1044 16.7672 19.2124
18.0886 16.2367 18.4291
16.2049 13.8287 16.1954
16.4806 15.8712 18.7032
18.5684 15.2636 17.7028
16.0581 14.7769 18.1022
18.1421 15.7448 18.2799
18.4462 17.8709 21.524
16.5412 14.8766 17.7021
15.5074 15.6389 19.6994
15.1433 13.8771 16.6184
16.9086 14.9466 17.6724
15.2303 14.7711 18.6007
16.2559 17.0868 22.2404
19.4298 16.4541 19.8498
16.9621 16.908 20.4138
16.7715 16.6632 19.7461
17.0564 15.41 19.0111
18.1971 20.0254 25.0806
17.749 15.4564 18.3542
15.8706 17.2233 22.0836
17.4875 17.4602 21.29
16.6573 15.5967 19.6862
17.9118 18.2612 22.459
17.2678 16.2751 20.8042
13.8942 13.1444 16.5405
15.164 14.9994 19.1481
14.8923 15.2996 19.8597
16.053 15.7809 21.0914
16.7614 15.583 18.1769
15.4689 16.8537 22.3117
16.2363 16.22 20.8624
17.8243 16.3781 21.8892
14.2732 16.2519 21.519
15.2057 17.4812 22.2934
17.15 17.0374 22.6979
17.4776 18.4168 24.9077
17.589 17.8122 21.9125
15.2649 15.9627 21.6508
16.2046 16.5732 22.24
12.998 12.6453 17.3372
16.2427 16.3115 21.3476
15.4381 15.0059 20.0098
14.3498 14.9939 19.8107
17.548 17.3234 23.1229
15.7595 16.6088 22.8615
14.0727 15.752 22.0308
16.0226 17.4372 23.2258
13.9079 15.3445 20.5568
13.6572 14.2641 19.5649
14.8431 16.6653 23.8786
16.7314 16.5663 21.2381
13.625 13.7134 19.0103
14.289 15.6296 21.3567
13.541 14.8673 21.2254
13.525 15.1293 22.0865
14.3568 15.4799 21.1642
15.0739 17.1748 23.4929
16.4141 18.7228 25.351
13.0879 14.0629 19.6204
13.0129 13.6268 20.2676
15.0078 16.5316 22.6106
12.983 15.0284 21.9513
14.9165 15.7992 23.7466
15.2401 15.0791 20.1972
13.9656 16.4306 22.4647
14.5766 15.9685 24.3462
13.502 14.5885 21.5614
12.9633 14.214 19.9656
13.5359 17.2247 24.852
14.8701 16.4746 24.2194
13.2846 14.9126 22.6248
15.5114 18.3612 27.3804
13.914 14.7735 22.6604
16.8337 17.8516 24.8479
13.6754 14.5433 21.6675
14.5555 16.7793 25.6512
14.9309 16.2753 23.5051
14.9367 15.9922 21.9526
12.8414 15.1263 23.7516
12.9524 15.19 24.8879
13.4881 14.5835 21.7121
14.4476 17.5931 25.0051
13.9354 16.3156 24.2214
12.8392 14.755 21.8661
13.2207 16.6873 26.4345
15.2669 17.2074 25.2703
11.8775 15.3007 24.2281
12.8035 15.0119 23.8667
13.8217 15.364 22.0449
11.0439 14.1818 22.6202
12.7344 15.0127 23.9106
13.6941 16.3958 24.482
12.7997 15.3001 23.994
13.8328 16.4587 23.5524
11.6156 15.1686 24.5443
13.6104 16.9777 28.8191
14.006 16.223 24.9391
10.9685 12.9931 22.8585
14.6413 17.487 28.0507
12.8922 15.8421 23.9667
12.4924 14.7981 22.2828
13.899 15.8601 23.9614
13.3745 15.5167 25.5347
12.6945 15.3566 25.5578
13.7806 16.3576 25.6471
13.6196 16.871 26.2263
13.0919 15.8702 26.2735
13.1981 16.4114 25.9608
13.0001 16.9462 28.8977
12.5686 15.7191 25.6774
14.3337 16.2301 25.5085
12.8993 15.1249 23.8354
12.0652 15.4452 25.9156
11.287 15.6547 26.4686
13.6173 14.9749 24.4119
11.4658 15.6976 26.0589
11.8428 15.3085 24.6898
12.8902 16.6716 27.8754
12.5678 15.6184 25.8521
12.2975 15.6465 26.0133
13.2555 15.9632 28.3657
13.1657 16.0365 24.0135
11.7932 15.9311 26.859
12.6396 15.1795 24.7614
11.2404 13.6106 23.2256
12.2063 17.6726 29.2101
12.5126 15.7515 28.971
13.8193 18.3695 29.7913
11.4765 16.1172 26.4688
13.3683 16.6018 29.6465
12.5513 16.5145 27.2853
10.6793 14.3055 25.0545
11.7684 16.1884 29.9472
12.2344 16.2709 27.6902
10.3367 14.9445 25.082
11.1729 13.653 23.9784
11.3247 16.7109 29.0431
12.2285 16.6317 28.374
12.4485 15.9258 27.5982
12.1152 16.7928 27.8101
10.1194 14.351 24.9917
10.7606 13.7769 25.6399
10.8755 16.2101 29.2484
11.3543 14.6978 26.0842
10.0021 14.6084 26.6542
12.0091 15.9166 29.0294
10.414 14.7129 23.6901
10.8026 14.9217 27.2732
12.0866 16.6653 30.7813
10.7672 16.629 30.6337
12.7901 17.9649 32.8411
11.6058 15.2339 27.2047
10.6913 14.487 24.8298
12.0763 17.1103 30.4061
11.5865 16.4786 30.415
10.2743 15.6285 28.1274
9.65143 14.2319 28.2719
11.2875 14.8981 27.6569
10.4082 15.1616 26.4503
10.795 17.0809 31.2592
10.8529 13.8294 25.1364
10.6605 15.291 28.5715
10.3443 15.9776 28.6248
10.308 14.0039 27.1294
10.6529 15.8169 29.7089
9.87722 14.755 27.5248
11.725 16.556 31.4965
10.5766 15.9502 31.6031
10.7165 14.663 28.6957
11.2261 15.4047 27.8963
10.9962 16.0345 31.1593
9.67309 14.2137 27.0659
10.2619 16.3746 32.4936
11.122 15.203 26.7855
10.4369 15.8633 30.9504
11.0772 16.4861 33.0536
12.501 17.6437 31.3919
9.9919 16.5727 33.227
10.9742 16.0469 31.125
10.0639 15.8504 28.7382
9.20308 14.7517 30.8281
10.6906 15.5219 30.1229
10.8734 17.0527 32.6827
9.60741 15.7592 31.6
11.4462 14.904 30.4107
11.4205 17.85 33.729
11.32 18.0745 36.7056
10.2898 15.5608 28.579
10.4737 16.7756 33.1254
10.1777 13.4529 28.0719
10.3222 16.621 32.5649
11.7987 17.7971 33.9363
10.6204 16.3445 30.8097
10.5604 15.4242 29.0691
9.80592 15.5961 31.6796
9.96463 15.8317 33.481
9.19011 14.5004 29.9409
9.58304 13.2716 25.6729
9.06095 14.0648 30.0338
9.90122 16.125 33.7909
10.6674 13.856 26.0715
9.6615 14.6872 28.816
9.49792 14.1609 30.4929
9.55498 14.552 32.2507
11.3918 17.9382 33.6949
9.44881 14.516 30.452
9.68073 14.9634 32.1398
10.3072 16.1469 30.1335
8.42952 13.0283 28.1467
10.0105 16.3491 34.1736
10.9604 15.6951 32.8724
9.74744 13.0418 26.6375
9.42705 14.4843 28.9138
9.71491 15.6483 32.6147
9.10892 14.2768 29.0304
8.70362 16.4581 36.0613
10.6717 15.2872 29.5919
9.04375 15.8617 36.2986
9.89048 14.7372 29.374
8.74088 15.7685 33.6251
9.54026 15.4167 34.3811
9.63364 16.9587 34.7955
9.23727 14.8529 32.457
10.6559 16.3178 33.8279
9.67994 16.373 31.0065
9.3337 14.1362 30.3519
8.21188 14.1376 30.9769
10.2562 18.1543 37.4123
9.18545 15.2195 34.1564
9.15941 14.0157 29.3241
9.3382 15.1877 31.4026
9.03458 14.4281 31.4946
9.50198 17.319 39.278
8.39568 14.0277 30.2112
9.93149 16.5612 34.5161
9.67863 15.8591 34.2775
9.07914 16.9044 38.9825
9.52008 15.7044 32.7594
9.12418 14.6314 30.2298
9.91679 15.4618 34.8101
9.11977 15.1149 34.6094
9.36182 16.3701 37.1128
10.0735 16.9403 37.1273
9.89855 15.6872 33.4623
8.92331 13.941 31.7489
8.35928 14.6799 32.8081
9.66576 14.6353 32.159
7.71792 12.7128 26.3594
7.64007 15.3414 36.2015
9.71597 15.4555 34.9854
8.74444 15.6976 33.5345
8.25037 14.9833 35.0247
8.86393 13.5489 29.4632
8.22973 15.9751 35.0769
8.19825 14.9662 36.2289
9.15642 17.043 39.7446
8.86025 15.1051 35.2766
9.50471 14.4579 32.1899
9.99621 18.2003 39.4505
10.237 14.4187 32.9566
7.92472 14.4927 32.7108
8.39124 14.3099 31.2614
8.36403 14.0956 30.9174
8.15143 14.4452 32.2119
7.92292 14.3281 31.9559
8.08675 14.701 33.021
8.28467 15.8687 36.7269
8.83113 15.472 36.9705
9.40886 16.7101 39.9346
9.88009 14.2906 32.4515
8.13802 14.2538 35.0363
9.25118 15.1533 32.5599
8.01091 15.0007 37.6329
8.75934 15.9451 34.3964
8.86507 15.3459 36.6959
8.31403 13.9103 33.7056
8.29804 15.6809 38.0038
8.20885 15.2184 32.9403
8.04592 14.541 33.3893
7.71315 14.3505 34.6307
8.72244 14.9581 38.2179
9.43659 17.0566 39.8161
8.14707 15.2424 38.7947
8.35513 14.9457 33.5013
8.54905 14.2672 33.1928
8.2657 14.2358 36.377
8.46093 15.0668 33.51
7.81963 13.3417 33.7114
8.16553 15.6257 35.5021
7.74218 13.6854 35.2153
8.0947 14.6421 34.6837
8.60911 14.7561 33.1037
7.78161 12.9336 32.9538
9.6427 16.2269 38.4919
8.556 15.9467 35.6597
7.7145 15.6509 38.9452
9.21574 16.8129 39.9586
8.21049 14.1242 34.3804
7.24875 13.8639 33.1579
7.42069 12.3902 31.2098
7.27543 13.5746 36.3629
8.59943 18.6437 43.137
7.19237 12.9959 32.7849
6.87565 12.7317 31.2201
6.75975 15.5886 38.8822
