# pn-170911/RbIIR-50-USNO-1280-1959.psd
# Power spectrum* (dif=0,1,2) (really just |FT|^2)
# NOTE: only the first half! (symmetric)
# weeks: 1280-1959
# 2 clock-days, 0 excluded
# PSD: 1441
401.038 0.114288 0.0279196
14219.7 0.245062 0.000913789
83651.8 1.79541 0.00152125
10905 0.320562 0.000835207
23094.2 1.96182 0.00191946
2938.19 0.263942 0.00107222
4580.38 0.399047 0.00120055
3071.93 0.593362 0.0015494
4115.94 0.990725 0.000945474
746.628 0.196049 0.001251
316.191 0.221138 0.00118465
393.133 0.129231 0.000936994
357.806 0.224277 0.000865403
885.752 0.882129 0.00311528
1239.63 1.00222 0.00319876
917.599 0.537553 0.000883467
20.1339 0.0846115 0.001713
313.149 0.618676 0.00231916
1020.81 1.61449 0.00427534
632.306 0.800492 0.00344183
614.046 1.22793 0.00264506
257.703 0.343206 0.0023379
256.453 0.241408 0.00123773
274.381 0.635614 0.00531569
144.924 0.429731 0.000611753
274.65 0.385228 0.00253752
340.268 0.809305 0.00403414
501.921 1.59714 0.00640089
635.152 2.36169 0.00287375
65.9589 0.191083 0.00106107
101.527 0.961576 0.00617149
246.92 0.784067 0.00380999
983.666 3.68122 0.0208763
280.523 1.89316 0.014224
125.14 1.04108 0.00483734
90.9748 0.680529 0.00737296
685.287 3.39977 0.0205762
330.515 1.69117 0.0152494
206.779 1.13173 0.00822283
190.893 1.14943 0.0107487
318.141 2.23181 0.0150315
617.378 4.96778 0.0403298
173.167 1.75518 0.0171815
362.431 3.37116 0.0324188
730.352 6.30205 0.0553195
435.004 4.1538 0.0432884
215.678 2.59907 0.0298746
343.831 2.55029 0.0329062
217.236 1.85363 0.0220456
671.25 7.24607 0.0951415
345.588 3.96805 0.0470824
262.41 3.75433 0.0733309
91.6199 1.22403 0.0201193
132.769 1.58456 0.0211134
247.644 3.99792 0.0435577
125.265 2.27907 0.0413269
250.094 4.47739 0.0568425
179.042 2.21915 0.0402606
800.755 13.1228 0.191428
145.557 1.87864 0.0286119
94.9121 2.31629 0.0447338
78.1017 0.625107 0.0182324
208.273 4.00911 0.0739362
365.848 6.98107 0.119851
282.193 5.00605 0.0924146
373.069 5.5514 0.113052
82.2717 1.17496 0.0336916
299.937 7.34812 0.161997
52.5759 1.71294 0.0268718
287.31 6.38078 0.150126
60.5797 1.12933 0.0522432
99.256 2.47326 0.045685
334.73 7.75262 0.150229
228.087 5.2178 0.142601
489.806 14.4824 0.377473
84.1451 2.48693 0.0817215
164.125 4.51731 0.1339
368.89 12.079 0.325592
319.14 9.07989 0.26572
107.488 3.971 0.150785
38.76 1.6552 0.0341505
159.088 5.21914 0.162624
292.381 7.20776 0.264693
29.247 0.931466 0.0304022
253.356 7.62463 0.238995
126.748 3.66129 0.113767
115.194 3.78614 0.11156
166.488 6.45942 0.206137
15.885 0.758518 0.0373176
196.828 6.01656 0.182833
106.415 4.77245 0.187172
197.439 9.35717 0.361596
209.971 8.12964 0.358254
111.534 2.78026 0.101748
216.856 9.19071 0.413313
217.323 8.74838 0.366953
166.604 8.86265 0.329612
145.604 8.16044 0.417838
213.386 7.28354 0.295344
197.733 7.99235 0.373471
268.089 11.5475 0.565881
23.9101 1.96002 0.0726955
87.1017 5.19396 0.278279
109.804 3.16315 0.156758
43.2015 1.72675 0.0945781
301.043 12.9985 0.680186
307.598 17.7361 1.01182
275.199 15.4606 0.863045
79.5051 6.77918 0.37997
454.277 25.6358 1.47708
127.081 8.36986 0.481041
301.31 17.6922 1.03685
340.653 18.3031 1.06902
196.459 11.7206 0.716554
77.6921 5.59298 0.353675
133.169 9.29295 0.692014
21.3476 1.54956 0.0965134
120.657 7.61475 0.507076
35.0595 2.31501 0.111482
164.464 13.5437 1.0004
330.764 25.9591 1.96071
133.378 8.65292 0.52273
135.41 9.70095 0.716425
168.97 9.88903 0.604739
262.995 16.8331 1.35493
82.7007 5.72752 0.500651
47.9993 4.31748 0.429698
211.587 16.8912 1.15825
119.058 10.5763 0.941317
97.8752 4.94204 0.377556
377.319 31.4713 2.44276
45.9016 3.26427 0.201083
199.343 15.524 1.25426
113.85 9.06547 0.646497
39.3009 2.38778 0.235317
123.109 12.5264 1.22591
126.85 9.06134 0.600194
195.514 17.8393 1.58315
254.523 21.8263 1.99869
45.6845 4.45588 0.427306
101.12 7.41989 0.68728
38.7913 3.08188 0.387828
71.2577 6.29136 0.554057
68.1512 5.70283 0.525869
157.321 17.1921 1.66054
105.111 7.15328 0.588325
136.665 16.5512 1.81519
133.842 12.7961 1.2683
61.8413 9.88481 1.12666
350.526 32.6349 3.08999
147.925 14.6342 1.76334
24.8879 2.15548 0.175035
67.2657 7.16443 0.655758
53.8825 7.97606 0.857552
112.177 11.8764 1.40438
84.9757 6.7218 0.471039
201.105 24.9174 3.0605
59.6448 4.91988 0.581101
22.6525 1.78016 0.203414
174.309 22.2143 2.48399
80.927 10.7295 1.44664
50.4993 6.46172 0.786752
61.5838 8.47379 0.8574
67.3749 8.7429 1.03989
75.0564 14.9145 2.14684
47.4742 4.02302 0.447718
52.7937 7.66216 1.12718
128.216 16.995 2.50686
54.2451 5.8354 0.602769
113.48 15.0311 2.0498
35.9321 5.91772 1.00996
236.447 29.5859 4.13394
22.9963 1.95097 0.246317
62.8478 8.61855 1.14615
34.5102 3.70184 0.612095
63.2342 10.3895 1.60257
38.9794 4.29316 0.698686
56.6776 7.90142 1.15498
19.1981 1.94037 0.341141
138.031 17.0942 2.38225
48.775 7.30265 1.08882
80.9197 12.5715 2.08148
101.201 14.7793 2.2551
78.2966 9.85882 1.33537
19.1143 3.17823 0.647129
10.4546 2.09115 0.363899
101.653 18.9573 2.83412
40.5679 5.42215 0.863849
103.499 20.5035 3.74262
181.402 28.3974 4.3884
19.0637 1.82806 0.291572
71.2351 10.7457 1.82357
63.5166 10.8276 2.01424
98.4677 16.0489 2.61643
150.766 26.7744 4.51534
25.6719 4.4764 1.07416
32.8619 7.01101 1.58154
29.9846 5.67456 0.816898
47.9175 9.02362 1.76858
109.339 20.6183 3.96549
15.1029 2.4264 0.603812
107.137 17.9725 2.95945
25.4353 5.11381 1.16049
42.8879 7.75137 1.5122
95.7963 16.4844 3.60086
58.5758 11.9137 2.19789
86.8303 20.9317 4.24259
20.8887 4.67241 1.17828
206.279 43.4858 9.07698
139.304 18.8669 3.07074
105.073 23.3863 5.27975
170.701 31.6671 6.12187
129.418 25.934 5.729
81.9214 16.4814 3.35801
36.8711 6.67767 1.29065
35.7127 8.23301 1.95353
34.841 3.48065 0.404262
135.667 31.003 7.18083
126.713 32.1405 8.28111
141.09 25.763 4.07725
210.844 48.9599 10.5583
58.0089 9.72198 2.23131
32.8389 6.68064 1.22827
77.9445 16.0772 3.9153
207.777 53.5942 13.3373
84.4738 16.5441 4.03011
240.121 63.8081 15.0305
43.6924 11.8996 3.43105
27.181 3.7953 0.558421
66.3873 16.3809 4.06726
96.2951 28.2867 6.8873
33.0462 9.77407 2.73877
92.1247 16.3685 3.13648
112.615 27.4446 7.37152
56.7649 15.2151 4.03234
103.908 23.1479 5.3924
65.4328 20.3163 6.17433
62.072 16.3628 4.11118
58.1849 16.1416 4.29964
21.0184 5.80325 1.77324
37.6984 12.2154 3.43358
27.2291 9.51989 3.18036
85.7492 25.7591 7.46677
99.7312 24.1358 5.40128
46.3709 20.1346 6.22315
34.5603 16.7634 6.44148
86.1123 18.0208 4.71504
57.6255 14.8301 4.55291
67.5933 14.1083 2.7858
66.7331 19.9739 6.42831
39.7856 13.8573 4.74561
17.0991 3.16399 1.30225
118.548 28.7412 6.98575
51.1029 11.9048 2.88511
104.383 29.5985 9.04916
118.396 35.0701 10.2778
59.697 19.5171 7.16542
98.6844 31.2569 9.98185
32.4738 8.96203 2.33032
5.20728 0.704528 0.23557
26.3941 6.89561 1.77314
21.357 9.5899 3.63672
55.0644 15.9346 4.81015
29.6874 7.62286 2.58968
47.6644 12.2911 3.16028
52.8098 16.2982 5.88022
125.047 35.868 10.5287
30.2264 11.0428 3.85201
14.7823 7.82366 2.85209
32.3056 10.5012 3.46612
61.6095 17.4302 5.04535
28.3044 10.8149 4.09925
4.92206 2.1747 1.17308
33.7022 8.14766 1.9979
76.0905 25.0603 7.40607
42.8487 16.2093 6.61119
42.616 14.8974 5.2475
58.6508 30.2764 15.7411
120.969 35.3074 9.79311
56.5261 23.3411 9.2146
38.5039 10.902 3.38828
30.7174 8.35257 1.90822
29.8353 10.928 2.98808
42.8746 13.1337 3.58575
81.2888 34.6749 12.3851
27.8303 8.99146 3.27504
29.445 15.573 6.28263
25.0624 7.34598 2.00941
115.163 51.2365 20.999
37.5941 21.6773 9.96696
23.626 5.30438 1.74312
42.6285 16.4409 7.34428
41.3039 11.8766 3.06447
45.2666 14.1264 4.55117
0.26605 0.482715 0.528722
72.4963 26.7344 10.028
85.8252 30.4142 12.3856
16.865 5.53789 1.70514
42.9472 16.2696 7.24499
41.0603 13.4824 4.17419
15.6764 7.03152 2.86383
64.5988 31.9734 15.9966
26.918 11.181 5.82891
93.4912 38.936 16.7444
122.221 44.3355 15.4575
25.117 14.6355 6.44868
23.1629 17.3489 10.1902
46.1875 10.1726 1.78564
59.5669 24.0135 11.0489
48.0202 15.5061 4.58382
83.4953 33.806 14.1582
34.9293 19.2272 10.0083
12.4845 5.76765 3.58935
19.68 7.01197 2.45041
47.6439 22.9397 10.0965
42.6526 25.9079 16.0003
50.8335 28.5008 16.735
57.0909 20.4101 7.73143
26.5212 9.27666 2.58647
22.42 13.4054 8.05225
45.8187 15.871 5.87305
41.0101 20.9591 10.0053
25.9122 15.9522 7.69443
8.53663 4.80518 3.5733
20.7133 7.60631 2.77263
40.703 21.9308 13.135
45.258 21.3392 10.5251
50.5784 20.7144 7.27784
25.8342 16.19 9.49968
77.0438 27.9462 10.1877
58.5022 34.5935 18.9343
10.0667 3.27879 1.07925
8.75113 6.76771 4.91827
54.1461 23.7435 11.6312
21.4869 11.3132 6.01097
52.2211 30.2156 17.4956
36.3363 12.6357 4.86814
31.2795 16.6737 9.549
115.026 57.279 25.3196
15.5022 8.51635 3.62865
12.2176 12.6165 9.65139
75.7368 34.0375 14.2915
82.4501 49.2605 27.1351
45.3349 25.7115 13.0277
25.0453 16.5176 9.7036
34.7657 18.6517 10.4084
6.58265 5.1929 4.15942
22.5172 11.1602 6.17229
18.5159 13.7608 8.4749
72.9572 46.9065 29.2874
70.206 23.8921 8.21229
113.699 66.8323 38.5208
90.6512 51.119 29.7673
39.4744 21.5484 11.2365
30.1632 19.6584 14.3103
19.9619 7.3643 1.91721
37.4442 23.7807 14.1162
63.1038 40.0474 24.1284
35.4793 22.3993 15.5142
7.82343 1.70494 1.81579
147.046 98.7729 60.6171
73.312 46.2312 32.1415
70.9317 29.8289 13.9806
92.218 55.8246 33.0689
51.0054 28.633 13.5977
12.6768 6.31781 3.44178
4.43446 2.71598 2.54168
66.8508 46.4733 31.1688
6.96979 5.22516 6.93945
17.939 6.38459 4.61304
30.3547 14.6348 8.2528
54.2835 24.3627 6.49506
48.9356 33.578 16.9939
10.2805 9.65749 5.97952
27.1098 22.3267 15.0943
16.3679 10.1382 7.14113
48.3452 27.6425 14.4743
34.8496 32.7535 25.2578
21.154 7.88552 4.78995
27.6218 15.9295 9.36597
64.4841 42.9009 28.099
18.6179 11.0963 5.44102
15.5413 13.6796 13.7354
71.7247 45.8506 23.3934
5.55162 9.71688 9.74458
22.9865 16.5366 12.6102
47.398 36.3497 31.1637
127.444 72.123 35.6414
21.7971 27.4347 27.3308
67.5016 39.6296 22.4007
9.79749 6.39124 6.67283
54.8384 41.0233 26.8554
29.4333 19.2503 12.7432
1.42941 4.24037 6.92179
24.5969 11.1312 6.58868
81.0395 68.0699 49.965
46.2962 26.5569 16.7185
27.0462 17.6992 11.5558
38.7267 32.0253 25.6832
77.9688 48.593 30.2152
34.737 25.8369 18.2817
6.96603 2.07166 1.00098
35.4996 26.7929 17.9273
8.11271 4.12262 3.25724
13.9221 9.02299 6.54792
4.04196 2.96528 2.97342
10.8224 10.5604 11.1457
63.3789 48.1358 33.7222
10.3841 8.88589 8.69346
30.3724 19.7232 10.674
7.99542 9.22966 9.09079
11.3522 13.0817 11.5698
6.69416 14.0834 22.21
42.3736 16.2008 4.07372
39.5103 28.0835 17.4175
12.711 6.75421 3.78227
23.5857 21.1325 17.5803
6.90611 3.14448 1.27714
18.2558 15.721 10.6002
14.0296 16.6004 18.362
52.0227 34.5732 20.1706
12.5586 10.3443 9.01117
24.3298 19.9595 14.7997
21.4025 16.5947 11.4209
67.2867 63.3484 50.1709
5.92106 0.952818 0.676568
22.5948 23.4904 19.308
2.15683 4.93316 7.36663
20.2221 18.8458 17.0629
12.2011 7.28288 6.25013
18.5562 18.8184 17.7408
9.15387 11.0908 16.134
27.6072 11.9638 6.79341
32.5392 23.5929 16.4915
20.07 20.4442 22.728
59.6873 36.4201 22.5065
51.5984 41.324 30.0074
28.4427 23.4714 20.2775
28.8657 29.7419 27.8635
38.005 25.6911 19.6116
42.2554 37.3998 30.4664
10.4721 8.96913 9.14563
22.9013 16.8844 10.8706
19.2738 25.3111 29.3909
32.5573 16.9037 7.36032
8.53641 8.13113 8.29835
3.47768 1.02024 0.606146
13.71 8.61393 4.18504
31.1233 35.8782 34.215
55.2455 57.7053 59.26
41.1172 24.8129 15.6921
27.6876 33.6174 37.8392
23.5414 9.80733 6.03141
59.04 45.2815 30.2601
6.63344 6.54955 5.47515
19.8387 23.237 21.9298
6.68472 10.9383 18.1298
32.1956 28.8599 22.9262
18.6818 17.7195 19.1224
19.5031 18.3418 17.0932
25.2911 21.6686 16.1093
10.9184 11.5223 14.8006
45.082 47.8644 43.2277
18.9748 12.2021 7.67852
3.86999 5.20904 5.5832
9.5352 18.6187 27.5856
36.2646 18.4832 6.9594
16.2525 18.5739 19.2999
18.6663 12.6165 6.59638
11.976 14.6245 16.1514
19.7452 16.8022 12.5119
26.3419 39.2992 46.4391
43.4974 41.3895 36.1429
9.17916 12.325 22.2346
31.2382 22.3532 19.0983
36.3961 30.9259 22.9664
6.94714 7.18061 7.63056
28.7689 34.889 42.0057
23.9984 17.2296 11.5093
22.5303 22.1388 18.0883
8.4544 8.1259 10.1424
22.2164 18.5544 12.0496
21.7021 33.1528 38.4091
18.886 20.6773 23.241
16.6157 19.2276 21.0757
2.45718 4.33462 9.00629
19.524 24.7345 30.7539
31.8451 32.1201 36.769
21.4023 17.068 18.8281
19.4699 11.523 6.58456
17.2439 16.9753 15.3186
0.339738 6.62593 20.5419
38.9023 24.5685 17.514
76.7114 73.7585 59.4691
22.1696 30.5791 34.2259
1.91484 6.866 15.3965
26.5291 28.8819 30.3281
0.682241 1.85987 8.11297
9.60027 17.5266 40.1147
79.0747 67.0625 46.6517
15.7362 17.7153 18.3981
19.7197 16.1647 10.9774
23.8619 27.8999 31.7407
34.5638 40.3227 42.5524
18.9793 22.4499 20.3058
4.04844 6.00842 8.60505
33.1405 38.2611 41.7028
22.088 23.5254 21.7364
16.3594 25.0077 31.8985
19.401 27.6822 35.369
24.8525 26.7361 27.6002
10.805 9.49707 7.80712
5.3796 8.85667 11.5866
7.71874 9.03308 13.5585
28.29 31.3671 33.2549
16.6782 16.958 15.7924
19.8386 22.936 26.1907
16.7439 27.2796 35.1202
7.82794 8.27539 12.7719
13.0734 20.4587 28.5491
10.6452 6.61294 7.37162
32.2523 39.9871 51.7179
31.8526 29.5456 23.8452
10.1073 14.4177 17.2475
11.0847 24.8792 43.1754
18.7802 12.6242 11.0107
22.1545 25.4703 28.717
5.06742 18.984 48.5795
41.4847 30.7479 17.7763
17.9513 23.0646 24.3066
7.34365 5.78348 6.82203
2.29078 2.9704 2.7921
6.21442 10.9456 15.318
4.25666 24.5508 64.3497
56.4702 40.2418 19.7199
9.55302 13.8328 17.2459
15.2503 17.2601 21.0742
22.0184 24.4132 25.8587
32.0365 48.8876 63.1678
17.46 25.4958 43.3895
8.70349 4.53137 12.5983
24.0663 20.5434 14.6287
5.12108 4.88354 3.7476
5.33462 11.6769 26.2499
18.1066 20.0382 25.9512
25.2488 14.1064 2.51209
23.3226 25.2273 15.863
21.3056 34.8165 46.6289
25.0153 35.748 41.4977
17.5809 34.7224 57.5909
15.2489 8.55326 8.06848
30.7429 46.1185 62.0077
45.3678 59.2398 70.3258
15.7718 16.4115 25.566
9.46345 7.18968 12.4338
14.1243 16.5841 24.9634
15.3372 13.7744 7.50163
18.042 21.3445 16.9688
19.052 48.5936 82.3814
38.7851 31.4823 24.8607
1.03071 1.68966 8.00771
27.5297 34.004 35.8573
3.58308 2.87078 6.25469
9.27278 7.40098 7.07388
17.7773 26.5434 43.6955
48.2677 60.8397 53.5417
5.66723 20.0464 36.8754
12.5828 20.0561 34.2318
11.2563 10.1313 10.5095
8.79071 17.3095 33.3239
19.1035 20.8233 22.3401
5.39448 3.88105 3.07279
18.6801 30.9142 37.3899
6.69398 9.48761 18.9194
13.2178 20.7461 37.5085
25.4674 25.2314 19.2842
3.10348 9.27661 22.2294
20.7896 28.5277 31.41
8.86913 9.05757 9.46242
2.59943 3.1087 3.52487
2.83301 4.97658 6.27595
23.5286 55.7139 99.3244
28.4877 13.8905 5.47213
18.9245 33.4343 50.4931
45.4865 66.4767 86.3256
23.2912 31.2763 46.0943
5.53378 4.20235 4.6743
9.44746 23.9232 50.8414
22.6708 20.1322 14.8705
22.6204 39.6106 59.5883
8.15217 13.0902 29.0243
5.4394 2.42674 0.754528
2.82926 10.964 27.8321
5.73446 1.61633 3.60817
11.1502 18.3079 27.5226
11.8074 9.88129 4.63425
5.33126 5.68767 5.86532
6.14215 8.91203 10.202
7.32853 9.90434 11.9272
3.4144 4.12721 6.8604
14.5153 34.1352 58.9261
18.0014 19.4801 28.5853
14.171 18.771 23.3676
2.63495 2.03035 2.21535
12.0642 19.6995 22.948
13.0369 29.0603 52.763
14.1413 11.9968 13.6158
6.32831 8.85139 11.7485
16.0271 29.3759 44.5513
3.62299 1.35541 2.42185
2.73179 4.37525 12.6726
10.1972 13.4197 15.0804
9.04376 23.6277 51.9961
29.0461 33.9208 35.57
1.45135 6.63992 23.9995
13.7771 16.0519 27.7041
22.64 28.6872 23.322
1.8324 3.42587 6.17552
21.348 49.4695 85.7579
24.1721 25.2075 23.5757
6.20506 18.3694 45.3387
7.49807 3.07277 5.64435
17.6783 35.2624 48.8723
4.63935 5.1684 12.5681
16.9552 22.8262 26.4249
8.05729 18.2393 33.5721
3.23281 4.00896 9.37632
8.02396 14.8157 33.5366
8.38288 9.28073 14.8199
6.89349 9.86334 23.3878
9.60911 8.14319 7.38038
6.67502 11.8183 11.9336
2.55152 1.63536 0.661803
7.34207 22.2493 44.3635
7.94597 7.96853 9.87425
9.50103 10.4594 5.95897
5.24093 14.1184 20.4585
7.66701 17.3994 29.9416
6.73466 7.01081 10.8909
10.0142 25.7681 43.7499
9.59571 15.9032 25.1991
3.2607 7.7418 20.8607
6.84886 16.3546 45.3655
14.3651 18.7908 38.4313
26.6294 34.2867 40.4325
5.36638 3.87555 6.21335
19.2625 30.5428 35.611
1.80558 8.35452 23.6439
6.00576 13.7977 38.2822
19.8781 25.8664 37.0316
30.0141 51.5243 65.8615
8.99413 22.8012 54.0629
6.4398 3.36271 10.6807
10.0251 14.9474 23.4913
13.68 24.5871 44.7955
19.3707 28.1294 38.646
9.58716 14.8839 22.0307
7.97372 27.8722 75.4114
34.863 45.5278 48.8484
8.74156 31.3403 94.3405
29.1837 31.1858 28.8689
21.5485 40.6552 50.7526
6.1562 7.58221 13.5163
20.0011 45.3672 71.2345
1.84457 3.81927 17.4148
9.64974 15.4564 21.5806
13.9651 30.2937 50.7894
5.76768 14.1486 34.4613
17.311 32.715 55.65
5.34352 7.13632 30.8405
17.231 24.0352 30.6472
4.29936 3.71666 14.4953
34.1117 100.201 215.197
40.7933 32.185 21.6501
10.2378 16.398 32.6618
26.2546 43.2825 48.8543
12.6852 32.2864 52.0979
4.30153 14.3841 40.2919
19.1791 42.6835 77.5025
2.88842 7.07211 41.5388
15.2536 15.3235 35.8113
27.3219 44.7796 36.6737
5.49504 14.9399 19.2465
10.5332 39.248 78.7895
10.145 17.8286 38.0046
4.83813 4.64987 6.90216
2.07392 7.56431 30.1086
23.6678 47.018 79.7938
15.2673 32.6741 65.3884
7.1683 11.9893 32.7222
7.71113 9.52193 24.3473
7.0483 8.94699 17.7364
11.1487 17.3428 30.1479
10.8715 18.3095 25.0948
5.07857 10.7761 24.3765
9.56692 18.5236 33.8325
5.88004 9.23011 14.7203
1.02364 8.80773 38.9394
7.61529 5.77662 5.37118
3.58552 5.70693 12.8887
10.636 22.3954 35.9889
6.09429 7.8504 6.88518
5.14423 16.9492 32.3804
2.1036 2.55903 8.44046
10.8412 33.2209 86.3821
17.7049 19.3599 14.962
5.17617 24.2984 65.7683
11.1455 12.9305 33.5436
13.7533 17.8529 16.5948
3.47296 11.9523 34.7862
9.2295 11.2486 23.0291
9.50645 18.9507 31.9949
10.6961 24.287 52.7239
16.5752 25.6193 32.1245
1.4367 0.924766 3.98781
5.09963 19.3111 54.573
13.391 12.3461 8.90404
9.98022 26.3301 49.3247
4.93331 10.0173 22.9432
6.63063 15.4425 38.478
13.2743 26.1112 42.6879
7.44975 14.6407 25.1662
3.59722 7.14545 14.2648
1.65398 10.7137 38.5619
7.49416 7.31955 12.7017
3.51426 5.48474 20.9476
17.2354 37.8226 65.8244
6.13032 7.06216 20.945
15.8345 29.6044 51.4856
5.2006 9.3945 21.6173
4.30395 3.63098 6.91635
3.77292 10.9283 65.2684
42.8721 83.2616 105.708
8.85157 18.2541 42.5245
16.5412 40.4072 64.4755
2.80003 11.6621 48.4497
16.0761 30.7073 55.7569
4.85504 7.80795 16.4343
9.31984 25.0117 56.0126
3.78896 6.75869 36.1194
13.7422 25.6368 38.8772
5.9794 11.9875 25.7379
3.1856 3.1924 8.86788
4.93267 8.03228 8.63411
0.788196 3.113 10.1713
7.99806 27.8645 82.0054
12.3046 9.0205 9.86723
11.4046 20.182 17.851
5.79549 28.1559 78.7992
9.03795 10.7868 17.1621
4.26145 10.2067 21.6219
2.38125 7.28544 32.9483
8.84036 13.2238 15.1742
3.06024 7.12401 11.3854
2.52817 9.9417 35.0403
5.43355 6.00484 13.5854
9.82807 22.4176 33.2523
8.85118 33.7785 96.4244
13.4241 16.3936 33.9416
10.4616 13.805 3.42238
7.04898 27.0008 51.0188
2.44102 5.86271 16.3666
1.44048 5.06715 32.0121
12.7885 29.2953 56.5434
12.9329 26.8746 41.3531
3.19804 11.1642 39.1348
9.3655 18.9118 48.4921
8.24636 19.2316 54.4567
6.96041 5.57308 5.62362
3.26786 8.52027 49.7351
22.264 48.9134 68.5824
4.87397 7.78861 25.9041
6.27073 8.36932 13.2445
6.24166 7.78913 3.74046
6.52335 17.628 22.872
4.10452 12.4654 21.1798
2.51427 9.72884 32.7782
13.0551 25.3934 36.3243
8.34371 32.2968 75.2353
6.72419 12.7054 40.0517
10.0638 24.67 51.7825
5.60261 14.7962 41.7375
5.32495 6.76538 10.1704
3.2556 9.54945 25.858
2.76171 8.15474 29.1754
5.64149 3.94658 1.54635
2.6589 6.37807 16.5314
5.34388 12.3418 15.21
1.72705 10.7937 32.5045
5.92053 14.7568 51.0043
13.2149 30.5116 63.3548
7.80013 11.2718 13.2708
1.46685 5.47546 29.7489
17.2824 53.9827 125.217
13.4413 25.3249 82.9283
16.3127 23.9042 24.8855
6.80232 18.9988 22.7094
2.80081 20.526 75.5195
12.5798 17.3719 25.2951
4.01119 11.0052 24.2081
3.82266 4.91387 7.20039
1.85743 2.69247 3.62435
1.70452 3.78338 3.26566
1.71542 6.69131 13.0925
2.89591 10.3707 33.8106
8.17782 23.8309 45.8739
4.13015 19.8334 73.4422
8.25004 10.419 25.8825
4.45714 7.48631 20.4311
5.29181 6.35153 11.1127
6.71911 18.5641 40.9078
7.57881 18.3538 35.4884
3.96769 10.2524 27.9461
4.57883 12.9761 36.6207
5.51997 11.4195 21.2595
0.864742 3.95625 28.6316
8.58598 17.2811 24.8797
1.14543 1.61056 5.88258
1.22659 2.89468 13.4705
5.1512 12.9422 36.8354
6.08509 15.523 41.6697
10.1838 20.9841 31.5791
4.02402 21.657 72.3916
