# pn-170911/RbIIA-38-RbIIR-1280-1959.psd
# Power spectrum* (dif=0,1,2) (really just |FT|^2)
# NOTE: only the first half! (symmetric)
# weeks: 1280-1959
# 1 clock-days, 17 excluded
# PSD: 1441
1494.97 0.315851 0.020485
331404 2.42336 0.0382557
1.61801e+06 28.1589 0.0289715
359740 13.1725 0.0278636
39155.8 2.92653 0.0247009
22205.5 3.33276 0.0239039
102306 15.2301 0.00958809
29431.6 5.53161 0.00993623
24926.1 6.56821 0.00826955
1664.45 0.748673 0.00679368
6253.2 2.46069 0.00242142
723.195 0.265592 0.0010044
2432.76 1.19829 0.000570801
12089.7 10.8503 0.00635672
845.857 1.49986 0.000156749
4246.41 3.23365 0.0170996
2222.17 2.11758 0.00934049
4854.48 4.71329 0.0325285
167.057 0.191905 0.0209883
196.188 0.303056 0.0276397
17.4164 0.224013 0.0271501
4561.27 7.58542 0.0454483
2629.18 5.61503 0.0180402
2051.56 3.80882 0.0795856
2291.18 5.1597 0.0433473
95.7456 0.608502 0.0354718
1308.77 4.18993 0.094447
269.889 0.856184 0.0174772
2012.98 7.07581 0.00092525
873.606 3.61286 0.0189886
648.183 2.69784 0.0133672
35.425 0.278431 0.0226977
2506.27 10.7489 0.0165126
562.702 2.25967 0.00397017
317.604 2.57918 0.0272708
1042.68 4.93464 0.0199436
1648.71 12.8986 0.079204
945.481 6.49628 0.0445183
1104.38 4.96052 0.0509549
850.151 4.46396 0.0417939
488.663 3.67887 0.0173569
745.095 8.77055 0.0262272
497.909 5.03012 0.0118666
208.506 0.706264 0.0406953
266.941 2.14083 0.0266265
184.407 3.19421 0.00220433
250.8 3.74865 0.040392
735.406 7.20984 0.187558
485.658 6.51819 0.111584
207.87 3.15522 0.00211027
7.87343 0.288772 0.0191284
145.921 1.73277 0.099587
110.394 1.62526 0.0618981
651.235 8.70481 0.0336794
836.162 12.1832 0.274684
87.9242 1.22156 0.0583031
369.903 4.41062 0.0541529
95.8345 2.01114 0.0392945
95.4391 1.72515 0.0204388
903.943 19.4021 0.34632
316.116 8.22313 0.148595
647.686 9.57058 0.166489
53.1329 1.20161 0.0213769
843.182 10.1568 0.23901
512.362 6.13054 0.189474
131.4 2.04323 0.0372831
392.353 5.11498 0.200852
47.6683 2.19312 0.0243007
13.9831 1.30605 0.00797907
90.934 4.10399 0.0173401
47.6688 0.37227 0.0528461
197.182 4.17624 0.174067
470.918 10.7441 0.460447
28.9417 0.830002 0.104329
251.996 7.59793 0.0607686
818.392 21.7273 0.768657
271.375 6.63367 0.159847
81.7046 2.60151 0.0674325
120.257 4.94119 0.275368
798.606 21.023 0.428443
131.943 5.99065 0.24135
75.9037 0.907786 0.0198151
229.641 9.57062 0.389822
81.7699 4.94417 0.180813
630.241 13.8993 0.437927
550.964 21.5298 0.772102
709.991 19.9954 0.65049
271.595 5.52143 0.256415
7.94447 0.658936 0.00673859
62.6537 0.576913 0.0635592
341.482 8.50043 0.529678
47.0573 3.32434 0.0334128
87.4527 1.74068 0.192355
423.398 21.2149 0.59952
48.6287 3.47942 0.0494453
280.411 10.1046 0.616856
528.356 27.214 1.03061
603.533 25.3447 1.16423
100.28 5.99729 0.142997
122.734 4.48204 0.25253
269.118 14.2948 0.463784
247.05 9.1695 0.43639
112.524 4.75687 0.357179
100.56 4.86234 0.141687
0.228706 0.638199 0.0660207
247.082 8.40795 0.410146
553.232 33.3698 2.0036
51.8427 1.38424 0.129561
35.3581 3.28049 0.276891
38.3742 0.450247 0.00948534
416.144 15.0738 0.838121
64.8314 1.57484 0.0944846
87.4387 6.4087 0.384426
566.407 21.5552 1.41046
268.968 10.0057 0.818345
287.173 12.3632 1.12528
365.186 24.3678 1.55427
13.7496 0.500747 0.110651
35.7621 4.73736 0.26065
19.6435 3.8228 0.146237
95.9871 3.58661 0.398344
450.507 27.5438 2.55554
609.739 39.7596 2.57565
40.8603 3.58117 0.241623
130.85 8.47145 0.544487
257.71 23.3522 1.91303
281.792 16.3315 1.2917
75.7197 4.96976 0.201019
72.1887 3.79571 0.438042
250.732 14.1807 0.844771
145.783 10.9017 0.608007
575.122 53.8341 4.31717
120.629 3.63259 0.240319
251.581 13.6906 1.26421
182.497 14.6483 1.33565
52.2149 5.57995 0.371735
510.216 31.8107 3.15645
37.6613 1.72922 0.309986
114.444 16.0662 1.22256
102.759 4.29504 0.543017
33.0596 7.50768 0.484042
31.5444 0.612967 0.106365
83.5776 6.35233 0.760348
64.5195 3.16481 0.510781
105.653 15.7736 1.51674
21.0492 1.034 0.148997
264.189 23.9255 2.5989
177.343 22.5363 2.68879
156.837 21.298 2.74492
239.202 25.0813 3.05625
121.213 18.7658 2.65111
41.8822 10.2598 1.74236
20.0486 0.441641 0.101949
64.5084 2.26684 0.217034
10.4299 0.619031 0.176131
285.044 25.0394 2.64203
83.7795 11.0324 1.63261
133.273 8.28845 0.962365
120.852 17.1011 1.53441
89.4696 19.3391 2.06812
4.0441 4.00827 0.441274
125.759 7.85344 1.09199
196.335 31.7858 3.84299
120.519 8.29637 1.10917
3.97744 0.691544 0.0705732
3.1379 1.5619 0.0881002
90.9693 7.66551 1.45358
9.65905 2.37887 0.263833
21.1862 5.5578 0.50091
23.2417 4.6215 0.712966
95.6604 14.7124 2.47653
128.306 28.6955 5.47169
142.938 9.14009 0.687371
40.792 3.09288 0.555962
86.4398 22.2697 4.17222
43.3784 3.21196 0.404951
28.4024 5.07033 1.11657
36.767 0.231774 0.00726029
37.7657 11.7091 2.5933
576.908 54.1669 6.48483
243.622 24.6568 3.72459
68.3391 5.91739 1.05472
67.9859 9.83423 1.66438
16.9778 5.02902 0.815497
31.5461 13.6874 2.08547
7.18458 6.43802 1.24514
48.3981 1.82482 0.288679
49.3294 9.42929 1.31929
92.1868 20.5408 3.62663
237.42 29.0109 5.09113
128.557 35.8071 7.18744
198.102 19.5166 2.94188
41.2407 10.9538 2.44407
39.0262 3.13774 0.324191
180.786 25.8073 4.90738
96.7113 24.5228 5.60532
164.655 31.0257 4.37191
135.856 41.662 8.52861
18.1124 5.35093 1.60802
20.0831 3.55504 1.02842
56.294 1.60339 0.0577031
237.531 27.6177 4.83518
12.7874 2.77628 0.406179
51.4224 3.58339 0.838353
34.3065 13.6204 2.58346
109.135 12.9873 2.82142
244.025 43.4337 8.97719
19.6842 9.33181 1.34408
2.35735 2.4041 0.395983
64.0666 5.80681 1.62315
5.13316 4.52575 0.697666
35.3383 2.95558 0.421459
37.6082 5.42176 1.16333
31.5947 13.4888 2.75952
96.8147 12.4384 2.59841
20.6525 10.0521 2.09023
212.97 38.7183 9.35267
7.06957 0.414546 0.559233
133.294 32.6351 5.51095
86.6482 33.436 8.09737
42.3259 27.4521 9.18227
366.78 52.2793 9.34272
43.3541 6.1487 1.83899
451.067 136.556 32.3532
76.9669 14.1232 3.80843
150.137 27.8363 6.20835
21.5253 10.1927 2.80371
112.229 24.8752 7.677
154.614 19.8844 2.61944
270.284 68.0719 16.5326
30.9588 2.95188 0.446324
24.7192 10.9639 3.11844
122.74 37.5977 7.61438
39.2463 11.7971 2.68125
50.7196 23.3185 6.23708
46.0157 19.4906 7.01828
91.3211 10.2937 2.07598
11.6235 6.01566 1.36884
100.639 15.2867 3.70235
44.1254 8.42852 2.33068
10.2285 6.76837 2.39095
341.485 88.321 21.2611
49.7167 8.52475 2.8011
30.9139 5.97386 2.22424
20.4325 11.6736 3.04435
52.6782 6.87356 1.95556
23.0049 14.1295 3.70017
42.3372 6.66817 1.59571
41.2076 3.13157 0.686501
35.5285 4.12253 1.40653
8.65101 1.30984 0.816922
40.1328 4.02883 0.709017
200.944 41.9823 13.9132
27.9356 13.3053 4.14965
14.2473 12.7055 3.63142
48.6687 5.36058 2.27555
10.9935 8.43841 2.3136
41.9373 5.68458 3.3797
432.41 157.553 49.1326
250.73 40.6324 8.19449
140.647 28.8778 8.58683
202.285 59.8954 23.0329
57.5399 20.2937 4.94427
54.7955 16.8664 4.65268
41.6358 18.2581 4.34333
30.0667 20.2195 6.3084
18.5911 11.5258 3.81464
41.0286 30.3105 12.5953
28.1382 1.55907 0.308899
193.646 92.7766 30.5243
6.11842 6.27994 3.71311
30.0566 8.27442 3.16973
46.1368 21.6487 9.31518
39.9394 4.79492 3.4168
89.2542 16.8907 2.92378
119.345 50.3411 14.2269
11.8413 13.4829 4.42691
46.9929 40.0219 15.1723
18.8304 4.01862 2.23754
97.7871 20.8346 7.47764
3.8626 5.44821 1.11497
0.195209 1.28086 0.230361
11.81 7.23933 1.86074
105.636 38.3144 15.8867
19.0651 4.82369 2.42423
43.4458 18.2411 3.84157
31.6535 16.3702 5.68689
19.5326 12.4284 4.97551
72.352 19.9421 4.94362
62.3263 17.0763 6.70254
118.154 51.0349 19.623
11.4214 1.50263 0.738906
22.4614 5.14993 3.81483
28.4357 8.22832 1.2918
103.534 39.6297 14.1539
80.6182 49.0433 20.319
6.0623 0.720304 0.1635
35.8284 16.8205 6.69274
58.3412 32.2044 9.11142
22.295 14.067 4.55153
85.5433 42.5151 18.6291
12.3382 11.5718 9.51911
131.304 52.1033 18.7815
52.9408 19.3048 7.29758
10.3215 12.9311 4.53692
0.0941884 4.03894 1.86062
0.165735 4.32507 3.02844
102.355 46.5376 18.8826
10.956 2.23213 0.590135
21.3047 29.0672 17.2209
280.559 103.067 45.173
25.4252 10.2598 2.80523
11.4395 5.11992 2.33174
33.7819 11.3026 5.62759
141.786 38.0945 14.6048
15.3588 6.52398 4.83797
64.1573 28.2166 10.4947
27.8017 6.74819 4.15262
17.9115 20.5279 10.2728
43.8398 36.3852 18.0605
52.2843 13.8404 6.29772
9.868 5.76321 5.86498
81.6544 42.6049 20.0518
77.4578 12.8653 4.94056
7.36464 1.24056 0.584234
69.0612 33.2853 15.799
52.2425 9.37212 4.5053
24.4745 28.6603 15.9006
66.1346 17.4761 5.47419
41.0236 16.8248 8.38772
4.54427 11.6861 8.01314
15.8668 5.68373 3.66083
62.4721 41.0324 24.665
87.1152 19.2483 6.13691
35.549 16.6703 8.36725
2.02035 3.59916 4.9463
136.426 41.4102 17.1962
15.1802 1.57625 0.64878
101.678 59.2569 38.1827
28.521 6.25943 1.11085
27.3968 2.34379 0.614617
36.5169 18.1624 15.2365
13.8704 2.39712 2.47604
62.7972 9.3397 0.559206
165.532 53.3342 19.6241
72.1561 35.6519 18.5347
84.4726 28.248 17.2677
2.40424 2.68489 0.716257
43.1127 12.453 8.45163
4.21309 1.00958 2.13883
14.4095 19.7313 9.81525
57.7808 21.8851 10.3205
25.8137 6.62768 5.0671
5.75847 6.92193 6.21377
59.4004 36.7381 16.9281
1.2138 6.29498 4.08105
13.0366 2.46973 0.874821
5.00185 5.87748 3.72692
9.98825 15.7766 8.74526
12.7002 6.93809 3.29873
10.057 25.1701 18.2008
10.0323 3.52249 5.97807
100.562 60.794 36.9923
32.4302 1.53059 0.329052
16.6186 17.9795 15.943
64.1999 8.82845 1.06697
52.7195 27.3403 16.7246
64.4643 11.2816 3.5177
33.7051 16.4799 10.5124
21.5453 1.15253 0.312239
18.6364 4.98613 2.60137
30.2059 20.8136 16.1404
28.2113 3.05081 1.40783
0.598547 2.11466 1.67638
17.2281 10.1661 6.7203
45.5532 62.9541 44.6785
32.3869 2.48392 1.41016
24.6361 10.3498 11.8626
53.0161 24.1711 9.22419
20.4462 6.27116 5.78264
0.788332 1.15321 1.38318
56.4395 49.2053 24.2492
22.1188 10.5073 11.0741
36.6914 33.5132 16.0423
4.06835 8.19141 2.57572
18.2465 12.383 4.08619
86.461 56.8224 44.6943
24.7148 18.1618 4.7387
122.169 123.93 73.2564
9.83727 0.307268 0.694455
22.1065 24.7706 18.7308
39.3791 7.3485 4.60723
32.8438 4.37268 5.69466
400.839 210.407 125.985
20.5442 10.3105 9.92056
44.281 22.4438 19.501
44.567 26.5127 26.6862
85.2528 78.5815 61.8609
0.161218 12.1552 20.7474
7.063 2.27388 9.87787
48.269 13.3027 13.8798
67.5106 25.1155 24.639
132.323 61.3492 31.3909
95.4872 56.1059 36.9683
33.0711 17.7072 19.5811
3.44949 7.96865 11.5429
28.7873 6.56651 6.27691
122.652 50.1118 26.968
72.9068 37.6272 29.914
4.58465 7.33022 3.28703
24.53 37.3737 27.5806
9.99411 14.3556 18.9466
90.5137 27.8508 12.9848
17.7994 4.35153 5.62687
67.4681 23.8931 15.1614
4.59782 0.217513 0.192491
52.6823 21.7378 20.1862
51.1408 26.5273 16.0805
21.9599 17.6011 21.7957
96.3639 48.9631 28.6769
0.697854 2.36436 3.09666
128.627 81.4602 66.6264
10.5567 5.12693 12.7607
17.3314 19.0534 11.0609
29.405 8.25326 5.34703
65.8323 62.6919 58.3442
11.08 15.2731 17.0566
33.7602 16.6169 25.8668
87.7724 44.197 22.1454
23.5335 4.82427 3.81509
30.6758 52.8412 62.1486
110.563 30.1202 6.91912
134.249 73.8832 52.2837
2.68706 1.65171 2.46981
25.7003 8.34613 8.81613
15.2818 7.29619 7.42632
15.6828 10.2212 9.49503
5.67649 0.411817 2.94719
19.0444 9.19436 6.46469
28.4974 45.4615 36.1184
3.54338 13.6403 27.6817
75.0571 23.5468 9.32666
19.2151 6.18925 4.09052
15.2964 15.6148 25.2747
53.7578 38.0402 20.8466
0.390812 15.7763 24.0257
68.2715 37.3935 29.8519
27.8988 2.87839 0.515976
29.0294 26.4812 34.7125
88.5159 37.1007 27.4399
77.6003 31.8348 16.7744
31.4419 17.1563 15.5167
10.0185 4.27658 1.02426
22.6447 32.6153 28.9785
11.9668 38.822 48.0814
53.3589 9.17566 1.82771
31.3261 16.0492 20.2662
3.22925 12.8085 11.9459
10.2864 21.699 16.3204
7.3067 25.4392 30.4356
56.6459 41.5737 27.2628
18.2919 10.1911 10.5446
42.5736 20.214 21.3439
7.86643 1.54903 0.390373
7.08248 5.31805 1.37747
25.2522 12.3561 10.5836
32.1913 35.5065 37.8365
13.3956 22.6281 11.688
7.81902 1.90948 0.919664
12.1535 6.71882 4.64372
5.27139 1.16167 3.17313
62.2524 65.0528 47.8157
15.564 7.45759 7.63615
20.5794 11.7461 16.9527
99.3469 112.537 117.572
28.5153 12.1394 15.8403
18.2959 27.6146 20.0671
16.5219 4.85955 5.58968
0.37268 0.636166 2.25676
19.5909 23.8869 16.1649
6.14858 32.8513 38.1629
53.9703 23.2791 22.2288
7.01551 8.2672 2.79909
10.6918 31.1802 29.1848
1.815 5.41894 11.1487
16.8975 14.3418 16.5345
32.3634 6.19109 2.72349
21.1726 4.78985 2.77397
74.7317 68.3745 82.7917
9.25045 12.4458 3.86941
4.64524 1.83107 3.72912
15.0362 15.1816 24.268
64.6835 99.4804 91.5426
13.0086 15.6174 14.9306
20.9859 6.85778 6.76755
1.90145 5.75857 6.82309
42.5695 24.9173 22.1088
3.7925 5.26 8.30615
17.4816 13.5286 19.8283
10.459 6.94465 2.13117
15.7534 29.7924 34.3914
13.8842 3.36228 1.34598
3.33402 11.6486 9.25845
1.47216 19.6586 32.5213
63.8528 29.5648 29.3599
33.1296 43.9157 44.8406
3.65304 13.2965 25.0308
51.1035 15.7912 5.795
26.7839 9.78189 8.31303
10.0458 2.6869 5.6677
0.348486 9.70185 10.3193
11.6317 0.676134 2.7463
22.5801 4.26526 1.46628
51.4005 34.8042 37.1621
16.6125 10.9301 14.0865
0.833595 0.834284 1.29353
2.47945 0.228036 1.65233
0.847861 1.29 1.30083
0.543896 9.87933 18.0679
25.8872 4.20639 0.834217
21.0924 5.49563 1.40403
36.2141 28.356 29.34
3.6151 17.1956 33.8481
48.3027 26.3269 24.921
11.0314 15.0309 7.36499
8.70787 23.0607 25.9537
8.17856 12.52 27.0231
19.1642 2.69951 8.94921
20.6853 4.63436 1.92921
1.60239 16.8772 42.4747
60.4416 17.9188 3.00859
37.2364 17.1472 22.4518
24.0925 15.8273 11.1287
41.9408 8.7682 0.00712868
101.055 65.8422 41.8322
54.1652 49.1676 51.3918
46.7296 59.9299 101.012
10.8167 7.46448 3.33828
38.6176 24.216 22.6317
21.8033 50.8811 92.2928
60.4873 39.423 59.6502
52.9208 32.2068 49.4652
66.212 39.8894 39.5497
61.6643 53.9746 73.1457
37.1893 28.1585 33.8265
6.72777 7.43251 2.18692
14.6806 6.33051 2.53133
35.5349 28.3411 45.8995
11.577 34.7848 37.4888
31.8414 11.5318 17.6867
47.0099 88.7325 95.3895
52.6365 46.8946 64.0422
23.2152 15.3157 36.7954
9.56529 0.752149 5.38839
2.92042 1.53681 17.2458
36.1504 35.9629 25.8254
13.4631 8.15303 21.7997
8.1919 26.0485 24.4796
15.272 8.13422 23.179
11.2395 24.3121 20.0073
12.3915 2.02871 2.93473
5.02437 20.1615 26.5063
13.2961 1.29438 3.38805
15.9331 3.11767 2.40294
2.94328 15.3732 36.8723
47.7699 17.1963 5.5975
16.2601 8.77168 19.1579
32.7695 31.9759 28.0848
59.5063 54.8305 54.5517
24.9072 35.3037 76.3418
22.926 17.061 8.37465
0.111632 6.44994 7.17307
3.63349 5.52772 7.1795
2.40522 12.6378 27.7884
23.0107 11.6693 29.3258
33.5212 16.3737 20.9456
11.6612 23.002 20.3584
2.51298 4.70738 3.38463
4.94148 0.00851728 1.91476
19.6352 35.923 46.8381
10.2619 4.38077 7.03918
23.0354 35.5145 49.3154
11.8188 4.20608 10.2434
2.9409 3.81522 7.25355
0.953868 1.09169 8.19377
3.5059 4.01068 5.68729
8.42455 9.09176 19.8523
44.2658 28.6898 25.5594
60.292 39.2451 28.09
72.3232 82.8434 88.7904
16.6414 29.505 60.5958
2.08358 21.6475 78.9327
60.1921 59.0207 57.0142
3.1588 7.81384 6.49652
8.00568 0.930194 4.23586
9.98043 39.8003 40.6176
4.272 52.3499 128.464
70.5198 31.362 22.9129
2.45189 5.92639 10.0207
9.42502 6.39185 20.3154
25.8232 17.2032 24.7226
11.6516 27.6276 28.9209
6.40583 7.96784 19.837
2.73225 29.9099 55.2213
11.4076 0.83099 4.83588
0.24539 2.02596 2.95745
2.3187 4.24693 9.40749
3.07205 2.43095 13.9406
1.69683 5.98202 5.45997
61.5572 96.0293 144.021
4.53158 5.88614 27.5987
15.3515 30.0576 92.9288
21.6015 33.8002 19.1076
5.39519 5.25059 33.8034
20.7695 17.5032 21.536
45.6898 20.3139 19.1939
73.5327 73.4764 72.9636
4.43743 3.05648 8.05933
54.9525 71.1885 134.243
11.3094 1.45692 20.1031
60.9173 36.387 24.0048
37.9448 35.9535 40.7632
10.8722 16.6063 20.0746
4.26942 0.0730365 0.406589
2.80236 8.51805 25.4715
57.0968 46.7928 57.7773
4.33987 15.5574 58.6879
19.9953 30.2994 19.76
11.6029 6.71193 5.99217
7.74799 48.0278 91.5194
32.6138 12.7215 6.09007
11.9982 10.3762 27.4434
21.4013 24.3789 27.7745
2.70624 0.430144 2.87089
7.36822 7.1042 28.7041
5.47587 15.8551 14.4996
7.63222 4.82084 28.3333
24.1087 53.1154 78.5646
41.1871 30.4978 46.5532
31.5493 23.2473 22.3639
13.3665 2.54905 0.176218
16.464 5.30378 2.74026
20.149 31.4488 70.738
29.467 17.8539 10.8811
3.88517 7.05834 14.0347
11.7283 1.4111 10.8639
27.9435 14.2396 6.64398
16.4532 20.7983 35.8409
9.31771 6.70068 18.0824
2.58628 16.786 18.5903
14.6903 17.0191 35.1678
12.4333 24.3145 28.9447
0.772613 12.1101 25.6372
13.1426 3.24051 3.01352
1.50356 2.65289 10.2704
8.50393 30.265 64.8381
51.5552 97.2409 145.428
6.70729 2.79307 12.7011
21.2423 31.8579 66.639
24.9541 41.5674 43.9669
8.01355 1.77706 2.51333
3.96026 3.5999 8.75204
29.1664 30.7203 55.1293
11.3 19.475 53.2816
6.7676 8.21873 0.908272
9.06036 19.6471 37.3216
1.06754 4.68405 13.9407
9.44654 3.09137 0.991624
10.8492 37.5449 46.6554
2.09458 9.32942 27.8802
8.21055 6.61345 32.282
28.0864 9.00261 5.07221
1.22148 12.1005 32.3053
12.5946 3.46466 19.6588
12.8243 9.67982 26.8917
29.7056 13.8887 5.10611
5.9347 8.48935 15.1564
7.31739 0.043729 3.39654
13.4411 11.7363 44.604
20.8055 32.5031 21.9045
2.32907 17.5196 41.9686
17.2431 4.20374 1.56759
7.62127 5.19138 14.5053
2.74711 1.10906 3.05495
1.5808 0.896618 2.72017
16.3277 25.021 36.2383
17.6165 79.3478 130.458
27.3647 21.5932 57.4501
6.09239 34.8257 75.7755
73.7438 94.4031 144.537
0.988291 6.53602 28.5148
3.62134 16.034 41.501
0.563825 10.2409 51.5955
4.55509 0.989487 30.522
13.4408 32.9804 15.6261
2.35127 32.0107 46.5908
4.01226 15.9524 47.6037
25.4342 14.4144 9.02013
17.1952 13.2696 13.2537
3.83365 4.59275 11.2968
8.94357 4.30602 18.7182
18.6214 7.00028 0.345853
22.7986 24.3304 29.9388
4.07752 7.50975 15.1585
9.45007 9.58888 25.0919
3.66395 2.00448 12.3106
1.54742 0.303776 11.5284
6.8903 12.9441 17.2591
4.08409 5.18286 16.2969
5.32333 11.8244 11.0795
2.08751 31.8221 73.1023
30.038 29.9414 43.6704
8.56695 0.8706 1.22767
25.706 48.4304 156.23
26.7137 86.9233 117.813
24.3984 12.973 36.9095
7.37978 57.342 119.272
23.658 11.2168 3.28374
2.64923 18.3438 56.6903
29.3723 19.8217 22.4218
8.54898 67.7497 188.929
53.492 34.2882 42.8904
10.604 6.88725 31.2504
20.8655 39.3718 49.1536
0.0862925 6.45295 10.8417
1.25272 2.56163 0.123991
2.05576 22.9436 32.0496
2.25654 16.4449 28.2518
0.604723 27.736 112.964
36.5521 14.3786 20.2529
9.11797 8.09744 3.23455
4.26578 23.888 88.9195
66.8927 100.476 114.537
0.591275 26.5013 79.0904
8.50384 22.2116 55.0282
5.7891 10.6923 61.0107
15.0324 4.59988 50.5445
29.3094 7.06751 27.5104
20.4552 11.9328 26.2465
36.9388 24.9334 15.0982
5.42627 10.2389 12.6141
2.41301 5.65203 30.6674
16.8903 19.072 45.4171
26.8583 8.93029 4.0742
24.5309 30.6064 33.7323
7.35675 6.66792 11.0505
12.5158 25.7032 81.7689
1.30478 0.311969 13.9656
2.46912 1.90348 55.5009
22.0184 46.7362 38.0242
22.4912 38.4259 51.7063
1.14788 2.0754 5.15414
10.5837 12.6148 41.614
2.78829 10.9496 8.73296
14.0863 17.9102 29.3297
3.13054 27.3881 115.506
37.8544 75.4254 126.768
12.4372 2.41102 4.68545
5.80931 19.0536 36.163
15.7152 3.07144 1.23501
12.6434 7.0808 16.7064
12.7373 13.4595 23.3013
11.8341 7.84259 14.8152
5.59034 10.2623 35.8308
40.928 50.976 92.1456
11.3701 18.1659 35.5474
2.01668 1.34075 11.6361
4.42546 16.5372 83.7081
22.8236 65.1874 114.815
16.7058 26.6138 34.181
3.71794 0.191582 0.322571
0.146977 5.4936 9.05424
3.39827 2.41751 14.0534
3.66862 7.89007 21.943
20.517 28.9208 69.4181
3.94663 10.6496 13.1475
9.97206 6.58852 15.4232
1.34515 12.833 13.5838
11.8623 33.5903 92.5728
9.80926 13.8952 22.5907
12.7151 32.5763 81.3142
6.86501 1.50301 48.0052
23.173 37.7361 47.4689
7.02576 4.99729 10.3955
3.35786 0.21611 0.260857
4.17846 50.0175 214.991
45.4287 35.6924 4.05082
8.82303 32.4825 61.4631
17.4826 4.07953 1.76586
9.80852 6.05045 7.59452
16.6322 69.2539 115.981
9.23198 8.53 42.6086
5.37261 28.4848 73.3863
15.2625 31.8586 99.2058
17.5647 0.340782 25.2955
26.5795 15.8066 8.25255
17.3387 27.1913 74.2411
11.0215 10.1372 4.47588
5.16726 19.515 56.3785
13.4134 16.1121 29.8835
3.06483 6.23757 16.4171
20.1327 26.8099 75.7352
7.26257 18.3059 12.5138
6.21541 57.861 170.976
14.5827 2.63035 2.83022
1.91447 8.73015 90.1539
14.6235 36.0344 35.6158
7.96699 5.14372 5.89199
13.9322 67.2301 157.745
30.0068 15.7302 15.3285
2.17284 1.08907 2.48895
2.22672 4.37324 33.451
6.66301 27.6509 40.0502
8.76662 3.15407 14.1665
18.2893 19.9861 41.1175
4.15985 5.41383 6.43029
3.2873 5.11287 12.7678
1.50399 7.15947 10.2523
12.2554 19.9406 49.3214
0.523449 3.37137 35.4643
