# pn-170911/RbIIR-59-TWTF-1280-1959.psd
# Power spectrum* (dif=0,1,2) (really just |FT|^2)
# NOTE: only the first half! (symmetric)
# weeks: 1280-1959
# 10 clock-days, 0 excluded
# PSD: 1441
156.591 0.0558486 0.0104647
13280.4 0.39087 0.0109774
30849.6 0.656413 0.0108021
13872.3 0.357382 0.010533
36452.7 2.28924 0.0115015
5943.92 0.751175 0.0112376
2276.88 0.439362 0.0106461
1797.37 0.299554 0.0118229
4337.39 1.38726 0.0131504
2693.21 0.990737 0.0107938
1647.1 0.653738 0.0100777
1311.88 0.720498 0.0104979
958.724 0.545157 0.0129455
896.426 0.561073 0.011176
949.961 0.564023 0.0122286
484.127 0.44921 0.0104355
668.854 0.872073 0.0123313
704.939 0.679279 0.0122456
337.368 0.756103 0.0123864
521.776 0.868082 0.0115333
332.767 0.779722 0.0121159
330.543 0.74598 0.0115246
400.925 0.699549 0.0144349
829.287 1.72992 0.00783478
284.799 0.554008 0.0129084
425.829 1.23347 0.0125315
502.263 1.4205 0.0170395
234.925 0.897358 0.0145938
286.349 0.768695 0.0115745
361.662 1.29222 0.0076497
536.551 2.13794 0.0210268
187.28 0.937673 0.0121398
269.187 1.22176 0.0172577
248.409 1.01899 0.0140014
158.209 0.893275 0.0169124
293.972 1.4363 0.0187403
323.978 1.65463 0.0258617
352.394 2.19193 0.0223944
178.555 1.06291 0.0244475
218.214 1.47572 0.0142813
301.287 2.11503 0.0333746
137.743 1.234 0.0185847
195.27 1.49128 0.0188961
188.777 1.95617 0.030946
204.105 1.91376 0.0282277
198.803 1.80341 0.0205054
254.04 2.62298 0.0344525
298.153 3.06574 0.0413742
339.631 3.67551 0.0451686
197.297 2.95411 0.0403732
250.608 2.8506 0.0434327
355.003 3.91423 0.0643269
144.081 1.54001 0.0317025
265.574 3.57235 0.0723365
173.394 2.09107 0.0390311
227.226 3.58409 0.0647159
173.769 2.32448 0.0478595
249.787 2.86107 0.0443834
168.529 2.30699 0.0640949
253.885 3.55814 0.0957746
124.043 1.88168 0.0301813
239.034 3.76373 0.0714919
239.505 4.09282 0.0663315
202.866 3.42089 0.0747132
351.137 6.41 0.141976
131.728 2.37158 0.0552164
245.958 5.60671 0.127252
173.161 4.02924 0.0863866
187.39 3.7197 0.0938694
166.924 4.68806 0.108105
188.244 5.04723 0.141145
368.372 9.76379 0.258753
226.093 4.80747 0.15143
167.711 4.52487 0.156712
285.926 7.63069 0.191614
179.065 4.50249 0.146297
268.384 6.28611 0.211466
142.132 3.66285 0.0807538
238.706 6.99356 0.208891
243.085 6.31773 0.165747
172.52 4.9751 0.136782
191.491 5.70561 0.165641
213.405 6.10386 0.223929
167.529 5.92096 0.192447
120.358 4.26643 0.186905
227.825 6.74488 0.259061
213.789 6.36109 0.254308
115.181 3.81995 0.150092
133.962 5.00877 0.249595
247.319 9.05091 0.324337
127.624 4.89167 0.173412
332.715 12.3669 0.398984
106.353 5.01677 0.22893
205.054 8.28466 0.321714
137.677 5.69368 0.260434
139.238 5.94146 0.24753
340.099 15.5924 0.65625
113.873 4.96396 0.252605
181.256 7.87417 0.371857
94.7314 4.42534 0.23064
159.929 7.9979 0.395407
292.91 13.3738 0.612041
193.484 10.5562 0.488361
317.638 15.6669 0.839338
217.573 10.7277 0.603732
109.231 5.78684 0.35604
278.386 14.7471 0.836421
149.975 6.96089 0.321201
224.361 11.9893 0.659424
120.44 6.76853 0.40689
126.875 6.90863 0.390473
213.944 11.6828 0.692434
96.2471 5.75285 0.395598
203.745 11.5664 0.666611
172.001 10.3115 0.693176
215.903 13.0582 0.795024
91.3816 6.47837 0.383128
137.084 9.01538 0.571587
229.058 14.3746 0.965868
133.495 9.40566 0.711608
194.597 14.2047 0.965803
111.789 7.94662 0.581521
138.162 9.60539 0.70537
111.877 7.24846 0.577139
142.424 10.0273 0.854488
126.313 9.43955 0.6824
115.43 9.25155 0.710345
187.094 14.3609 1.00717
132.492 9.22816 0.673986
126.654 10.8655 0.878403
234.363 18.1996 1.3692
153.923 13.835 1.20735
115.924 9.84155 0.751112
78.0184 5.57827 0.414596
66.2664 6.2632 0.56362
130.785 9.84952 0.816208
192.118 16.4189 1.46039
166.904 14.9378 1.29769
159.607 14.1956 1.34894
77.199 6.93118 0.646643
102.332 9.80445 0.955145
120.616 10.7678 1.08146
130.817 10.7866 0.98448
187.761 18.7544 1.89717
129.978 11.9413 1.07701
124.781 12.5424 1.22683
99.5408 9.75276 1.01416
154.119 14.5975 1.48027
65.5982 7.06676 0.805389
89.4259 8.95603 0.946839
101.973 10.8453 1.21472
220.814 22.311 2.39298
98.5436 8.95443 0.84418
97.2024 10.5707 1.22704
59.0729 6.63744 0.650466
82.978 9.22668 1.07365
162.074 17.811 1.96176
158.885 18.0814 2.16023
154.339 17.3775 2.11964
92.1564 10.1523 1.28418
125.377 15.0711 1.89159
82.1978 9.76196 1.15768
67.2959 8.9236 1.10571
128.135 16.6636 2.0858
81.2974 9.19858 1.14049
69.5981 8.48089 0.97245
74.3537 10.4988 1.39506
125.368 17.4027 2.20671
119.944 14.6677 1.99675
188.761 23.9766 3.17226
111.055 14.8934 2.05306
124.046 17.9381 2.53589
69.4201 11.3597 1.76817
107.992 13.987 1.99361
66.7556 8.51695 1.17401
180.2 26.2952 3.83334
74.9759 10.2547 1.38348
109.825 13.2284 1.75466
107.946 15.092 2.20391
111.06 15.3241 2.37696
73.5141 11.7054 1.83591
99.7523 15.0777 2.46498
75.3348 11.9837 2.0976
70.7699 10.7307 1.75043
136.775 20.8379 3.1737
134.428 23.9226 4.04164
90.9596 12.349 1.86294
120.684 18.9802 3.1386
33.7967 4.90279 0.82745
64.11 9.92888 1.73734
85.815 13.6625 2.06398
68.4287 13.5475 2.41241
136.548 22.6556 3.84416
82.956 14.2851 2.5901
113.732 21.0947 3.90531
56.5701 11.8936 2.56034
160.544 26.651 4.53047
126.831 21.9491 3.75168
95.7633 19.3453 3.74564
61.4677 13.6162 2.78908
55.3063 10.3525 2.27192
66.2812 12.9627 2.87303
72.7416 11.3328 2.0427
123.469 22.7332 4.44341
57.808 10.8916 2.12993
74.4529 13.8023 2.45588
108.944 22.8163 4.6941
83.4898 16.5689 3.06391
99.8976 20.5039 4.23325
44.632 8.18732 1.52894
123.22 26.7556 5.49914
73.7608 14.3567 3.22377
67.3202 14.3064 3.10563
69.3829 16.0345 3.62056
118.642 22.9529 4.32856
82.9469 18.799 4.00319
117.168 25.8258 5.46097
55.9046 12.9112 3.14393
88.1565 20.4852 4.55032
87.7944 18.8034 4.07713
63.1504 14.6028 3.52461
92.7536 18.871 3.9484
109.596 24.5528 5.72494
87.7274 21.3004 5.04414
41.504 9.80393 2.23362
27.6599 6.19971 1.54952
91.263 19.7837 4.77112
47.6893 11.9212 3.09248
123.144 29.4309 6.76052
86.7003 23.4582 6.56208
75.433 15.7316 3.47757
86.4915 19.2068 4.29699
133.188 31.0713 7.501
90.41 24.5916 6.83406
53.838 11.0037 2.61386
45.4009 13.3595 3.84285
37.8995 9.61388 2.78933
58.722 12.0709 2.44116
88.6375 22.6276 5.3916
56.7008 17.5813 4.85983
51.1447 13.2698 3.68113
38.455 9.6811 2.58511
53.9037 15.6673 4.49148
55.9994 15.6054 4.31281
60.5358 15.2483 4.02055
47.8145 13.2899 3.8663
46.8824 12.9355 3.33598
57.2655 17.7187 5.68351
57.2253 14.0468 3.62776
60.0991 20.6136 6.37209
41.7957 12.2326 3.95902
84.0011 22.2162 6.13365
60.4179 18.774 5.59505
44.1971 11.5503 3.61782
57.5151 16.1481 4.67863
76.763 20.5136 5.41593
66.8125 21.4379 7.01132
70.5963 22.2361 7.03882
56.3679 17.0467 5.28499
97.5634 29.897 9.23044
63.1455 21.3932 7.2298
80.1572 25.8564 7.87487
65.0059 21.2646 7.19461
68.8039 23.1884 7.65861
44.1348 12.6106 3.98877
56.6995 20.1726 7.55045
52.6278 14.4844 4.03845
68.2326 22.0411 7.39167
87.367 27.4457 8.93091
59.0375 18.5171 5.60545
33.3357 14.0391 5.56437
97.6907 32.0432 10.7267
39.1068 15.2525 6.41844
94.8898 28.5751 8.70165
59.9785 21.238 7.51022
47.9827 17.7966 6.39463
44.5679 17.6537 6.92321
51.6283 18.5929 6.50044
41.1482 14.9567 5.55569
32.787 11.7232 4.13968
30.2388 10.7224 3.94922
65.3012 25.1642 9.20821
77.9436 30.9763 12.1624
56.3391 19.448 6.85096
33.2463 13.7444 5.78328
47.5401 18.1789 6.89202
55.0801 18.3075 6.53195
34.9835 10.7279 3.60049
65.7973 26.6503 10.1688
35.4265 11.4806 3.87733
42.5535 16.5171 6.54982
40.279 16.8753 7.48704
55.0204 19.7463 7.55378
97.9121 41.3533 15.455
45.4709 19.3745 7.95006
27.7926 13.1313 5.89768
23.9745 7.20164 2.65612
55.4514 20.8162 7.50519
27.4561 9.78503 3.67326
30.0847 12.0118 5.18023
38.3849 13.7444 4.91982
49.2563 20.3148 7.87241
39.8516 18.8465 8.43964
36.3046 13.1708 5.1845
48.1472 21.0631 8.71014
35.8361 15.0263 6.0063
30.7605 14.4248 6.53242
31.2509 13.3047 5.77874
62.4798 26.2569 11.1612
42.3631 18.4972 8.75356
55.8039 22.4644 9.11986
30.6323 13.6111 6.77991
24.8739 12.0001 5.9625
43.8694 18.8711 8.91734
47.1399 18.553 7.1408
53.0612 26.9969 12.1516
34.0551 16.6835 9.26027
62.1254 24.5958 9.38185
54.8405 25.9605 11.627
34.0181 16.3033 8.12283
45.5559 20.6956 9.08198
42.6258 21.1723 9.74811
28.4826 15.3414 8.89845
32.7958 14.7362 6.96749
34.0064 14.1348 6.85506
72.9903 38.2581 19.6496
56.9189 27.6215 13.2496
60.284 24.5572 10.911
68.8195 31.3308 13.4357
27.478 16.1305 9.20911
41.1056 23.5169 14.0372
40.6929 17.4234 8.62701
57.9184 26.0204 11.3905
37.7675 14.8518 5.56894
68.8391 35.1397 16.6076
21.0533 13.5393 7.64799
61.5802 34.977 18.6989
42.4508 22.9541 11.7282
35.0869 20.6467 12.5285
45.5063 22.4623 11.0316
23.0578 11.1843 6.32928
43.3298 20.484 9.76194
60.1472 28.6293 12.4495
26.9158 18.0913 10.9817
41.6166 22.7183 12.4549
43.6319 25.158 12.7493
31.9659 18.1873 10.3898
25.2267 15.0061 9.15148
43.245 22.063 12.0779
28.4851 16.1022 9.53361
40.2485 23.1458 12.8876
41.1182 20.2994 9.62982
37.8362 24.1232 15.2993
44.7225 23.9841 12.6263
28.6133 13.8733 6.61949
32.013 19.146 11.5894
30.2909 18.3846 11.6743
29.7904 12.9106 6.51441
38.6395 23.6165 14.3781
31.8024 17.6755 9.60803
45.2778 28.177 16.5135
19.9539 14.5127 10.6891
38.5344 20.0662 10.4372
37.8897 25.6214 16.2974
28.2989 14.4435 7.93232
23.5687 13.0635 7.7528
27.3659 15.4751 8.29353
39.2403 27.669 17.8452
42.4974 28.7633 19.9292
30.4955 14.9102 9.61397
43.448 24.1884 12.8941
49.9117 29.6593 16.2919
32.0472 20.5239 13.9831
33.7905 17.7474 8.57945
28.1783 22.3593 14.9999
39.9014 28.9535 19.0864
21.3152 9.83987 5.28326
29.4143 19.2567 12.3498
19.0441 11.8641 7.75206
26.4594 18.2053 13.2797
38.786 23.4557 14.1645
29.108 17.6816 10.1914
35.5517 30.2639 23.4653
30.9499 16.7077 10.9389
47.3102 30.2277 18.9646
27.2874 21.1984 17.6528
43.4664 22.8157 11.8532
31.3973 21.7925 14.7477
38.3731 25.9234 16.6643
20.2977 14.3906 10.1446
17.8624 9.49094 5.48713
33.2371 22.2904 14.624
23.8027 19.8035 15.2035
15.362 12.7647 12.3036
38.0972 21.3311 12.7525
29.2068 20.2537 14.5327
27.7303 18.7623 12.9315
28.4203 21.7461 15.4754
31.5994 22.4664 15.7595
28.6261 18.7319 12.1753
31.5303 27.9713 22.9288
26.9132 14.4091 9.74702
42.785 29.282 18.5349
30.3559 23.0208 16.6295
19.9748 12.6247 8.69617
15.1242 9.82987 6.49656
31.6324 25.6034 18.4662
32.5529 23.1613 15.9636
23.1348 23.42 22.9079
36.4094 22.4042 13.7126
25.3289 21.5536 16.5058
22.467 17.4569 12.8248
28.4769 24.8649 21.2284
30.3332 18.7018 12.6991
25.2257 16.826 11.7067
29.2455 25.4716 21.1347
24.5376 17.7106 14.6274
38.9176 36.5406 32.5054
36.0938 20.2138 13.0113
17.0462 11.9781 9.49667
23.2611 14.587 9.68471
21.1804 14.098 9.76782
34.5543 26.0295 17.0966
27.4125 24.256 20.974
13.9676 13.0799 14.129
31.2319 20.8951 12.4488
15.2651 12.9635 9.89927
31.2092 29.2402 25.1234
23.8937 20.8727 19.9966
40.2619 30.3451 22.1761
21.2101 18.7253 18.007
20.5915 15.0754 12.3394
20.1542 13.32 8.58449
20.1595 19.4498 16.5273
20.9428 19.9728 18.7254
32.4426 26.2846 20.0407
20.7034 16.6704 14.0946
20.1452 20.5666 19.1243
29.6455 24.4683 20.5479
33.7908 24.4518 16.9787
18.8584 17.5158 17.3585
41.2322 32.6872 23.2015
13.5033 15.9802 19.3478
24.8793 18.728 14.3541
19.425 16.6774 15.0442
26.8722 25.6609 24.0726
26.6403 21.2271 18.2998
18.7328 13.8705 9.64801
21.6062 25.0676 26.7307
37.6242 33.3728 28.8445
20.7147 15.8144 13.3179
18.1433 17.2665 15.9676
17.0769 11.1949 7.42659
18.768 23.1845 25.025
26.1562 21.3643 17.7136
12.1735 11.0844 10.9678
20.0241 19.5786 19.467
22.8413 15.6746 11.2205
24.2518 23.7894 23.6575
19.5692 15.2526 13.408
23.6849 17.6238 11.705
33.233 35.9395 34.3642
25.1201 20.0635 16.3387
14.4222 16.0754 16.2805
18.4131 19.1762 19.9446
15.1917 11.9458 9.39767
17.1952 19.6361 19.3755
18.1339 16.8544 17.0609
14.5879 13.2436 13.8372
29.4853 28.8841 27.1562
18.3763 17.6475 17.0784
10.058 6.73926 5.55089
16.2661 17.4492 17.1412
12.4085 12.9527 15.0356
25.4541 23.9465 20.8482
12.9163 9.77511 8.95914
26.5552 32.7596 34.2367
20.012 19.5595 22.5982
27.6931 24.407 22.1445
15.2257 18.6679 22.1536
26.5312 29.1834 31.5754
23.4722 15.6439 12.1014
28.0356 26.3283 24.9288
21.4914 20.1685 18.5451
17.899 18.207 19.3434
27.1214 26.2724 23.836
14.2269 18.8326 22.4601
12.3337 11.595 13.3859
20.4386 19.7917 18.1395
13.7258 12.919 14.7374
19.8954 22.1441 22.0505
16.0198 20.3999 29.5168
39.2676 34.3682 27.9692
29.2084 46.764 68.6434
70.4305 54.9784 41.0222
54.0966 76.1552 103.274
105.916 88.1822 64.6847
30.1015 38.6321 48.4091
41.9373 34.887 25.6242
21.2819 29.424 37.343
19.719 15.9394 13.7048
13.37 15.6212 17.952
12.8545 15.5822 19.3123
22.6971 22.9762 23.526
15.0415 14.751 16.8116
26.0166 27.1791 27.4069
25.6406 28.6052 28.6929
20.3429 23.261 24.2398
20.1322 27.3953 33.1017
22.102 27.0312 31.7184
11.928 10.8634 13.5513
10.8268 9.25099 9.80886
12.8328 13.3094 13.8988
15.9058 18.4161 21.2629
18.1668 16.8098 15.663
10.4263 12.0479 12.7363
17.213 25.7728 30.5042
14.4574 21.761 34.1446
24.6508 23.7698 23.9349
13.1826 15.0112 19.156
16.6484 17.6566 20.0222
18.6084 22.5866 26.6455
13.9575 18.8948 28.5972
15.4101 11.1537 13.4916
20.1845 17.8206 15.2326
23.1682 28.0747 30.986
23.3472 27.0292 27.7103
13.903 17.9386 22.5107
13.2883 13.2547 13.4322
10.9685 15.8228 22.8032
11.7801 12.8389 15.945
9.75811 8.85547 7.77604
10.1706 13.5222 14.9163
5.2057 8.70343 15.4663
20.857 24.5603 28.3252
13.0154 15.2282 19.0848
16.6966 18.5921 19.7728
9.24777 15.9796 26.4401
14.3873 13.2866 14.8636
19.5044 22.223 25.9254
18.6557 21.6738 25.5292
21.4818 26.6969 28.5437
14.2199 22.2892 32.229
11.2719 9.19732 11.7971
14.4629 16.8861 19.1346
11.3553 12.6168 13.8303
10.8551 17.7788 25.6521
16.1558 19.0017 23.5302
10.5882 12.3532 17.5155
13.654 16.3451 18.3832
17.0349 24.6038 33.9567
14.3108 16.0412 16.954
6.99222 10.3657 14.8107
9.9704 11.1244 13.0472
7.51204 13.9112 25.0312
21.9066 25.3684 28.6843
16.3547 20.7655 27.0722
16.1609 25.99 42.9435
25.8165 24.5387 22.2641
14.1782 19.2588 23.583
13.0923 19.3367 29.2288
18.545 21.1168 26.5951
18.8872 24.9081 30.1526
20.8238 32.2326 43.6814
15.0622 20.9078 32.6325
18.6617 22.3635 25.5116
7.4314 9.76046 14.9027
15.9093 24.0743 31.905
11.6751 15.5967 22.0386
9.06858 10.1698 13.7256
10.7852 13.9521 17.9642
7.22618 11.5329 20.7792
11.3394 12.5534 16.247
14.0575 17.7203 24.4279
14.4647 18.3106 20.9863
14.8326 28.3381 50.1149
22.3145 25.7829 31.177
15.4546 17.2242 21.4015
14.114 21.4894 27.0696
14.468 26.1363 46.7355
19.632 21.2201 26.8862
21.4477 32.0346 40.3319
13.1241 16.7565 22.0551
10.9337 17.4383 28.6917
17.9612 20.4643 23.4096
9.83693 15.8117 21.7034
8.12751 12.2638 19.4128
12.2485 15.8655 21.5342
11.0042 16.8941 21.5809
7.0252 14.123 27.9224
15.6388 20.7126 27.5244
10.4402 13.9259 19.9682
7.38747 11.9313 22.8169
17.0378 21.0689 24.7644
14.0221 23.1525 34.454
16.7983 28.4082 47.3634
20.7593 26.9941 37.7556
14.6068 22.3882 37.2312
17.8963 19.4172 22.8675
13.5675 18.673 24.2366
10.8761 18.6405 31.2274
12.1673 15.7879 23.2757
13.9561 20.6782 25.9023
5.84162 11.0941 21.6198
8.84129 10.9266 15.6053
10.9165 17.6192 27.1022
14.1549 20.8353 28.4618
12.7402 24.659 46.481
13.4194 14.8309 18.4056
5.97275 9.82868 19.6484
7.90177 8.75769 18.3299
19.6937 24.8269 25.011
8.90952 14.78 22.6819
13.5659 24.0215 39.6117
19.0912 26.2524 33.7827
15.4175 24.8107 34.0973
7.47903 13.0435 21.3946
5.05518 8.59981 18.3847
8.03947 11.7172 18.0827
6.49202 10.0818 15.8024
3.28228 6.21731 16.3056
11.8549 18.993 32.8439
14.0493 20.2836 33.0671
11.6716 15.4017 23.4011
12.7368 24.3901 46.3264
18.8485 20.6628 20.6962
17.6788 34.4398 60.8617
33.1692 46.2694 52.1956
10.2337 17.6182 28.0249
7.6054 14.2296 27.4352
9.36042 16.2862 28.877
12.5997 17.293 22.8397
10.1187 18.1899 28.6863
13.405 22.411 34.0494
8.20776 16.7355 35.7942
15.8231 24.7513 35.4247
8.47319 14.3988 30.1389
11.6871 15.5871 23.4235
13.98 24.9355 35.1121
9.82953 18.8843 32.062
6.92128 9.13045 15.2901
6.93518 12.9436 24.4076
11.2425 17.8056 27.8107
10.6154 21.1067 40.3676
12.3984 19.524 32.361
18.8953 36.0472 59.1457
10.0954 12.3153 22.1629
15.9994 30.5279 54.8579
13.3324 16.1657 22.4254
6.75379 13.1366 28.2635
10.0467 13.0082 18.4435
10.1504 18.2118 28.2385
10.0584 23.1596 47.6847
11.9475 14.6179 20.3254
10.8019 18.9852 29.5815
7.47473 11.4278 13.8948
3.73053 9.19512 19.9578
4.81037 6.4392 15.332
12.5953 23.4987 40.2196
9.84494 15.1959 22.9046
11.0969 22.8708 41.3012
9.37126 13.4954 19.6471
7.64999 18.0076 36.558
10.0041 12.9634 20.0772
8.23059 17.9628 35.8865
11.6522 19.6112 31.9061
11.0354 19.4703 34.7707
7.97007 12.1002 18.7223
6.457 12.6703 29.3912
10.8492 18.4566 30.6265
9.52173 17.4637 34.7897
10.9845 17.8517 32.9447
11.566 15.871 19.9952
7.70795 15.7632 31.1645
7.40999 11.9931 26.5129
11.5288 19.5176 31.9308
7.82961 12.0221 21.1616
7.95439 13.8717 23.216
10.4226 20.3743 34.2729
7.99401 13.3826 18.1205
3.08215 8.28436 22.1004
9.4026 17.3995 29.8119
11.2397 22.4827 36.4744
6.23853 12.0509 25.5365
5.3825 8.40356 15.9855
6.1632 13.5778 29.5072
7.83634 12.5054 25.5705
10.6227 17.7652 25.0216
8.06722 16.7395 29.2604
6.81983 13.2684 22.8921
8.2619 23.6043 58.0224
11.7053 12.1716 20.3916
12.8355 24.4446 41.8231
12.4024 24.2198 43.7265
7.39632 12.5064 19.8575
6.93259 16.3232 36.3599
6.8075 11.7257 21.7956
4.10634 7.18368 18.1777
6.59071 13.1574 28.0874
9.87074 20.3217 44.8955
12.9997 23.0597 39.8648
8.77422 16.3046 32.5781
8.21796 13.9405 22.9317
4.29835 9.85898 32.1952
17.4675 30.4314 42.1096
7.41596 15.7392 30.9183
5.74534 12.2059 27.4549
6.73371 10.7288 23.4064
11.5357 28.115 63.3057
12.2681 15.1428 17.3667
4.91126 11.5588 26.8337
10.4951 20.151 32.8794
7.23457 15.731 25.466
2.54561 4.95898 14.5407
5.13242 9.84166 26.0157
13.1762 28.2023 51.178
8.12717 13.2217 23.002
7.86812 17.8892 36.6127
7.36552 14.1503 30.5666
8.55945 20.2901 54.3809
14.4537 20.7305 27.3046
7.12136 14.024 23.6071
5.81938 12.6842 28.7452
7.23238 12.5489 22.9522
6.99315 14.9647 24.7435
3.70594 9.51842 22.3067
7.96369 18.9895 43.8263
13.1911 28.0217 50.6651
5.63282 10.4285 23.6238
5.53374 10.6735 24.0577
7.05732 13.5819 28.2068
11.1434 27.8403 56.972
6.85276 12.4555 32.614
10.3536 18.9155 30.1211
6.37459 13.4543 30.7537
6.51003 14.6007 30.9061
5.7815 9.86749 20.1042
6.20463 17.2932 49.8801
11.0449 14.6557 20.4126
4.98136 9.44056 20.9546
6.59061 11.5802 19.6494
9.27715 18.1335 24.7222
4.63642 12.5119 32.4325
9.19215 18.8446 31.2081
7.77919 18.2054 34.5438
7.50527 24.8703 58.8809
8.63448 15.9816 35.3155
8.25111 16.7171 34.6575
4.5587 9.38268 32.0759
11.1331 23.4816 47.7936
8.21241 13.5424 22.7018
5.93663 14.1965 33.4744
6.29187 12.1265 25.4771
7.86845 22.4361 45.2959
4.19428 7.43605 26.9263
9.79136 19.8271 35.165
3.62658 13.7871 57.8315
13.0345 16.0255 23.5504
9.55774 21.2044 38.9498
7.54571 12.6017 24.1168
8.80989 22.992 47.4399
4.85097 5.88742 20.3571
15.1869 38.504 67.677
7.67292 22.6505 62.8987
9.7895 13.9397 25.1914
6.9809 16.1668 33.637
6.43849 13.0681 22.8016
6.05521 19.065 52.3206
9.32655 16.4061 29.2457
6.59743 15.2154 31.1025
6.88124 17.9879 46.5098
10.3543 19.2705 38.3786
8.65261 16.4226 27.0244
5.59771 20.4971 52.7241
6.00094 10.0576 24.7406
3.25491 8.19969 25.3421
4.83767 8.51082 18.3706
3.45282 10.5131 37.0597
9.31847 15.2238 21.6571
4.39027 13.6388 38.7256
6.32345 9.8738 18.6856
3.97648 8.42988 23.9955
6.99233 14.5476 30.2527
6.40434 13.7181 28.7454
6.11432 14.2928 34.8005
7.15796 12.4296 23.2411
8.34468 22.6774 40.2587
3.54021 7.81622 23.4372
5.57964 13.222 29.907
6.62792 19.0636 42.5737
4.67737 7.43523 16.7187
5.42182 18.7194 57.2776
10.3937 16.4101 29.9538
9.95222 28.9313 63.287
5.69179 10.2733 30.4801
7.23267 15.2548 29.2742
3.3818 7.26122 22.3347
5.94968 14.6193 27.9116
4.00803 11.4456 36.4482
5.74507 10.7585 29.2537
8.15765 13.409 21.2505
6.02752 15.2454 30.7192
4.05355 8.47666 20.7118
6.23443 13.7568 29.1497
7.29605 21.8937 44.1211
5.05326 10.9786 31.7527
8.37896 19.643 40.6747
9.9007 29.7525 55.692
3.92638 11.3677 39.1388
6.57861 17.7599 46.4936
7.40169 18.6363 46.3768
6.47493 17.2188 46.5469
5.77685 10.8177 22.8474
3.34827 11.8789 50.3432
10.3299 17.5481 30.6813
5.24097 13.7059 42.1208
8.37267 17.6451 38.1608
5.03645 10.0329 28.0977
7.64904 18.6851 41.5125
4.86441 12.3186 34.7334
6.17941 12.4267 40.6291
11.63 22.4117 29.4356
3.87982 14.0364 38.4148
6.90249 19.1177 54.8909
7.04611 14.2953 29.2401
