# pn-170911/RbIIF-64-RbIIR-1280-1959.psd
# Power spectrum* (dif=0,1,2) (really just |FT|^2)
# NOTE: only the first half! (symmetric)
# weeks: 1280-1959
# 1134 clock-days, 39 excluded
# PSD: 1441
271.357 0.046019 0.0216411
34524.1 0.523436 0.0127731
175142 3.58659 0.0127455
24625.8 0.912347 0.012721
77073.3 5.97072 0.0126913
7843.94 0.7428 0.0124509
8037.25 1.23406 0.0127332
4074.8 0.729755 0.0126874
3804.31 0.997339 0.0125849
2385.32 0.73572 0.0122873
2235.66 0.89304 0.0132314
1579.51 0.737319 0.0120178
1530.72 0.857173 0.0126123
1219.72 0.773568 0.0133649
1052.54 0.809436 0.0127347
930.616 0.818215 0.0130093
859.764 0.843508 0.0129689
765.198 0.853405 0.0141549
695.089 0.892946 0.0135234
565.006 0.807198 0.0140542
546.534 0.884351 0.0145986
522.615 0.901907 0.014368
482.987 0.947763 0.0142497
436.421 0.927808 0.0157905
426.639 0.987866 0.0151577
398.903 0.988539 0.0155444
363.178 0.978898 0.0157473
356.29 1.05354 0.0151565
344.845 1.10181 0.016535
310.393 1.04863 0.0169623
321.367 1.18968 0.0177744
300.755 1.14727 0.0175082
291.836 1.22242 0.0187428
276.082 1.26615 0.0185273
278.67 1.36546 0.0205313
254.171 1.29411 0.019705
245.619 1.30352 0.0202476
244.692 1.41304 0.020516
234.539 1.45457 0.0226283
231.598 1.45751 0.0233648
219.098 1.44984 0.0232134
226.96 1.61527 0.0257839
213.248 1.60217 0.0262319
215.879 1.70612 0.0268748
220.026 1.83926 0.0295982
197.751 1.68984 0.0290754
195.725 1.76541 0.0306249
188.274 1.7928 0.0316385
192.752 1.95309 0.0346857
181.341 1.86962 0.0347519
184.912 1.99731 0.0360235
177.427 2.00899 0.0369164
172.491 2.0335 0.0382003
174.794 2.14729 0.0401738
181.014 2.28023 0.0453563
167.464 2.29136 0.0473787
169.811 2.3382 0.0485869
157.672 2.28789 0.0506201
164.855 2.46708 0.0517708
173.837 2.71627 0.056933
159.7 2.49677 0.0527556
158.604 2.63274 0.0580415
155.498 2.69716 0.0625719
153.794 2.77395 0.0658329
153.059 2.77122 0.064889
154.764 2.96131 0.0722007
160.325 3.03003 0.0757265
151.169 3.03279 0.0775314
153.425 3.13824 0.0817137
149.022 3.14655 0.0844838
142.073 3.14449 0.0873226
144.562 3.28458 0.0887935
140.919 3.30201 0.0955431
143.868 3.41737 0.100187
138.461 3.44953 0.105019
137.712 3.48946 0.104895
141.106 3.67576 0.113252
138.37 3.67593 0.115132
134.71 3.66523 0.118531
130.514 3.69836 0.124892
128.315 3.78561 0.130429
134.106 3.93759 0.134053
137.98 4.21714 0.147414
131.776 4.06944 0.144517
132.016 4.13331 0.15209
129.758 4.23179 0.158974
132.162 4.50974 0.171865
127.037 4.3379 0.168438
122.602 4.27565 0.171358
129.916 4.72062 0.190684
133.742 4.89127 0.199472
124.15 4.7256 0.199363
124.48 4.80507 0.202903
125.433 4.95818 0.217073
121.734 4.89336 0.217254
121.746 4.99409 0.22731
125.934 5.31136 0.245956
129.959 5.54769 0.263068
121.198 5.36295 0.257838
113.91 5.12441 0.254267
123.7 5.57871 0.280861
116.51 5.43215 0.272838
120.002 5.72677 0.299111
121.76 5.90939 0.308883
114.196 5.57091 0.298531
115.66 5.85513 0.317186
117.334 6.06881 0.339456
113.041 6.01626 0.337249
111.421 5.9794 0.346894
111.478 6.06485 0.3604
119.192 6.45597 0.381542
112.344 6.20592 0.376194
110.023 6.40471 0.393051
113.349 6.73339 0.41819
116.433 6.9093 0.433767
111.938 6.77539 0.437297
111.501 6.91723 0.454733
110.526 6.97579 0.464731
105.429 6.72737 0.460158
106.566 6.85769 0.467775
110.565 7.35248 0.514778
108.401 7.38574 0.527127
104.544 7.26444 0.524457
107.088 7.56053 0.554665
109.222 7.77563 0.584933
106.962 7.63736 0.584859
106.792 7.79159 0.603133
104.218 7.70762 0.600314
100.658 7.69355 0.604751
104.645 7.9587 0.636254
101.944 7.94385 0.64822
100.429 7.91207 0.66369
101.462 8.23206 0.692763
95.8538 7.89673 0.67471
95.638 7.8974 0.684461
100.623 8.60049 0.752383
98.039 8.56565 0.756092
101.228 8.75851 0.79502
95.2703 8.44048 0.772776
98.1696 8.76742 0.809476
99.6146 8.87848 0.83159
95.625 8.82777 0.842163
93.6855 8.66393 0.840197
93.5873 8.8856 0.877224
94.3202 8.9433 0.888568
98.5794 9.53236 0.9548
90.3339 8.9381 0.911897
95.6813 9.50623 0.981506
92.9519 9.30944 0.990932
100.231 10.2792 1.09325
96.4927 9.89593 1.05514
94.1377 9.94241 1.0923
84.2441 9.02032 0.991503
94.8318 10.2577 1.14614
83.5306 9.14592 1.04213
87.1534 9.76699 1.12565
90.2305 10.1194 1.17123
86.4865 9.81177 1.14949
91.0593 10.4491 1.2377
94.2881 10.9461 1.3156
92.7734 10.897 1.34211
86.4324 10.3234 1.28445
83.9562 10.2254 1.2719
93.8481 11.3598 1.42249
87.3518 10.7977 1.37589
92.819 11.6463 1.49885
84.6529 10.7103 1.41146
84.6629 10.9396 1.44808
82.8678 10.7658 1.42826
84 11.1761 1.51797
86.9947 11.785 1.62285
83.7334 11.2631 1.55589
83.3773 11.4296 1.60147
84.5339 11.769 1.67986
83.9769 11.6991 1.67485
80.3437 11.2321 1.63684
80.778 11.5427 1.67655
77.9161 11.322 1.68463
79.3626 11.7672 1.75408
74.1349 11.0503 1.70323
76.8326 11.3838 1.73644
77.5158 11.7208 1.81098
80.0728 12.2187 1.9109
78.5038 12.1377 1.93116
75.6187 11.8111 1.89642
82.6621 13.0947 2.13013
79.2613 12.5243 2.04948
79.8985 12.7434 2.08949
73.4173 12.0393 2.0311
80.2126 13.1366 2.2003
74.6566 12.5765 2.16187
76.2235 13.0727 2.28501
77.9705 12.9378 2.22383
74.8947 12.7562 2.21845
73.1556 12.6807 2.28157
72.8374 12.7243 2.26576
74.7523 13.2074 2.38299
72.3224 12.98 2.36752
76.1749 13.7921 2.55253
74.1834 13.4845 2.52208
70.2365 12.8974 2.45097
75.1802 14.0498 2.64896
72.4748 13.6599 2.62951
73.9275 14.1631 2.77112
71.3092 13.6242 2.64118
73.4777 14.4034 2.86345
73.9026 14.4456 2.88411
68.3692 13.4313 2.72114
73.284 14.6362 2.9617
68.352 13.794 2.84937
68.0842 13.7853 2.86265
70.6678 14.3948 2.97616
69.3512 14.5038 3.07664
66.413 13.8614 2.97136
66.1912 14.1018 3.05735
68.3166 14.5273 3.16388
68.7157 14.7182 3.20094
68.071 14.7 3.22036
68.7735 15.1315 3.38729
66.842 14.8687 3.33948
64.3586 14.3155 3.25416
63.3176 14.4097 3.32336
66.3016 14.925 3.46095
63.5742 14.5932 3.40535
65.3366 15.089 3.55969
64.8051 15.0478 3.54718
63.787 14.9192 3.55506
60.5358 14.3722 3.50134
63.9703 15.2044 3.70468
62.9583 15.1155 3.70247
62.4232 15.1284 3.7275
60.5147 14.796 3.67669
63.518 15.7719 3.96142
62.618 15.5783 3.93604
62.0184 15.6719 4.04288
59.9227 15.236 3.96799
60.0448 15.2121 3.92977
61.9066 15.9833 4.21901
59.082 15.2442 4.02613
61.8355 16.4702 4.42041
62.3851 16.347 4.38839
59.8035 15.8812 4.29383
61.5508 16.3546 4.45082
59.2152 16.258 4.53807
58.8634 15.8853 4.40881
62.5906 17.3002 4.8558
56.8005 15.86 4.49048
59.9662 16.3371 4.56122
60.6035 17.1327 4.92021
57.8291 16.4134 4.73852
58.5285 16.8796 4.98095
58.2477 17.0069 5.04564
58.9979 16.9661 4.99561
58.7638 17.3307 5.14668
57.1215 16.9469 5.12995
54.9173 16.3135 4.90468
57.8632 17.2753 5.23668
54.3098 16.3095 4.99245
54.4401 16.6102 5.20215
56.1467 17.3782 5.39215
52.4541 16.0402 5.0239
55.8521 17.4928 5.52743
56.3271 17.8166 5.63803
51.0717 16.0992 5.17724
53.3184 16.9511 5.45068
53.9784 17.3093 5.62962
50.9403 16.8375 5.56697
52.1946 17.1507 5.6662
50.8309 16.7203 5.60124
53.5002 17.3704 5.80612
49.7821 16.5414 5.6227
53.0223 17.6973 5.95617
49.801 16.9987 5.89505
51.8576 17.5681 6.0425
51.6079 17.8194 6.16842
49.3488 16.9703 5.93042
49.7061 17.252 6.09617
50.155 17.3553 6.09818
47.5225 16.5899 5.93523
52.1543 18.6354 6.71791
50.0705 17.8626 6.46004
50.9566 18.4761 6.71147
48.5653 17.851 6.61194
48.7804 18.0911 6.79834
49.4805 17.9629 6.65518
48.1857 17.6472 6.60471
50.7977 18.9374 7.18828
51.5831 19.3418 7.34478
51.3751 19.4228 7.3894
48.0389 18.3017 7.1014
47.4878 18.1255 7.08846
49.2115 18.7027 7.20259
46.4081 18.2186 7.22616
46.1567 18.1222 7.20436
45.1756 17.882 7.23686
46.1564 17.9485 7.10875
45.8083 18.1258 7.23083
47.3435 19.1312 7.73547
45.1106 18.4307 7.59441
43.6869 17.9038 7.4867
45.5718 18.2866 7.55885
46.2141 18.7856 7.71462
45.6629 18.9881 7.98394
44.3844 18.3658 7.72811
42.936 18.1528 7.71898
41.8743 17.5665 7.47308
44.8678 19.0938 8.23935
44.5403 19.0769 8.32207
47.3077 20.2993 8.87892
46.2286 20.0569 8.75021
45.4753 19.7032 8.72648
45.4055 19.6895 8.56466
42.64 19.0405 8.65184
44.0257 19.4311 8.70801
42.819 18.982 8.52815
43.2092 19.3552 8.75754
38.5792 17.4214 8.08115
41.2946 18.7808 8.67417
41.6638 18.8702 8.61497
40.4588 18.6834 8.65052
38.812 18.0858 8.53707
43.0197 20.1756 9.47408
42.8338 20.0336 9.45858
39.0749 18.554 9.00357
40.2717 18.9912 8.98077
37.5066 18.0243 8.78877
40.2903 19.2921 9.32253
39.2929 18.9644 9.27661
40.845 19.8568 9.70273
39.2859 19.2411 9.58116
40.227 19.7298 9.7803
39.2945 19.385 9.67179
38.5986 19.1095 9.63644
40.3664 20.0031 10.0385
37.8222 19.0618 9.80325
39.3782 19.7383 9.97784
37.745 19.3917 10.107
37.8737 19.0275 9.73829
38.7366 20.1958 10.5505
37.9526 19.6971 10.3363
37.482 19.6512 10.4883
35.9068 18.4966 9.74278
35.825 18.7746 9.95408
37.2668 19.8846 10.5623
35.833 19.0925 10.3319
35.4592 18.7482 10.2491
38.2337 20.3076 10.9587
36.43 19.6968 10.7572
35.8454 19.9142 11.2385
36.4469 19.578 10.8204
36.1611 19.9441 11.1404
37.5619 20.5251 11.3667
37.4236 20.3662 11.2363
37.0633 20.7703 11.7356
36.8401 20.2882 11.2148
34.4645 19.6631 11.2763
34.1085 19.2427 11.0181
34.9251 20.3632 12.0639
37.0328 20.6773 11.7717
32.8907 19.0191 11.2017
34.1862 19.8559 11.6435
33.6563 19.4376 11.3955
34.6712 20.3311 12.0236
33.9698 19.8099 11.5798
33.1671 20.2409 12.4178
33.9777 19.5307 11.4621
34.5914 20.6427 12.3267
32.1569 19.3234 11.731
32.2767 19.7757 12.1784
33.0307 20.2579 12.4835
33.2237 19.8503 12.0039
32.4946 20.1055 12.5129
31.6431 19.6052 12.2673
30.0545 18.9394 12.234
33.6827 20.9275 13.2685
32.1923 19.6759 12.2231
30.8729 19.97 13.137
33.0495 20.3316 12.7337
30.6081 19.3435 12.409
30.2969 19.2495 12.4676
30.2938 19.2972 12.4597
29.6237 18.8551 12.1438
28.3593 18.5564 12.3876
32.4317 21.2649 14.0289
31.9762 21.1241 14.1169
31.6317 20.556 13.5651
29.8794 19.628 13.1152
30.2305 20.0242 13.4356
29.9263 20.1223 13.5835
30.2483 20.2692 13.6967
30.8428 20.9633 14.336
30.5108 20.5106 14.1244
30.0431 20.5396 14.2086
29.3078 19.7756 13.4467
29.2057 20.5888 14.6824
31.1346 20.865 14.102
28.9443 20.3873 14.4642
28.7123 20.05 14.0914
28.5962 20.0315 14.2642
27.896 19.5772 13.9632
28.491 20.1279 14.4066
27.3313 19.3833 14.0273
28.1987 20.1276 14.5776
28.8825 21.079 15.5337
28.7713 20.4858 14.9039
28.5156 20.2455 14.6075
27.2811 20.1854 15.0799
29.1704 21.0643 15.4019
27.8384 20.478 15.0129
26.6233 19.8504 14.9658
26.6087 19.6702 14.9145
27.9711 20.3801 15.0595
25.9006 19.2551 14.5161
27.2509 20.6332 15.752
26.3809 19.8239 15.1414
26.7026 20.1396 15.2904
26.0935 19.8066 15.3319
26.1481 19.9449 15.5102
26.2214 19.9094 15.3698
26.1448 20.2969 15.9352
25.5549 19.8578 15.6042
26.0966 20.3194 16.1209
26.6906 20.6945 16.2155
25.3789 19.6494 15.41
25.9443 20.5938 16.4769
26.4147 20.7328 16.5549
26.4451 20.9637 16.7929
25.8907 20.7855 16.7963
25.8239 20.4869 16.5979
25.0079 19.9428 16.1763
25.4551 20.5714 16.8289
24.7795 19.9747 16.4696
24.7317 20.3247 16.8821
26.5018 21.6305 17.6176
24.1073 20.0943 17.1281
25.7115 21.0304 17.5312
25.7801 21.3991 17.9058
25.1984 20.8919 17.5093
23.6794 19.9915 17.1908
25.0453 20.8535 17.5193
24.0656 20.5703 17.9168
25.714 21.5886 18.3215
24.0342 20.1797 17.402
25.5581 22.0692 18.9573
25.1019 21.421 18.3445
22.6564 19.5227 17.0237
22.9129 20.0064 17.672
22.7924 19.9365 17.6733
23.6972 20.8407 18.4406
23.7167 20.827 18.2213
22.9971 20.3883 18.2819
23.9734 21.1199 18.9117
23.743 21.0922 18.8241
23.5802 21.2747 19.465
23.7353 21.191 19.0273
23.0282 20.6451 18.81
23.3915 21.4477 19.8962
24.3261 21.5705 19.5341
23.8544 21.2942 19.0124
22.4582 20.5789 19.1683
22.779 21.2745 20.1789
23.689 20.6301 18.4906
22.2471 20.7699 19.41
22.03 20.2985 18.8852
22.6133 21.1821 20.1231
22.0869 20.3887 19.1489
22.8458 21.3815 20.1043
22.9452 22.0422 21.2492
22.7661 21.2728 20.3793
23.1303 21.8482 20.6896
22.6178 21.6006 20.7649
22.538 21.6367 20.913
21.9661 20.941 20.0445
21.0151 20.8089 20.953
22.7541 21.6504 21.0472
21.9575 20.9368 20.504
22.211 21.4124 20.8086
21.7053 21.7103 21.8598
21.4846 20.7197 20.5388
20.9181 20.557 20.3712
21.047 20.8238 20.773
21.9353 21.8938 21.8046
20.1315 20.0017 20.3203
21.862 22.2348 22.6912
21.0009 21.0943 21.5289
20.7399 20.9627 21.5704
21.0696 21.0956 21.2781
20.3908 20.5035 20.7017
19.4242 20.4141 21.5916
20.7371 20.7877 21.3303
20.6916 21.3267 22.2515
20.8125 21.6556 22.4877
20.2999 21.2139 22.4345
20.6376 21.5943 23.0012
22.0261 22.5691 22.897
19.2087 20.6583 22.5046
20.5942 21.7574 23.2828
19.8702 20.6424 22.0095
19.8448 20.7544 21.8562
19.7957 21.4208 23.2448
19.501 20.7183 22.4224
20.1415 21.2215 22.5335
19.5026 21.4585 23.6385
19.246 20.3178 21.8598
18.5275 20.2148 22.3154
19.2564 21.4324 24.2809
20.1647 21.1268 22.455
18.2171 20.4803 23.4321
19.9994 21.2781 23.2666
20.149 21.7917 23.5192
19.7853 22.4367 25.2785
19.5799 21.6817 24.1072
18.7949 21.1172 24.0428
19.0267 20.687 23.1962
19.2743 21.763 24.4933
18.2559 20.4441 23.331
18.311 20.7072 23.393
17.8578 19.7096 22.5271
18.4323 21.3 24.7239
18.3777 20.5227 23.2519
16.9805 19.4868 22.8652
18.3183 20.7497 23.4703
17.3365 20.1953 23.9381
18.151 21.0982 24.8945
17.8142 20.756 24.7423
19.2341 21.6102 24.7822
18.2588 21.1639 24.5699
17.1429 19.9944 23.6689
17.5308 20.7255 24.8084
18.2793 21.7508 26.028
17.4202 20.1865 23.8426
16.4131 19.1311 23.092
18.1551 21.6155 25.3615
16.7828 20.094 24.6774
18.0184 21.6776 25.9845
17.1285 20.7127 25.3725
17.7414 21.8711 27.2012
17.9165 21.1428 25.4146
17.3984 21.4153 26.5327
17.4876 21.5762 26.9326
17.1077 20.3354 24.866
16.0525 19.8414 24.8618
16.6368 19.8861 24.6216
17.3491 21.5343 26.4617
16.9581 20.8809 25.7695
15.6891 19.5614 24.7466
16.2253 19.9354 25.0248
16.1789 20.1651 25.4554
16.2409 20.3184 25.725
16.2282 20.064 24.9502
15.8905 20.2682 26.1445
16.3216 20.7947 26.5865
15.0291 18.6792 24.0599
15.5272 19.8206 25.6663
16.0949 20.4104 25.7699
15.351 20.0328 25.9263
14.5421 18.9135 24.9307
14.8724 19.0657 25.1031
15.4739 19.7319 25.4087
15.4311 20.4689 27.4052
16.0887 20.4487 26.0874
14.9711 20.0864 27.0033
14.6266 18.7812 25.1401
15.2503 19.9172 25.9077
14.6646 19.8716 27.3316
15.3449 20.0635 26.8233
15.5552 20.7208 27.5074
14.185 18.9313 25.8785
14.4294 19.3713 26.3255
14.244 18.7483 25.9098
16.1431 21.3121 28.104
15.287 20.7754 28.3051
14.681 19.6872 26.9134
14.9613 20.4485 27.9875
14.5763 19.9453 27.8063
15.1333 20.8903 29.044
14.9343 20.2826 28.1921
15.3766 21.0271 29.2543
16.2907 22.4595 30.5462
15.001 20.7728 28.9638
14.6255 20.2051 28.5455
14.5295 19.8621 27.4151
13.4029 18.8807 27.1977
13.9276 19.2891 27.2278
13.3815 18.9095 27.551
14.1824 19.3469 27.3277
14.9896 20.5222 28.0639
13.3404 18.926 27.3279
13.7302 19.7079 28.4311
14.2248 20.4389 29.6265
13.9006 19.5433 27.8176
13.236 18.9606 27.6683
13.8504 19.8265 28.5009
12.993 18.3496 26.55
13.6747 20.1262 29.917
13.6953 19.5991 28.9402
13.7769 19.5877 28.2676
13.6989 19.8709 28.7318
13.4269 19.743 29.2445
12.3881 17.885 27.1164
13.5763 19.5392 28.3879
12.8246 18.9839 28.2567
12.9605 19.181 28.9943
13.4617 19.7006 29.3795
13.0385 19.2903 29.3347
13.4129 20.1314 30.949
13.3834 19.38 28.8119
13.8267 20.6296 30.1392
12.6144 19.535 30.3728
13.061 19.6165 30.4787
13.3798 19.3957 28.6599
11.9854 18.003 27.8225
12.0578 17.7805 27.1099
12.5163 19.4505 29.9879
12.2235 18.4165 29.0091
12.8014 18.4764 26.9398
11.7573 18.4738 28.5726
12.0412 18.8919 29.7559
11.8916 18.4959 29.4778
12.3512 18.8062 29.2327
11.5458 17.9643 29.3023
13.2731 20.4526 31.6913
12.6871 19.5765 30.8848
12.5451 19.0156 30.0572
13.2827 20.4316 31.2536
12.1034 19.4595 31.1178
12.3385 19.1755 29.9663
11.6533 18.6639 29.7651
10.9095 17.0592 27.8057
11.7298 18.7399 30.065
11.5624 18.2188 29.7047
12.3477 19.7016 31.6621
11.8726 18.5074 29.4464
11.1372 17.919 29.4775
11.8362 19.2885 31.487
12.0598 19.3118 30.8898
12.1255 20.1053 33.5349
12.2801 19.1103 30.5788
11.5821 19.0761 30.8853
10.7852 17.7594 30.0516
10.8763 17.7514 30.2719
11.9568 19.882 33.2928
12.3101 19.7493 32.4212
11.9017 19.5069 31.8272
11.2607 18.5979 31.4067
11.3946 18.3908 30.2192
11.0389 18.4634 30.4789
10.6631 17.801 30.0976
10.8719 18.5142 32.0494
11.3658 18.7021 31.3102
11.3306 19.6128 33.5484
10.8486 17.8109 30.9615
11.5944 19.5085 33.2668
11.4335 18.9642 31.6197
10.4807 17.8042 31.2844
11.5241 19.3454 32.2806
11.1753 19.2096 33.1146
11.0771 18.6893 32.2146
11.2764 19.3421 32.6102
10.7043 19.1132 33.8992
10.454 18.1044 32.7781
10.8468 17.7148 29.9794
10.5959 18.3354 32.1792
11.062 19.0963 32.8182
10.3901 17.9291 31.5322
10.8575 18.994 32.6008
10.7025 19.4145 34.8362
10.6232 18.8058 34.1187
10.3237 17.8173 32.2104
10.5182 18.3207 32.6481
10.4148 17.9896 31.7875
10.344 18.2493 32.9218
11.1303 19.6403 34.5108
11.1488 20.0931 35.4752
10.1039 17.7593 32.0942
10.2907 18.5674 33.6762
9.98549 17.6772 32.6895
10.4678 18.3673 32.2005
9.70334 18.004 34.1458
10.877 19.4413 35.3606
10.5579 19.0511 35.0284
10.7173 19.0435 33.7612
9.78879 17.7076 32.9624
9.96968 17.5425 31.6075
9.67512 17.9733 32.8189
9.15081 16.6044 31.3504
9.1625 16.4391 30.6675
9.92105 18.6783 34.922
9.83551 17.5549 32.6386
10.2058 18.8974 34.3159
9.71342 18.5568 35.2464
9.68736 17.0915 31.4357
9.20236 16.8885 31.0604
8.8846 17.3323 33.9145
9.68507 17.7108 32.7365
9.11484 17.5891 34.7828
9.71898 17.6804 33.7072
9.85904 18.0168 33.1917
9.48603 18.0483 33.8323
9.28603 17.9806 35.0352
9.47333 17.3368 33.0941
9.32262 17.1974 32.158
8.91543 17.1817 33.7282
9.58673 18.3037 35.0367
9.23295 17.1593 32.7502
9.32804 18.2748 34.6899
8.6803 16.4439 32.2824
8.68146 17.1474 34.4823
9.24751 17.7602 34.858
9.16862 17.1563 33.6605
9.49586 18.2266 34.7007
8.90156 17.536 34.7126
8.80898 16.8258 32.9213
9.02771 18.3664 37.1236
9.45379 18.2904 36.7745
9.53354 17.7951 34.9167
9.33437 17.9623 34.7321
8.44762 16.6298 33.2575
8.53503 16.6437 33.7609
8.99441 17.3684 34.603
8.98691 17.5299 34.4081
8.64076 17.2246 35.3958
9.08347 17.6445 35.1096
8.92033 17.196 33.017
8.30772 17.1722 34.0338
7.75112 15.9286 34.4846
8.92832 17.226 33.8863
8.76614 17.7573 35.2901
8.59562 17.8815 36.2821
8.29129 16.8681 35.2492
8.39903 16.5573 33.5724
8.2004 16.8393 35.5385
8.71758 17.3193 34.6964
8.18019 16.5558 34.0362
8.13834 16.4307 34.269
8.17237 16.6321 35.5487
8.65409 17.2211 34.8213
8.50113 17.5542 36.0024
8.0079 16.6891 35.9891
8.4563 16.905 35.4004
8.67354 17.6276 35.9492
8.30897 16.8055 34.5107
8.22067 17.0546 35.5004
8.2111 17.0982 36.2211
8.3087 16.9137 34.6409
7.82585 16.604 35.8184
8.05038 16.4683 34.5787
8.31067 17.3305 35.5271
7.57272 16.0814 34.7276
8.00306 16.8299 35.2193
7.99615 17.1922 36.8971
7.83491 16.2147 35.0962
7.69115 16.0803 34.363
7.56133 16.3954 37.1691
8.52085 17.2787 36.1189
8.04237 16.9803 36.0073
7.51712 15.5296 32.9265
7.59293 16.6062 35.6492
7.56748 16.2852 35.3959
7.36165 15.4491 33.6488
7.72674 16.9147 36.4684
7.58299 16.3967 36.2349
7.75995 16.4729 35.7733
7.58642 16.3961 35.7353
7.54657 16.4329 36.2551
7.74263 17.0212 37.2335
7.52445 16.3199 36.3784
7.67161 16.3576 35.819
7.5626 16.7776 37.3069
7.51206 15.84 34.4899
7.28223 16.3779 36.5989
7.04513 14.8866 33.9992
7.43601 16.1855 35.5913
7.52743 16.1968 35.1035
7.27946 16.1446 34.6498
6.89683 15.7256 35.4984
6.96416 15.7529 36.5122
7.50669 16.906 38.6114
7.54457 16.7935 37.9806
7.22562 15.194 33.8514
6.9063 15.6935 36.9612
7.64879 16.7331 37.0158
7.05845 15.3508 33.9616
7.09434 16.4954 37.4027
6.74076 14.742 33.778
6.93347 15.8517 35.9311
6.90335 15.5849 35.9611
6.70394 14.8257 34.5934
7.34501 17.1045 38.9039
7.41717 16.7364 37.3766
6.8236 15.729 36.4623
6.66745 14.7396 34.7839
7.20655 16.702 37.171
6.61548 14.7486 34.0684
6.80605 16.2479 38.2937
6.9977 15.8907 36.4953
6.55709 15.1564 36.4264
6.93562 16.4111 40.4707
7.74341 16.5599 35.2523
6.41108 15.9779 39.6818
6.97317 15.4922 36.6459
6.62775 14.9478 35.7508
7.15697 16.6168 37.6705
6.80974 15.5537 35.292
6.32323 15.666 38.7373
6.78092 15.2807 36.5267
6.78714 15.6659 37.6225
6.72577 15.0165 33.9813
6.1418 14.7914 36.1069
6.58732 15.6281 37.0061
6.27932 14.1271 33.7431
6.34961 15.2475 36.9508
6.703 16.0567 37.3043
6.31054 14.5855 35.4161
6.49896 15.7096 37.9724
6.47875 15.3196 37.0413
6.47856 15.6681 38.7255
6.8674 16.0518 38.3675
6.45522 15.1875 37.0266
6.48242 15.3205 36.4214
6.48598 16.2808 41.7309
7.1873 16.643 38.1534
6.17459 15.6056 41.0537
7.00084 16.1635 39.346
6.91082 16.5732 40.088
6.58935 15.4955 37.8045
