# pn-170911/RbIIR-44-PTBB-1280-1959.psd
# Power spectrum* (dif=0,1,2) (really just |FT|^2)
# NOTE: only the first half! (symmetric)
# weeks: 1280-1959
# 8 clock-days, 0 excluded
# PSD: 1441
2296.26 0.0538429 0.0249557
91332.8 2.2162 0.00809185
238034 3.79708 0.00807912
47068.5 1.08439 0.00848647
55821.4 3.4034 0.00863088
13158.4 1.13537 0.00854301
10154.2 0.705598 0.00766901
7544.18 1.66803 0.00901455
7293.26 1.66948 0.00932717
2988 0.579546 0.00897913
2753.86 0.366246 0.00940332
1759.49 0.6807 0.00916424
2584.04 0.792294 0.00990817
3216.89 1.13716 0.00783165
2132.91 1.56509 0.0112901
2201.03 0.881574 0.00771534
1326.15 1.79954 0.0121456
1753.41 2.08917 0.0100672
1087.07 1.0336 0.00844048
1971.82 1.27608 0.00951316
1589.48 1.72368 0.00803983
719.938 1.06089 0.0133587
878.518 2.47177 0.0112074
902.519 1.89465 0.0173593
674.168 1.48038 0.00890344
655.326 1.57284 0.0152716
930.224 2.08069 0.0169964
606.869 1.09906 0.0107178
923.253 4.4059 0.0280294
1377.6 5.55703 0.033927
1542.7 4.60976 0.0254048
519.261 1.95267 0.00847653
1295.82 5.57012 0.0411587
1549.8 5.26294 0.0345996
1473.62 5.99934 0.0339893
947.8 3.55601 0.0385422
1007.09 5.31019 0.0340839
1083.04 5.67778 0.0420955
541.012 3.67446 0.0269181
582.13 3.76777 0.0354219
489.692 4.56453 0.0414434
416.099 2.46969 0.0251789
529.07 3.67635 0.0330917
762.988 5.46979 0.0593939
782.458 5.63826 0.0612843
705.423 5.47832 0.0569637
305.55 3.38895 0.0308908
939.074 8.14079 0.0887625
343.517 3.4654 0.0414349
935.702 10.9341 0.14173
791.372 7.80146 0.0877505
834.175 8.7513 0.100428
658.934 6.72777 0.0972456
672.3 6.20372 0.0859506
530.677 8.18924 0.110787
617.928 7.36235 0.114442
566.977 7.57585 0.132172
478.789 5.50153 0.092112
566.184 6.61202 0.102029
362.277 6.77249 0.129432
771.836 11.0167 0.239093
464.38 6.15905 0.124836
621.894 8.9688 0.187523
501.466 9.61624 0.179935
432.39 8.54381 0.174145
689.687 16.1108 0.325535
319.337 5.35685 0.12911
458.34 8.30037 0.190312
428.574 11.3247 0.271125
440.53 9.16163 0.199329
470.849 8.43786 0.209935
1426.07 33.3854 0.882721
464.178 9.3513 0.229401
175.664 4.43171 0.106412
237.505 7.4218 0.188027
292.294 6.83251 0.187621
414.564 9.8635 0.323679
598.83 15.657 0.442404
177.666 3.42975 0.101513
322.392 8.78634 0.285203
301.724 9.80094 0.335957
381.582 12.6238 0.392418
509.078 15.5958 0.558617
288.922 9.25672 0.291415
127.506 4.69453 0.18472
326.815 11.004 0.405292
370.173 13.7139 0.44856
702.924 20.7524 0.777694
202.011 7.78353 0.350326
414.57 13.3799 0.458969
277.635 11.8697 0.467859
310.822 10.3037 0.426741
280.006 9.99009 0.410786
243.154 7.80208 0.340927
432.383 18.9295 0.76752
377.649 14.2354 0.580246
560.027 20.9393 0.904445
205.353 8.28309 0.394468
294.624 13.7015 0.634721
406.327 19.8218 0.893474
169.37 7.37898 0.348665
224.392 7.72857 0.381474
277.518 12.1166 0.631907
314.355 14.9587 0.810821
220.949 10.4425 0.549589
224.698 11.4444 0.591004
101.608 5.0655 0.328386
301.406 14.5546 0.799673
462.002 25.2396 1.4444
184.858 11.0931 0.629651
324.61 18.4688 1.09153
206.458 13.0339 0.810461
492.044 27.8746 1.76071
257.774 17.6243 1.10352
229.782 11.5191 0.695529
222.751 13.5356 0.895895
119.754 6.0013 0.378664
124.259 8.36429 0.54616
201.087 15.3391 0.983336
162.46 12.1104 0.874701
155.64 13.6991 0.931679
240.667 12.6687 0.856382
119.328 8.53662 0.605765
242.714 17.6844 1.33789
170.023 11.5008 0.956812
199.564 12.4202 0.875079
124.706 9.39739 0.776791
222.09 17.9819 1.43725
141.252 10.193 0.717667
184.374 12.4396 1.12013
123.294 8.66297 0.6626
144.152 10.3947 0.954685
182.361 11.7823 0.888916
203.162 17.8484 1.43906
191.352 18.4976 1.56143
158.36 14.4518 1.2181
115.525 10.1175 0.908338
103.285 9.95851 1.01228
197.697 15.2755 1.4485
90.4379 6.59338 0.473026
96.7278 9.32959 0.918119
132.56 11.8155 1.09167
227.246 18.2866 1.71377
113.422 11.5112 1.15499
157.562 19.9619 2.2009
147.935 10.9592 0.832958
204.376 25.3587 2.58051
166.958 15.8569 1.60976
276.265 24.6166 2.5596
116.51 8.15132 0.799204
210.321 22.1527 2.36186
158.029 16.545 1.75145
174.15 19.0068 2.03845
89.9568 9.65934 1.10257
161.583 14.0809 1.49405
107.549 10.3907 1.21035
234.294 26.6194 3.06597
40.8431 4.60871 0.620541
47.7096 5.69306 0.731612
89.2072 12.1938 1.51851
144.78 18.4186 2.19702
188.298 22.5437 2.9167
205.561 23.5143 2.8545
76.0474 9.84584 1.34522
106.699 17.1497 2.5218
58.5894 10.2037 1.4516
127.23 14.9579 2.02051
109.549 11.5541 1.60083
133.772 16.6209 2.32764
114.906 14.8906 1.93862
120.959 14.1963 1.95676
85.4532 14.5389 2.21609
157.272 16.1763 2.15376
125.065 18.9325 2.58107
97.5775 13.0007 2.12089
110.235 18.81 2.66746
137.881 18.7074 2.68893
43.5122 5.52033 0.895363
191.533 27.548 4.01432
77.1179 10.178 1.4649
150.622 23.755 3.70128
62.1248 11.3484 2.0866
184.028 28.4066 4.05948
92.4445 14.9022 2.5536
100.126 17.5695 2.83774
152.479 26.4326 4.48909
153.523 23.6466 3.63981
61.3446 6.64364 1.1073
114.333 19.2786 3.2659
81.0009 13.8303 2.55402
83.1746 12.2823 1.74568
83.6337 12.0867 2.34789
309.317 53.4271 9.00707
114.665 13.6945 2.08332
73.362 11.7375 2.13814
110.07 19.6487 3.86513
197.326 33.888 6.19911
141.28 20.0373 3.26536
98.6603 17.1368 3.00286
111.438 18.9605 3.6035
44.5107 8.72984 1.88978
84.9026 15.8026 3.20292
140.813 24.6366 4.3766
89.9777 15.7269 3.03813
148.386 25.8634 5.6989
52.4487 10.2326 2.09721
89.441 17.7103 3.94499
109.996 21.9411 4.03456
106.964 22.6894 4.42347
106.711 18.5607 3.63357
73.4185 16.1944 3.58844
74.0885 12.927 2.54941
112.017 21.4202 4.54962
123.32 24.1298 4.85694
88.0145 20.8975 4.31466
44.077 11.0649 2.67825
67.3832 13.4255 2.75311
68.6336 14.992 3.70778
84.7908 14.0617 2.8467
82.4496 15.2149 3.37704
121.323 26.8234 5.93644
116.369 28.1702 6.72649
108.511 25.384 6.86222
74.0038 19.051 4.33713
89.2421 18.0952 3.73438
75.5023 19.0743 4.67101
110.694 22.8892 5.2091
86.7658 21.4382 5.74023
108.752 21.2093 5.03687
95.5156 19.2564 4.49537
90.0561 19.2318 4.72388
53.2795 13.789 3.23487
145.815 35.1644 8.39305
76.697 19.7068 5.6055
78.8642 16.7477 3.62409
100.266 25.587 7.82056
102.4 27.1874 7.2648
116.136 24.4994 5.85513
54.6513 14.5817 4.11275
169.318 38.764 9.28149
90.1527 21.7774 5.50229
83.9571 22.8258 5.98147
64.1976 18.3559 4.97894
69.3729 16.9718 4.94827
94.1115 22.6612 6.19706
49.6046 14.2549 3.70889
67.2135 20.6358 6.03634
50.9926 15.925 5.35157
78.7527 21.418 5.97809
88.7391 24.0918 7.44895
112.178 32.3862 8.97964
50.4464 16.9092 5.86694
102.429 26.8508 7.30215
97.03 27.8475 8.1938
77.9111 25.3316 7.72542
29.2477 5.63396 1.50756
66.8128 19.4878 5.04716
101.971 33.7048 10.341
80.2839 22.5017 6.30389
48.0676 20.3945 7.20024
47.5982 13.9366 5.10711
90.2361 19.3363 5.11409
57.1141 15.6153 5.22803
103.082 32.1477 9.29119
31.9906 11.0227 3.83983
46.1359 13.4283 5.09545
60.2857 21.8064 7.46218
96.3887 24.3658 7.76388
73.4649 18.7246 5.73407
32.0393 10.8871 4.24597
84.1243 26.8296 9.07848
98.7442 31.9017 10.7951
48.1957 16.8288 6.1555
37.3612 10.684 3.44623
92.411 30.5479 10.8928
45.8428 13.775 5.07476
56.0746 19.2711 7.68358
91.2884 31.1222 10.0853
116.941 39.4742 14.1553
75.2683 22.0023 7.39158
66.9329 23.8447 9.88869
37.544 14.0662 4.98763
37.655 11.2775 4.11566
37.7692 15.1724 5.21488
89.1551 33.3595 11.6825
41.0031 15.3954 5.91476
58.5072 18.9523 6.14629
52.9332 21.2203 8.08756
94.9812 34.2524 12.8324
45.6033 16.4985 6.97059
67.8109 24.7706 10.0872
36.3632 14.6811 5.52859
80.4883 31.8281 12.4967
82.5816 28.1413 9.49385
69.6548 28.0135 10.488
28.7071 16.8619 7.70315
43.25 13.3922 5.69045
52.4909 22.9449 9.80826
42.7999 14.4694 4.98358
38.7511 14.6636 6.16606
80.4567 33.0122 12.1975
36.3642 16.3667 7.17551
34.6339 17.4329 8.785
57.0718 23.0331 9.73798
26.5243 9.13026 4.2021
70.854 29.3954 13.2868
57.9993 19.6237 7.06608
86.7482 31.0631 11.7478
33.1148 12.6066 5.91544
56.2255 24.8768 10.9574
51.075 22.4655 10.2699
56.4583 21.0181 8.27445
41.7506 21.3739 10.0791
91.7729 42.0156 19.1527
61.0273 22.0521 8.52118
44.6037 20.6381 10.7646
39.6996 17.4197 6.94945
28.5001 13.1406 5.88269
73.089 33.8734 15.7805
47.4338 22.1015 10.6652
69.5237 33.6193 15.5512
35.2121 13.6843 6.35931
27.7756 9.27732 3.88851
42.8442 20.705 11.1045
50.0966 19.5685 8.8788
43.1162 18.4427 9.1768
35.5164 18.1131 11.1521
37.3527 18.781 8.0757
46.6236 22.4952 10.0228
24.6187 11.7402 5.56481
28.4617 13.718 7.17424
30.2529 11.4147 5.46023
50.886 25.3038 11.894
31.383 14.3141 7.16579
58.7263 30.3836 15.7041
21.9784 13.0538 8.30951
28.077 12.556 6.42044
37.4116 16.7625 7.59756
19.1926 10.9807 6.10834
30.7524 13.6849 5.93824
39.8962 23.8459 12.7909
23.1149 11.9348 7.38355
29.9913 10.3564 4.50555
46.3036 28.6501 16.0204
41.0223 15.5181 7.1687
39.7002 22.5256 14.2978
32.2589 12.9183 6.57739
36.149 18.8048 9.91393
37.6372 17.8774 8.80895
37.6422 22.9104 13.9616
37.2917 17.969 8.52136
27.368 12.3281 6.37285
54.4651 28.6033 16.6725
60.4261 29.9576 16.9068
44.9998 21.4966 11.8097
47.4125 28.0608 15.4788
33.8105 24.7818 16.7844
27.4366 14.5934 8.13755
45.6774 28.1207 15.7553
27.9938 12.8028 8.01914
21.4031 10.6899 5.53131
22.8355 15.7912 11.444
19.9846 9.84338 7.28881
69.6879 38.7747 21.0316
36.9369 17.0875 9.57121
13.9277 10.9852 8.70701
38.4289 17.8987 9.53461
25.4679 12.7407 7.31766
21.1208 13.1035 8.14644
31.2565 14.0003 6.81481
30.615 23.5732 17.1068
44.9783 20.0915 11.143
58.1529 32.224 16.3995
26.2893 19.7583 14.6213
65.4977 40.3638 25.6461
45.5504 28.2681 18.9775
18.7212 9.37921 5.70284
34.6662 19.0315 11.1143
44.8794 28.6595 17.3491
19.4981 14.3041 11.0936
21.6144 14.1703 11.1833
29.8726 17.8826 10.8647
36.8593 25.7075 16.8084
46.7114 37.1836 28.6491
86.7022 53.3104 31.5326
21.4423 17.9287 15.5937
55.516 29.4459 16.4121
26.6728 19.8148 15.834
48.7172 21.1419 10.4599
29.7354 18.4263 12.5784
40.3781 20.0977 11.7863
40.1531 29.5003 20.7376
38.9675 20.5398 11.8733
65.3892 50.7893 37.8619
44.2426 24.172 14.4631
31.2663 18.1088 12.9404
22.1689 17.9069 14.0483
31.4817 21.1915 14.0496
26.6564 15.399 10.7141
18.1893 13.1696 9.74996
26.8673 18.7668 15.3002
16.4181 8.47272 6.13852
14.6792 10.0478 7.87429
18.6176 11.8475 8.26512
18.7424 12.2962 8.64895
32.8223 27.1648 22.0537
15.4334 10.0766 7.30018
27.1851 18.8911 14
14.7922 10.6741 9.34903
19.5347 20.2495 17.7318
29.5566 19.6966 11.9543
21.7146 19.9331 16.5667
25.141 18.6324 16.8546
30.9509 19.0642 13.0214
30.1513 25.9742 20.39
35.1055 25.5147 19.2456
23.2436 16.1744 13.3421
21.8713 15.9095 11.5886
54.5998 37.1221 25.3518
25.1078 22.7403 19.4369
20.9301 14.5431 12.33
27.6793 21.9119 16.7522
22.668 16.0232 11.8544
22.1722 17.1236 12.8618
22.313 17.3225 13.275
16.0207 15.9453 12.1019
12.7379 12.3359 11.2947
14.2587 9.40933 10.4151
50.9578 37.0842 25.6427
21.8986 16.9109 15.1894
36.6349 27.9908 19.5132
22.1692 20.3263 18.822
21.7728 19.1934 14.61
17.3493 14.1433 11.9449
15.4514 11.6211 9.89865
23.6472 21.8877 19.4187
13.0855 9.18282 7.44336
19.2655 20.1127 20.4177
25.3037 15.4788 9.97966
17.7249 17.0528 15.8202
27.3666 21.7558 17.7277
39.0883 32.0282 27.9386
24.1101 20.1707 17.1484
27.2081 22.9005 20.1523
25.5773 20.5852 17.7531
22.9436 18.3357 15.8654
21.7915 19.8479 17.8819
41.5138 40.7157 37.3964
23.5494 18.4743 16.3671
31.7956 25.1059 19.1179
18.8653 15.6049 12.7719
27.016 25.4149 22.0787
21.4866 21.6546 23.5124
35.0317 28.7695 23.294
17.8248 14.1328 12.771
19.2598 15.2898 11.7373
14.4462 13.7361 14.0149
10.2812 10.3651 10.1957
18.7097 17.904 16.6265
14.122 14.5252 16.3694
31.1379 26.5635 23.0877
28.869 24.3972 19.8682
7.64907 10.9867 13.2907
33.0783 31.6018 31.3004
23.0487 19.3614 21.4214
22.376 14.375 10.9417
25.0145 21.4566 18.6054
7.09495 5.902 7.03648
15.5289 15.1629 12.6902
20.0331 20.4418 21.0568
16.8517 16.0448 17.6869
21.8927 17.7791 13.9959
14.8484 13.003 13.434
16.8383 12.097 11.8385
24.8433 21.6852 19.606
16.9078 18.4749 19.526
14.6106 11.8372 11.136
16.7282 17.8548 16.0463
11.1637 13.6384 15.1626
29.2008 28.4663 28.4993
42.3622 40.8755 37.4757
11.4925 8.55465 8.28736
20.4422 21.2328 21.1112
29.4863 28.7725 28.8103
21.6261 20.9655 21.5424
18.1767 19.2498 23.216
12.4004 10.9457 12.8871
25.2668 24.2097 21.8164
20.3649 18.1528 14.2962
24.9482 32.3333 35.0243
16.9308 18.1583 20.25
17.2965 17.0382 17.1349
7.56214 10.4601 15.568
21.7984 18.4959 15.967
36.1932 47.9718 53.3814
22.7214 17.2378 14.4768
21.9998 25.4523 25.2081
18.8089 21.1534 24.0978
17.2044 17.2057 21.3319
32.1131 31.6536 29.191
11.9618 12.4035 14.1687
21.8332 23.6879 26.8273
15.1957 16.18 19.353
9.17235 6.30673 6.70871
13.6091 15.3651 21.4375
22.0566 24.7895 28.5664
33.8213 28.6571 25.7024
18.9356 19.8749 23.7077
23.9741 23.2802 21.6612
13.2536 15.4247 21.2094
17.4268 14.6594 15.0253
16.2204 19.2653 21.7706
19.0468 17.0029 18.4887
19.369 16.6278 17.1533
18.5121 21.8209 21.5236
15.3904 16.5763 19.0409
8.38562 9.45823 12.9539
9.11836 8.67467 7.06601
19.3573 26.9862 33.1763
18.904 16.4943 18.3922
21.2332 23.4377 22.6447
20.1614 21.836 26.4314
24.4834 34.4123 51.6284
43.1544 40.4701 30.1215
23.4475 37.9325 51.0286
13.6235 12.7424 19.3076
22.701 26.0449 32.2838
20.4175 20.6899 21.8662
12.2871 16.2069 24.6909
15.7359 21.1333 27.8078
17.2312 14.8314 13.3781
12.7555 13.6101 12.8997
11.2563 15.4159 21.3315
14.786 13.4064 14.5326
25.5969 30.0319 27.3664
19.0828 29.5848 36.9492
13.7396 14.4632 22.0464
21.0477 24.6452 25.936
8.70068 13.1266 23.9019
31.7464 31.9171 33.284
8.73 12.1469 19.7079
22.8329 27.7926 39.1822
27.581 30.0622 29.7864
14.4438 19.0276 31.887
22.4269 24.4119 24.1481
20.4794 24.221 28.052
10.3281 18.706 25.7427
9.64519 10.3332 14.2863
6.67529 6.89421 10.7815
21.2044 27.0425 33.6842
21.424 23.6532 24.2129
15.7352 28.5387 38.0412
11.3869 13.7608 21.883
8.50037 8.951 16.7752
10.8985 12.7168 19.6159
31.6203 36.225 35.4449
17.7895 26.4797 33.158
20.1818 31.3436 36.1832
14.7152 27.3238 38.7039
16.4905 22.2182 34.1088
11.4061 12.53 17.4026
5.55313 4.26124 9.94824
20.986 27.3056 32.8986
8.07066 12.4954 25.4154
15.2681 13.9858 12.3304
7.92565 12.4326 23.1933
14.8842 11.2992 15.7465
20.2799 26.0362 26.8238
13.8252 21.1818 35.6362
13.8117 14.3449 15.1692
13.1935 15.0378 21.3724
14.1898 20.3315 22.4823
8.3516 12.6857 19.4569
10.0039 12.4995 16.252
11.4146 14.5434 20.1017
7.68332 10.8809 27.3523
44.2925 59.9614 65.6305
17.0501 24.7722 35.9203
21.6133 21.5255 21.6033
12.8557 18.0943 25.0986
15.0752 23.3197 34.048
10.4797 9.51302 7.52225
10.14 19.3008 24.0581
8.29838 15.2158 28.9417
18.263 23.7056 35.7876
14.0454 16.4711 25.9999
27.0314 35.2661 36.899
7.90662 12.867 20.6878
14.6982 22.6277 33.2181
10.1872 19.4294 35.976
14.5874 17.7687 31.7926
20.0209 22.0103 23.8455
9.77307 15.5275 23.9527
10.8445 12.9767 21.3981
13.4697 19.8232 27.1555
8.64256 11.807 18.4308
13.6748 16.3179 25.1863
17.4808 24.0346 33.6671
10.3421 11.0025 12.9988
11.7818 20.3755 38.4572
22.8996 25.9254 26.5079
16.1257 26.4428 40.2146
11.183 18.5943 28.4274
18.9941 30.7356 52.1751
19.6959 28.642 36.8845
10.8525 18.3728 33.2059
7.34318 7.31938 10.4451
5.80895 9.36346 14.5088
9.77178 14.7468 16.5406
4.08942 9.46747 23.2236
11.1765 12.7738 15.811
6.20077 9.24903 12.9908
9.54723 19.9001 34.855
19.2768 32.4786 53.1425
15.2704 20.3542 32.3025
9.59269 7.10437 12.7742
21.6473 32.0202 36.6195
8.91581 19.5423 42.3754
14.3046 16.1188 15.1284
8.67803 22.3674 47.3294
20.7194 27.4067 36.1698
9.72206 10.0056 11.3877
9.52425 16.4937 24.1923
12.6683 20.1375 29.8002
10.7994 17.3902 23.8296
9.23363 16.0764 29.2985
10.9625 21.2594 40.0567
5.43645 6.7535 11.2494
8.12263 11.7208 21.0385
13.3597 25.9311 33.3175
6.89053 12.2357 23.2812
5.72705 8.66897 21.8426
13.1654 19.2036 29.4041
5.79223 5.29994 9.44191
8.51952 15.8746 25.5492
6.00451 4.75059 9.52136
15.8772 24.5237 32.1136
9.88548 20.4688 42.0718
13.3278 17.5424 23.3915
11.5926 21.6246 40.8325
14.5682 22.0737 34.9322
8.46923 14.3957 34.1183
10.1276 11.1026 14.3871
10.1671 13.77 17.3538
8.01752 16.3388 27.3521
8.3695 16.1647 32.2501
13.3748 14.2783 19.0371
6.12127 12.9353 22.9508
13.041 29.5323 56.8361
15.543 20.6333 30.2999
11.7365 19.5103 27.9294
5.59585 5.74194 14.2256
14.0008 21.1429 30.5962
9.05626 15.6691 25.8188
8.96308 18.6157 36.1996
8.89093 16.5944 30.34
7.93778 11.0994 21.495
9.80122 14.5189 20.7209
8.80155 17.2508 36.4817
10.2737 10.3766 12.8674
6.71242 15.7152 26.9553
9.48609 11.8978 18.9935
3.8325 6.4371 16.3934
6.71155 13.3507 22.9223
8.064 13.7141 25.564
8.85824 13.544 18.812
9.30247 21.4007 42.3296
10.1524 13.4757 24.8727
7.97896 14.8265 29.4422
11.3162 23.3725 39.4035
5.4781 6.9376 13.1881
7.17987 18.722 54.4247
23.0388 34.2604 53.2772
17.4361 24.3009 28.5241
5.10008 8.3354 19.302
10.1937 23.5477 34.1337
6.77716 14.0873 29.1968
10.6434 18.234 29.6486
7.56748 11.6341 22.5396
9.43799 22.3129 46.9118
12.6338 19.3474 35.7094
12.6664 19.1273 34.1621
11.3053 18.5284 32.4368
8.14718 12.1549 17.1366
3.7359 9.53524 28.4149
15.1547 25.5894 48.0958
14.4273 29.563 50.9216
10.3095 13.9765 27.7957
7.92776 17.6683 55.1837
20.8116 30.0757 32.4264
5.35653 9.53105 10.9454
5.19614 17.1569 41.3111
12.4268 17.8153 31.4711
11.0904 21.2128 45.0361
12.2956 19.0241 27.3636
5.03239 13.1486 33.1218
7.97631 13.1903 21.4885
4.13532 5.03097 13.7946
9.35126 18.1755 36.0997
6.94634 9.56719 13.2632
7.10538 21.0954 48.4766
9.55205 13.064 27.1647
7.88321 15.5694 27.8915
10.6954 22.1004 46.363
9.42322 13.557 16.7374
5.95476 17.825 34.3254
10.9074 18.5149 28.2919
4.88292 8.94806 22.5997
8.88894 16.4818 31.1961
7.6005 14.226 23.9312
2.03943 6.18995 25.9166
8.53795 10.6171 16.4974
5.44894 11.3053 17.3337
8.95536 24.5011 50.3358
6.8078 12.5556 37.0974
13.4021 17.3636 21.8998
7.64999 13.6418 26.173
14.8058 28.1735 50.9383
15.9261 34.0378 62.7066
11.819 28.1242 62.3697
8.66083 11.9573 26.5945
9.7741 16.739 29.0245
10.0273 22.9807 41.608
6.06844 9.78723 20.2869
8.97901 18.3264 33.4844
3.98357 5.34142 9.70093
5.74818 13.8962 30.9301
6.65739 11.4501 19.4075
5.21245 12.4705 28.8526
8.35063 13.0974 20.1007
6.88536 18.2318 42.6859
5.8658 6.3455 16.6767
6.75648 10.738 20.9176
7.17743 12.6165 23.8973
4.16312 9.51029 26.7769
10.303 14.9036 15.5358
9.12191 24.3858 46.6392
7.63114 15.8047 28.2724
6.08189 13.9869 33.9605
9.1182 18.5347 35.6856
2.95399 7.41112 24.4199
4.78838 7.86897 22.8908
10.776 22.4752 38.4127
5.70101 11.7895 27.6989
4.82253 7.40183 22.5781
6.35715 10.5374 17.2567
7.36784 16.0468 26.9892
8.41001 23.3071 58.5396
10.5701 16.6508 24.0481
8.42729 22.1013 49.2913
5.09639 9.72876 28.6477
8.99632 15.0943 19.7614
2.5769 11.4611 28.2743
4.84677 8.52021 18.5627
4.70548 10.6665 28.6734
5.50802 9.14397 20.2724
3.85162 6.31169 21.5103
5.47469 7.35983 15.1507
6.75765 18.3166 39.6281
6.02672 10.4954 24.0785
7.52885 16.2206 36.8763
7.44717 17.4255 35.7347
7.02763 17.8704 51.9144
12.9882 19.599 33.1239
6.22529 11.1071 20.0628
3.788 12.9993 41.0278
7.59595 11.3276 21.4134
6.53388 13.1932 36.9631
16.059 33.8487 50.6719
3.91307 7.75679 17.2661
2.52371 7.50723 21.6909
4.78858 8.46461 19.0877
4.89007 10.6418 22.8731
5.05023 9.05255 22.3565
9.66569 22.0818 51.5557
8.30302 18.3415 50.2486
11.2418 19.6613 31.407
6.32351 11.5257 27.8372
5.19878 11.2476 33.5432
8.29389 13.5111 17.7933
4.11328 8.19587 18.4643
4.24224 7.79332 28.6411
9.82217 19.8791 30.2849
4.64051 7.89402 14.7736
4.15124 15.1578 34.1778
3.63992 10.0054 31.0472
9.19521 21.8587 46.6241
6.98988 14.5708 53.6762
12.9477 16.9659 24.1602
5.25932 12.6566 24.6962
4.25316 11.2068 34.7452
6.57597 7.94543 9.03978
5.04521 15.1581 38.8996
4.64982 9.69321 25.9189
9.78841 19.1012 34.6277
6.13759 15.317 27.1298
4.76064 18.0901 47.4487
4.84242 7.92264 19.6307
5.81606 15.1786 37.1282
5.89828 10.106 21.1987
3.89631 8.92725 30.3145
5.86118 9.34981 24.5784
6.98963 14.6428 25.8774
5.77651 12.7895 24.269
3.1522 6.63055 15.3741
3.05942 7.49765 17.6986
4.26459 12.3731 36.2478
8.09069 17.5839 31.282
4.44093 12.4315 30.9973
3.47741 10.1877 32.869
5.43441 13.3144 35.1126
7.11408 11.7119 26.0396
4.65815 10.4757 24.1743
7.7404 21.024 53.3407
4.80369 5.60265 19.8136
5.50236 9.71231 12.8509
6.03684 18.4138 45.6408
6.40667 9.94844 17.0824
2.14001 6.63698 22.8635
7.54762 15.0505 35.5985
10.4427 24.1721 51.3931
4.63659 12.3885 33.4951
6.2799 14.2158 38.1006
5.6885 7.51806 11.6565
4.07195 10.3107 14.7566
3.37683 17.2071 49.0713
5.24868 13.353 42.5496
7.82925 14.1684 29.7129
