# pn-170911/RbIIR-av-TWTF-1280-1959.psd
# Power spectrum* (dif=0,1,2) (really just |FT|^2)
# NOTE: only the first half! (symmetric)
# weeks: 1280-1959
# 155 clock-days, 1 excluded
# PSD: 1441
605.367 0.0672875 0.0221273
32364.9 0.772513 0.0133929
124431 2.50395 0.0142452
20740.4 0.612535 0.0139051
39905.2 2.55234 0.0138446
7489.84 0.56645 0.0136
5097.77 0.702874 0.0133611
3237.68 0.535695 0.014074
4435.43 1.0105 0.0140858
2638.66 0.712447 0.0141992
2816.47 1.02111 0.0138169
1535.86 0.659581 0.0140063
1536.13 0.786744 0.0140489
1315.4 0.660519 0.0141696
1396.92 0.973967 0.0140197
955.083 0.744595 0.0136805
1207.88 1.29837 0.0154186
821.899 0.872677 0.0136346
1103.55 1.47645 0.0157861
793.218 1.01805 0.0153167
878.898 1.37152 0.0164911
618.668 0.976271 0.0152
928.29 1.91227 0.0177451
628.82 1.38852 0.0158336
863.25 2.03753 0.017597
616.152 1.44812 0.0175477
957.455 2.67643 0.0200699
606.31 1.59489 0.0189738
834.824 2.82699 0.0257519
548.773 1.91586 0.0203293
939.225 3.72944 0.0322374
468.397 2.04951 0.0236385
535.492 2.47875 0.0277448
438.37 2.0507 0.025826
637.059 2.98916 0.0308916
352.93 1.84759 0.0240703
467.867 2.68388 0.0291442
408.994 2.55108 0.0263683
488.345 2.96479 0.03691
466.543 3.05343 0.0359757
444.997 3.51057 0.0395666
393.552 2.8295 0.0337895
493.197 3.87118 0.050331
386.095 3.23653 0.0467039
529.241 4.49055 0.0585735
367.609 3.29124 0.0445432
435.749 4.30555 0.0577298
488.561 4.8205 0.0663135
520.295 5.3614 0.0741613
394.546 4.09117 0.0561281
449.578 5.31348 0.0798313
426.684 4.61599 0.070852
496.28 5.69509 0.0894824
341.114 4.21031 0.0702464
485.133 6.34085 0.106466
410.365 5.04867 0.0869599
390.517 5.70704 0.098243
352.006 4.9489 0.0896697
419.686 6.38504 0.119262
293.82 4.5987 0.0952401
331.037 5.47722 0.109228
345.694 5.39767 0.103496
321.747 5.75798 0.115988
412.843 6.99663 0.142615
341.691 6.42441 0.146657
300.452 5.98094 0.140894
366.77 7.15287 0.157215
400.283 8.09577 0.185035
382.075 8.4635 0.21851
285.675 5.84063 0.148954
300.791 6.87002 0.179308
297.158 6.94171 0.193492
298.306 7.27392 0.196181
303.473 7.44156 0.216738
309.748 7.77338 0.206789
266.301 6.85468 0.198829
301.238 7.95492 0.244356
238.623 6.26419 0.18546
325.355 8.94138 0.278265
272.129 7.77573 0.252032
326.884 9.91686 0.316566
277.04 8.92753 0.286662
297.052 8.95694 0.290125
241.866 7.88104 0.265278
286.971 8.70035 0.291819
299.67 9.61222 0.341244
293.642 9.88247 0.376212
230.679 8.17751 0.302136
244.285 8.5284 0.33187
267.409 9.58016 0.354829
187.207 7.08618 0.284969
242.282 8.73336 0.347673
217.597 8.57012 0.343588
197.113 7.55025 0.33031
215.932 8.52429 0.382296
238.898 9.87841 0.442689
303.325 12.9428 0.574342
255.436 11.0522 0.507683
222.712 10.4235 0.510145
250.44 11.298 0.515012
237.679 11.0224 0.534285
182.07 8.42723 0.423403
242.831 11.8007 0.574967
214.783 10.2202 0.541978
244.365 11.8298 0.645946
192.11 9.80405 0.543064
199.332 10.4343 0.590684
185.045 9.6484 0.544794
211.2 12.1476 0.673714
200.378 10.6118 0.573809
201.778 10.9799 0.641318
201.896 11.4826 0.672589
195.058 11.7544 0.705499
205.589 11.5448 0.710119
201.587 12.5194 0.790546
165.872 10.1375 0.651372
168.227 10.4912 0.677799
157.628 10.4033 0.697402
209.428 13.1648 0.861992
218.032 14.3685 0.962321
187.479 12.4455 0.848014
191.828 13.0142 0.926744
193.413 13.1326 0.908156
157.847 11.2134 0.844058
176.897 12.4609 0.921928
160.381 11.8199 0.913922
141.263 10.5259 0.795119
160.38 12.1002 0.930306
164.977 12.6753 0.982679
169.463 13.244 1.04336
160.358 12.6762 1.01416
150.751 12.0044 0.990145
137.764 11.4306 0.950279
150.716 12.352 1.05082
137.678 11.5749 0.984651
160.475 13.2673 1.14193
172.461 15.173 1.33793
177.741 15.4293 1.38715
145.55 13.4091 1.24582
149.516 13.5618 1.2425
147.478 13.6811 1.30886
151.216 13.2076 1.22908
141.925 12.8125 1.19218
160.877 15.0997 1.47403
154.237 15.2247 1.49341
138.448 12.7152 1.29184
136.5 13.2082 1.3436
151.305 15.3232 1.56695
129.455 13.0793 1.3812
145.53 14.9676 1.55359
127.688 13.4684 1.44654
147.619 15.1254 1.59993
122.147 12.9423 1.42523
136.339 14.921 1.6415
124.872 13.8348 1.55153
146.468 16.5208 1.86345
135.229 15.0999 1.76917
131.319 15.1565 1.76076
134.098 15.6717 1.85867
136.222 15.8336 1.93021
110.262 12.9027 1.57021
101.604 11.7456 1.40785
145.143 17.7429 2.23697
105.126 12.7896 1.65002
101.975 12.0895 1.55072
110.819 13.4663 1.64281
113.085 14.3567 1.90402
129.186 16.3434 2.15705
117.801 15.3674 2.08375
137.841 17.8165 2.37083
108.755 14.5208 1.94674
108.267 14.4119 2.04581
115.738 16.2801 2.29081
120.33 16.0423 2.24431
111.583 15.6583 2.21375
132.456 18.7921 2.7546
124.342 18.332 2.70007
91.743 13.6712 2.05626
125.592 18.1807 2.76691
97.6023 14.3584 2.15967
109.873 16.3985 2.54541
111.547 17.0631 2.65494
104.141 15.7456 2.43378
113.324 17.7419 2.81566
109.834 17.4273 2.80055
116.389 18.4453 2.97917
106.247 16.3834 2.598
87.8536 14.0473 2.30457
89.3678 14.4703 2.36018
103.955 17.1472 2.93158
87.9154 14.3701 2.35213
95.3983 16.7443 2.89173
136.817 22.2547 3.76256
95.0954 16.4447 2.88916
101.728 17.555 3.10666
99.8392 18.3396 3.41882
122.386 22.0537 3.96273
95.7308 17.1154 3.07747
89.0536 16.775 3.23622
105.449 18.8493 3.41879
93.7325 17.2909 3.2842
87.3115 16.3111 3.04274
85.4054 16.5825 3.19759
88.3905 17.3106 3.37552
88.7134 17.1499 3.45865
91.2375 16.7453 3.19581
98.3529 19.2983 3.85259
76.4951 15.4403 3.09481
100.396 20.7347 4.26974
78.2145 15.5247 3.13359
105.295 21.1223 4.25459
70.7103 14.3581 2.93015
87.1193 18.1111 3.8297
78.8801 16.4092 3.50599
91.7449 19.2996 4.10039
83.8958 18.0765 3.90876
82.0606 17.7925 3.85163
108.522 23.5751 5.1134
91.4489 20.4047 4.55344
92.6264 20.5452 4.56922
78.828 18.5416 4.4703
90.361 19.4869 4.25168
79.5265 18.6588 4.45237
77.5364 17.8499 4.11287
69.3681 15.7397 3.72187
67.4086 15.6632 3.74432
87.5418 20.1388 4.74164
74.1121 17.6192 4.34366
79.7034 19.0803 4.54734
71.4489 17.5248 4.39622
83.762 19.8557 4.71236
70.249 17.4327 4.39894
72.2483 18.0517 4.56665
83.3335 20.5017 5.29808
82.4643 19.2657 4.70494
65.4753 16.6342 4.33813
60.005 16.3782 4.36497
70.9435 18.0411 4.55966
64.736 16.8787 4.46001
73.5557 19.6024 5.30554
84.1957 22.4015 5.97921
65.21 16.5659 4.41059
65.8262 18.3271 5.10924
70.0965 19.2153 5.45978
68.3328 18.7926 5.34819
73.413 19.6384 5.53446
64.1554 17.6399 4.87617
74.757 20.8421 6.00293
89.2533 24.8597 7.0046
70.416 20.1629 5.85933
52.9001 15.1032 4.48492
61.5487 17.5286 5.22127
65.2692 18.6018 5.44737
65.6097 19.4445 5.7911
61.8762 17.6487 5.12186
68.7777 21.4912 6.58947
61.5278 18.3371 5.58239
69.2428 20.6892 6.39051
65.3996 19.3297 5.85869
77.356 24.2045 7.76662
64.9313 19.385 6.02407
61.704 19.532 6.19706
58.2055 18.871 6.08765
65.1581 21.2665 7.02543
65.4687 19.3168 5.9501
67.831 22.3288 7.50716
63.4325 20.1757 6.61287
58.7246 18.427 5.90938
68.0036 21.8992 7.15604
53.0135 17.6066 5.96778
66.3697 22.7118 7.75357
68.5311 21.8318 7.08411
58.4106 20.3884 7.26282
67.6861 23.0298 7.70479
47.8507 16.0491 5.71185
54.417 18.675 6.43175
56.9768 20.1908 7.21926
60.4365 20.4262 7.16898
59.816 21.5296 7.7415
53.5506 19.3802 6.97426
57.4178 20.6094 7.38921
56.3492 20.1502 7.24599
56.6111 21.5171 8.08825
48.7399 17.6594 6.42938
51.9039 19.3289 7.36062
59.3675 22.4741 8.33828
51.3636 18.4856 6.79255
52.2329 20.2241 7.85018
66.8442 25.2499 9.49785
45.4436 16.9392 6.79654
47.4707 18.8765 7.64274
64.9901 23.4401 8.52792
47.8485 18.4927 7.24665
50.7954 19.3447 7.54021
48.9555 19.2345 7.75395
44.4275 17.7985 7.38109
49.3495 19.6181 8.12293
51.4739 20.1597 8.13281
42.9978 17.0731 6.93449
49.9618 19.9864 8.10014
49.5094 19.7353 7.97246
55.9556 24.2818 10.3089
53.6215 21.9808 9.05434
42.6039 17.1403 7.14189
50.7957 21.812 9.56618
53.3453 22.4318 9.45133
49.7556 20.5612 8.48938
46.3957 20.8035 9.45039
50.9425 21.1013 8.94641
52.1293 23.5125 10.7603
51.6294 21.3614 8.97971
43.0242 18.7029 8.38601
44.034 19.0985 8.57971
43.0915 19.2465 8.63979
44.7817 18.9553 8.35397
46.213 21.5486 10.0302
50.1556 22.1597 10.2695
51.1421 22.7808 10.5657
50.9191 22.198 9.60632
42.6703 20.7833 10.1922
48.4765 21.7161 10.2024
45.2768 20.6486 9.64036
44.243 20.8592 9.92161
47.6535 22.5266 10.7733
48.3106 22.7096 11.0697
54.0364 24.7123 11.7448
43.041 20.3576 9.99989
50.1521 22.9595 10.7528
45.7866 21.6495 10.5475
43.3454 21.4256 10.7068
41.3212 20.2988 10.2306
42.3215 20.3191 9.93776
46.2754 22.4803 11.066
44.8237 22.1388 10.9306
46.1555 23.5324 12.2019
43.1035 21.8591 11.1174
42.0506 21.8888 11.2135
38.3745 20.0985 11.0156
38.9753 18.1307 8.88076
42.4375 23.1329 12.6803
40.3044 20.1732 10.3595
40.0639 20.4674 10.5719
35.8052 18.8846 10.1155
38.8441 20.3578 11.0959
41.833 21.3252 10.9396
41.865 22.7359 12.1609
37.4746 20.9902 11.8696
38.7442 20.0747 10.9697
41.5786 22.9506 12.8528
39.6902 21.7893 12.03
39.9457 21.3194 11.7849
38.2409 21.4925 11.9759
36.2284 20.5065 11.961
46.8565 25.3571 13.7397
36.7172 20.3185 11.3826
37.6855 21.396 12.2242
36.2617 20.9622 12.5968
42.0752 22.6742 12.6618
38.726 22.2161 12.951
40.1982 22.8114 13.1761
38.2252 21.96 12.6618
35.8237 21.2986 13.0235
36.0958 20.8874 12.3281
37.5394 22.0378 13.1575
36.5338 21.0089 12.5681
35.1438 20.537 12.4668
34.1075 19.8556 11.8789
36.46 21.156 12.0226
35.6562 23.4354 15.4069
39.3049 22.7014 13.3625
33.8363 21.5983 14.2224
35.1381 21.3491 13.5969
36.516 20.862 12.3705
37.6044 23.2812 14.2115
32.3376 20.6979 13.5233
38.0299 23.5207 14.8379
36.1939 22.04 13.981
36.6826 23.6433 15.1431
31.0739 19.1755 12.1892
30.6438 20.1491 13.3756
36.2057 23.5238 15.8598
41.4892 25.8929 16.1627
37.9176 24.1341 15.419
32.6617 21.9046 15.0255
34.6183 21.5604 13.8663
29.7744 20.0484 13.7578
34.0808 21.8804 14.3957
31.2222 19.7548 12.755
30.0484 20.7085 14.168
30.5452 20.2673 13.7416
31.6226 21.8338 15.5106
36.6436 23.9891 15.8227
32.7584 23.0999 16.5278
31.9632 21.4365 15.263
33.6797 21.8862 14.8513
28.1572 18.4363 12.6282
30.4598 21.0512 14.4408
30.327 21.3123 15.0904
31.7296 23.3871 16.6391
33.6779 23.9855 17.0071
26.6205 19.4559 14.7392
29.0019 20.4531 15.2682
36.2025 24.8968 16.8925
27.827 20.4169 15.257
29.7247 21.4755 15.6486
26.9715 18.9216 13.9292
31.9704 24.0358 17.989
29.9077 20.9848 14.9991
29.3327 21.6297 16.3573
27.1606 19.9441 15.0388
32.425 22.6599 15.978
24.3277 18.2302 14.2783
29.8465 22.9536 17.9469
31.8559 23.3244 17.6993
29.131 21.0814 16.5661
37.3965 27.9435 20.7234
27.9613 19.5945 14.4166
27.2118 22.0121 17.6
27.4992 21.5205 17.1092
29.6778 23.0893 18.0654
28.9185 21.5443 16.4428
30.06 22.9511 17.8894
29.9049 24.0976 19.0438
32.1405 26.5575 21.9353
27.2087 19.7552 15.2234
25.9643 20.8491 16.8369
25.4951 20.2965 16.0667
27.1403 21.9043 17.6028
25.2791 19.8521 16.7186
29.3072 23.37 18.7142
26.2906 20.9222 16.82
24.4477 19.8109 17.0191
29.4589 23.9182 19.562
23.1423 18.5754 15.3887
25.4945 21.126 17.6964
26.0701 21.0886 17.2924
25.4054 21.7112 18.3305
23.4965 18.9169 16.0232
28.2687 24.4667 20.935
25.7287 21.5954 18.874
26.0799 20.7506 17.5184
29.4547 24.659 20.8608
33.1318 28.4144 23.4674
23.2154 20.1431 18.0088
24.4071 20.4605 17.8424
28.2772 24.9856 21.9803
23.8499 18.7205 15.5236
23.8322 22.1404 20.5262
26.1838 21.9921 18.5184
23.0347 21.4654 19.6143
22.3865 19.1733 17.2897
23.8994 22.1213 20.5144
26.3068 23.006 19.6168
21.3941 20.5403 20.6169
25.5402 21.0291 18.0058
25.333 22.9737 22.7441
47.5002 41.9557 33.6527
22.497 20.9573 19.9956
24.7103 23.7228 23.3111
26.229 21.9225 19.5572
23.8187 20.7926 18.4911
23.7248 22.489 21.2894
24.5059 21.9022 20.1785
23.8481 21.1502 18.9109
21.2803 20.7875 20.1932
21.7183 19.7481 18.5673
22.3112 21.3508 20.3047
19.7634 18.7617 17.9777
21.5028 21.2116 21.7367
24.0216 21.1838 19.4882
21.6982 19.5907 17.7915
20.4911 20.0597 19.3945
22.6572 23.0152 22.5472
25.0877 22.8979 20.6023
16.4556 16.7964 17.2504
22.2269 21.2255 20.3556
17.3034 17.4241 18.1201
20.5705 20.1066 20.1918
23.7428 21.7082 19.9795
21.5937 22.2674 22.2804
26.9149 27.9382 27.872
23.2459 21.5281 20.6221
17.8784 19.5459 21.8367
21.7735 21.0542 21.6263
19.796 19.4035 20.1307
27.1864 26.1238 24.9125
20.4185 21.3841 22.4
20.2149 20.0389 21.2764
21.6733 21.0461 21.1865
20.2464 19.9355 19.7892
18.9439 20.6277 22.4158
20.0013 20.6857 22.9358
23.6414 23.3886 23.0608
20.9781 23.1613 26.0035
23.6339 23.3313 23.265
23.3387 25.8762 29.1574
23.8715 23.893 24.985
23.1407 23.924 25.2598
22.4369 23.2241 24.9043
20.6754 21.5303 23.4089
23.0924 23.8468 24.6738
18.3235 19.1222 20.3121
19.1224 20.3637 21.6495
20.1243 21.7381 23.6713
20.2426 21.632 23.4618
19.1331 20.0456 21.0193
16.9126 18.9696 21.4473
17.5397 18.9874 20.8692
19.2597 22.028 24.3534
19.9207 22.7004 25.6664
20.9185 22.5834 25.037
18.2286 20.9165 24.4275
16.5346 17.2456 18.9344
18.3511 19.3397 21.452
19.7646 22.633 24.8892
17.7514 19.1578 21.4369
20.3182 23.2386 26.4236
22.5699 26.6142 30.7732
19.4115 22.4638 26.3989
17.7209 20.3714 24.6031
16.8398 18.1235 21.1635
20.3899 22.5788 25.0148
18.9023 22.2422 26.3399
18.2106 21.0873 24.8862
17.458 18.791 22.0952
19.9268 22.9987 25.5065
18.1676 22.378 26.9102
15.7586 18.0095 22.0832
15.435 18.3109 22.1115
17.1993 20.3345 24.9793
15.7962 17.6035 21.4285
17.6437 20.0679 22.1695
14.158 17.86 23.6052
17.2854 19.205 22.5295
18.6553 22.8329 26.9921
16.0258 18.9609 22.9548
18.4251 23.6607 29.0657
16.6721 19.2146 22.685
17.071 21.597 27.6672
17.4094 20.607 25.352
16.549 19.6843 23.259
15.6676 19.7589 25.1921
15.314 18.8357 24.4985
16.0555 18.5348 22.8472
17.4358 21.3573 26.7278
17.4288 19.9592 22.8814
15.2187 19.917 25.9609
17.5946 21.3867 26.6898
15.3845 19.117 25.9043
19.6722 23.3447 27.8908
18.1328 23.634 29.7428
15.7096 19.8983 25.4406
15.1755 20.7755 29.5238
17.7985 20.8953 25.1424
12.9796 17.2763 23.8451
15.8012 20.0621 25.1978
13.1731 16.6018 22.6175
15.6172 19.4924 25.3131
17.439 22.1346 28.1166
16.9064 21.7815 27.6853
14.2881 18.5936 25.6213
14.0268 17.8487 24.443
17.2166 22.6385 29.4385
15.2353 19.6004 26.0982
14.4052 18.8672 25.8635
15.8177 20.0139 25.7105
16.3659 21.8852 28.1199
14.2217 18.8615 25.5623
14.9147 21.7505 31.6395
15.0586 18.6705 25.1541
14.4756 17.8947 22.1823
13.2972 17.7195 23.9049
15.209 20.4551 26.9709
14.6309 20.1024 28.2475
15.1634 19.4769 26.0425
16.2157 22.7379 32.1194
17.3948 23.2762 29.4576
14.5179 20.9164 30.3373
15.5392 21.0606 28.6505
15.5978 22.5005 32.7862
14.4496 18.9733 28.0577
18.7343 25.1347 32.6506
14.8565 20.6581 29.467
15.2837 20.9481 28.8001
15.5351 21.4936 28.4742
11.4788 17.3126 26.5369
12.8253 18.641 28.2778
14.3807 19.7175 27.578
12.405 16.7504 24.3632
14.0989 19.9049 28.4406
12.783 18.0782 26.7381
12.9738 17.7682 25.4069
14.2778 20.4062 28.4366
13.4293 19.6603 28.9464
15.5572 22.3729 32.043
13.1491 19.5836 29.7331
14.6441 19.9239 27.57
12.6537 18.3239 26.8649
13.4688 20.9422 31.4587
13.4831 19.9099 29.2153
12.6248 17.915 25.4917
11.623 17.5374 27.5506
13.6433 21.1716 32.5203
14.0259 20.1465 30.8925
14.2633 19.5712 27.2415
11.7434 18.0735 27.9179
12.2394 18.2547 28.2856
11.6798 17.348 27.5056
12.6643 19.684 30.6104
12.3039 17.5518 27.3302
13.0272 18.702 28.4548
14.6061 21.1245 30.1303
12.639 19.0412 28.9647
11.6376 18.6377 31.3158
16.3673 24.1242 34.8191
14.1775 21.58 33.4553
14.4152 20.3754 29.733
12.7294 21.5913 34.3571
12.1467 17.0591 25.1635
10.0735 16.3698 26.8047
10.5363 16.4883 27.1021
14.5292 22.6042 33.8554
11.8732 17.2021 26.8952
12.0866 18.5715 26.9297
10.5725 19.3324 34.6516
14.8587 21.5022 31.27
12.269 21.0824 33.9598
11.2457 17.6214 30.2303
13.4461 20.3153 31.7081
12.3402 20.7517 34.6982
13.7317 20.755 32.5091
12.2345 18.4493 29.4506
14.3884 22.6614 33.6056
11.5457 19.4792 32.8108
11.4405 17.6867 29.1684
11.7614 19.3707 31.8295
11.9793 19.8283 33.3312
11.3684 17.9798 29.7764
11.7856 18.4426 28.1922
11.4837 19.6475 32.1293
10.588 17.4875 31.3825
12.498 19.1708 29.7539
12.6926 21.1289 33.4745
10.6269 18.2712 31.8504
11.8114 19.1319 30.3688
10.7545 18.7515 32.7204
11.1215 19.4539 34.9258
13.6646 22.4362 36.8856
11.6072 17.7178 28.3721
9.91861 16.9826 29.7891
10.8999 17.9362 29.6381
10.2639 17.1241 28.1981
9.72793 17.0279 29.7639
10.4852 17.1955 28.8812
11.1986 19.6998 33.8894
10.6687 18.673 32.7933
10.3705 16.9912 29.698
10.4718 17.9679 31.8126
10.8683 18.9975 32.5005
9.92875 16.767 31.3369
10.7311 17.7995 29.9982
9.44372 15.8295 27.166
10.4694 19.0058 34.7538
10.8077 18.6452 33.4423
10.5494 16.5743 29.0638
11.6068 20.4178 34.2192
11.3858 20.7878 38.4949
10.7289 17.3041 29.564
9.52088 16.9013 32.7125
11.0376 18.2311 30.6719
10.0798 18.0279 32.353
9.76967 19.5124 43.1734
16.2659 25.4588 36.25
9.75047 17.6131 32.6913
10.5056 18.0696 30.3245
7.94222 14.395 28.6585
9.72881 16.394 27.8275
8.9473 16.6745 31.5151
9.93672 16.7342 29.5944
9.44557 16.053 28.1968
10.0464 18.626 32.6431
9.20232 16.1875 30.0332
9.73876 18.0113 31.9433
9.64155 18.5628 34.0205
8.7567 15.1224 28.5871
9.94722 19.0833 35.678
9.5552 17.2762 33.6294
10.5118 17.8873 31.2301
9.33842 17.2049 30.9908
8.14604 15.1838 28.3323
8.54628 17.0551 35.6314
10.9109 18.6464 32.604
9.56919 16.9993 29.3597
8.17758 15.8725 30.9318
8.96818 17.7408 34.0334
9.73906 18.5278 35.2701
8.15658 14.4506 29.2224
8.62608 15.0809 28.7226
9.44517 16.3904 28.8054
9.10785 18.7336 35.8175
8.88979 17.6926 35.2001
9.37225 17.1953 33.9998
8.91671 16.5475 32.4801
8.49296 14.9517 29.2537
10.2813 18.5074 32.2304
7.5564 14.6912 30.2246
8.8092 16.8628 31.5478
7.61593 14.4487 28.6577
8.33572 15.846 29.7815
7.93136 15.7574 30.4408
8.37828 18.4864 39.5822
9.67442 17.3538 32.8666
8.46949 15.9837 32.3426
8.87019 17.7215 35.4585
8.76366 16.4374 33.3872
9.56883 18.0212 36.0606
9.46777 16.3724 28.6403
7.69096 16.8549 36.201
8.78583 16.2038 32.1039
9.37071 18.3829 35.3472
9.16929 18.3382 36.6636
8.37392 15.3693 29.9775
7.83543 15.6995 32.4712
8.65661 17.0043 34.1771
9.21294 17.8565 34.2727
8.2499 16.5179 32.7933
8.72057 17.94 35.4285
9.29181 19.8126 38.4763
7.70458 14.6103 29.9105
6.68148 13.165 29.2215
8.39435 17.9839 37.9994
9.03349 17.3961 34.7734
8.64356 17.1207 34.9088
7.95501 15.1489 31.2509
9.11271 19.4482 37.6481
6.6432 13.8335 32.1068
8.00692 15.7341 31.8892
7.57989 15.3385 32.8126
7.50952 14.0629 27.8834
6.91267 13.9146 28.4632
6.58698 13.2582 27.5848
7.43476 15.1357 31.286
7.31629 14.4138 29.9048
7.64317 16.0942 32.4185
7.48345 15.9222 32.8563
6.74076 14.4379 31.367
7.43404 16.156 34.0538
6.94637 14.0955 30.5289
7.46869 16.4314 35.1708
7.3602 15.3097 32.8944
7.37864 16.7619 37.7325
7.50388 15.1698 36.1559
9.4159 18.0901 33.0391
6.81606 15.3275 33.9404
6.85588 14.3614 32.7579
8.1976 17.0584 34.8866
7.30201 15.8159 35.7813
8.13288 16.4218 36.2125
8.15767 16.0864 31.5571
7.03868 15.2463 32.7423
7.26586 16.6195 37.0742
7.64503 16.2727 36.5042
8.30947 17.4255 35.7646
6.94413 14.7664 33.0846
7.94192 16.1417 32.568
6.46329 14.0732 29.2538
5.77794 13.4251 32.2802
7.04444 16.592 42.5828
9.68658 18.6609 35.5904
6.96196 15.7277 37.0225
8.24152 17.7901 36.2637
7.235 16.0364 38.4261
8.1918 16.5588 33.9035
7.46335 17.2342 37.8362
7.19175 15.6886 36.8504
8.21383 17.8481 36.9706
6.44892 13.9662 29.8967
5.99499 13.8648 32.4234
6.69639 15.6192 36.2248
6.8979 15.9856 36.5082
6.43426 13.3337 31.4913
6.36398 14.1374 32.491
6.92986 14.762 31.1893
6.07634 14.9411 33.9229
5.94526 13.8118 35.1155
7.26364 15.533 33.0744
6.30644 13.9296 34.0197
8.08025 19.6203 45.6655
7.93082 16.2117 34.0979
6.75294 15.6548 35.8641
7.2186 15.3096 31.9855
6.27783 15.2099 35.3496
5.47936 11.9179 32.5547
7.42612 15.0491 31.2681
5.87384 14.0402 34.2286
6.77216 14.9661 33.3054
6.68455 15.8552 35.2238
5.82468 14.4406 35.8163
6.98241 16.0894 35.6949
5.58087 13.4867 34.7999
6.31356 13.0284 30.5656
6.81009 15.9996 34.788
5.47824 13.4806 36.6365
7.48093 15.4497 33.3294
6.60718 16.9641 40.8968
7.55374 18.4409 44.9547
7.26398 14.4192 32.475
6.68889 16.2007 35.7827
5.33014 12.3772 31.315
5.98783 13.8764 32.9652
6.08555 13.5314 33.1484
6.25893 15.1925 36.3903
6.61642 15.8834 37.9634
5.91351 13.4612 33.6069
6.17032 14.7466 35.5895
6.62149 15.7573 35.4279
5.92932 14.0249 34.5328
6.02828 13.852 32.3932
5.08573 12.3971 32.003
5.72735 13.4836 32.6347
5.96219 14.0767 33.5584
5.74209 13.5375 32.4446
6.09964 14.8388 36.8391
6.17491 15.1868 36.3473
6.04943 14.989 36.3944
6.16998 15.8164 42.0064
6.90636 14.7681 33.1761
