# pn-170911/RbIIR-56-KOKB-1280-1959.psd
# Power spectrum* (dif=0,1,2) (really just |FT|^2)
# NOTE: only the first half! (symmetric)
# weeks: 1280-1959
# 7 clock-days, 0 excluded
# PSD: 1441
612.59 0.126812 0.0137189
13490.9 0.100147 0.00841042
250573 5.68966 0.00754587
13183 0.336707 0.00830081
83567.7 7.18939 0.00875492
5174.77 0.342933 0.0081159
5194.91 0.579136 0.00785676
803.155 0.120455 0.00841582
3504.42 0.767216 0.00965901
1100.29 0.286892 0.00900218
2177.82 0.693815 0.00776561
897.674 0.4637 0.00898017
942.294 0.451174 0.0100305
799.383 0.390965 0.0082978
658.187 0.575647 0.00847401
810.065 0.668089 0.00970628
479.499 0.944328 0.00890173
649.52 0.517951 0.00826994
425.798 0.443917 0.00936743
274.722 0.410049 0.0089594
338.597 0.459786 0.0108069
548.83 0.795392 0.0112749
444.19 0.620101 0.012029
328.213 0.755407 0.0130583
272.148 0.671267 0.0108482
513.903 1.30229 0.0143734
291.883 0.702986 0.0116836
354.254 1.06651 0.00846257
321.93 0.975896 0.0126632
164.528 0.512901 0.0147783
294.787 1.2349 0.0082625
242.099 0.831139 0.00918907
391.554 1.68831 0.0234087
140.428 0.802295 0.0118375
268.596 1.59227 0.0216553
474.321 2.04479 0.0143505
194.341 1.02058 0.0113133
211.163 0.979069 0.0144755
234.043 1.33461 0.021636
265.152 2.17728 0.0304821
148.187 1.18728 0.0198842
148.988 0.874217 0.0168142
108.144 1.09318 0.0151584
182.356 1.70395 0.0166682
227.927 1.57701 0.0336474
175.757 1.28503 0.0241592
167.262 1.73715 0.0236571
169.205 1.57833 0.0232879
179.046 1.77335 0.0186447
199.368 2.48075 0.048328
284.612 3.08493 0.0280576
87.1601 0.83351 0.0229814
194.27 2.38194 0.0412383
129.672 1.96425 0.0264774
119.556 1.75662 0.0507242
206.9 2.4862 0.0592016
152.489 1.99612 0.0347074
134.102 2.26282 0.0473901
97.8819 1.18439 0.030531
201.354 3.495 0.0690777
235.526 3.8025 0.0932262
173.814 2.60222 0.0557422
133.452 2.44166 0.0420425
246.182 4.89538 0.113283
208.541 3.8986 0.086096
161.762 3.06135 0.0743171
154.334 3.25142 0.0905936
180.125 3.63888 0.0629036
81.7209 1.47642 0.0248842
227.88 5.22192 0.152802
126.139 3.28087 0.0871916
292.941 7.91874 0.16331
120.194 2.54946 0.0810075
187.16 4.86075 0.119349
144.499 3.78108 0.129569
214.189 4.77493 0.157445
147.274 4.15269 0.112364
87.0023 2.41806 0.0770266
161.74 5.20226 0.167421
164.946 4.14059 0.118289
95.1783 2.73505 0.0962571
50.6822 1.53347 0.0707769
78.024 1.88914 0.0660662
99.4284 3.03648 0.0945752
65.9439 2.03082 0.100192
111.229 3.56877 0.14731
102.862 3.51248 0.147878
149.818 4.35685 0.157103
138.769 4.91865 0.167968
151.047 5.79478 0.255987
188.876 7.03766 0.276099
74.3869 2.96064 0.117681
130.071 4.62808 0.18257
140.284 5.7492 0.255979
114.296 4.49372 0.174605
115.92 5.28951 0.26513
249.99 9.79571 0.367557
146.08 5.88741 0.28145
126.527 4.95446 0.271444
56.9697 2.81132 0.163321
92.5764 3.94073 0.1719
135.02 5.60636 0.273928
67.1591 3.98418 0.189209
112.704 5.1885 0.225928
86.8435 4.71537 0.267876
117.852 5.47673 0.280386
189.024 10.2446 0.54238
142.005 6.77193 0.350639
61.1961 3.01583 0.175919
72.8723 4.38893 0.258851
94.7844 5.85946 0.352548
161.537 8.38825 0.43149
159.359 8.79015 0.563427
85.5581 5.48602 0.30149
150.723 8.92566 0.529111
47.7828 2.87264 0.191339
127.135 7.77969 0.472521
102.57 7.08094 0.49873
96.623 6.0965 0.382164
223.221 15.6774 1.12629
18.9654 1.17756 0.121318
105.495 7.28512 0.490429
152.821 10.0004 0.677032
44.7854 3.1711 0.261767
72.2473 5.74862 0.443422
69.72 4.49527 0.309861
82.118 5.47376 0.453742
129.578 10.463 0.830649
78.8356 5.48209 0.420471
73.7008 5.26666 0.457367
54.4357 4.74559 0.398032
98.0448 7.30452 0.628253
103.431 9.09092 0.811083
91.176 8.64217 0.761193
74.3265 7.32399 0.582781
117.29 9.36803 0.834207
69.9702 5.04151 0.438754
66.2928 5.73982 0.651546
141.588 12.177 0.995685
64.7815 6.30756 0.635847
141.777 13.2872 1.25085
78.7642 7.84381 0.71848
104.001 9.45496 0.889798
145.876 13.8218 1.27946
103.912 9.24922 0.970599
72.0054 6.6723 0.543621
116.45 11.9853 1.15154
75.147 8.5498 0.859717
29.879 3.29929 0.364779
91.1808 10.2615 1.10516
62.9656 7.34078 0.839052
138.746 14.2026 1.39914
45.6309 4.79092 0.586063
57.3824 6.43044 0.672404
69.2986 7.14087 0.799295
55.5623 6.20037 0.727986
100.33 12.3811 1.4513
78.4592 8.4282 1.06776
125.247 14.9206 1.77836
50.7148 6.58748 0.901176
108.771 10.4824 1.20592
48.3728 5.30508 0.644219
101.214 12.4415 1.53861
100.16 13.0894 1.70951
71.7399 8.59206 0.974981
77.83 9.9895 1.3167
95.011 12.0566 1.5388
81.1347 11.721 1.45216
65.2147 8.64528 1.05356
41.1985 7.27323 1.01261
58.7407 7.64206 1.03278
95.7298 14.1671 2.01401
86.6764 10.7026 1.40365
83.8249 9.79725 1.32743
67.4723 9.4245 1.55588
63.4157 7.55261 0.992771
76.0859 10.9982 1.66805
98.2035 14.3463 1.99612
78.657 10.6757 1.772
78.0937 11.564 1.63573
64.263 10.986 1.71067
47.8106 8.12982 1.24422
41.8738 6.145 0.984064
49.8141 7.89646 1.32051
105.547 17.1118 2.69012
70.584 12.0134 2.0222
121.527 19.0732 3.02944
124.893 19.5558 3.11076
32.1008 5.61582 1.02348
22.5778 4.0693 0.810582
94.03 16.6237 2.92202
61.2715 9.88801 1.44399
50.3698 11.0119 2.0315
86.1378 13.161 2.14277
41.0208 7.01765 1.27163
75.9933 15.8772 3.02665
39.8929 6.01909 1.04114
91.5138 16.5872 3.26744
92.8374 14.2749 2.44059
14.6842 3.39192 0.733935
52.5482 9.63499 1.6483
79.7612 14.9712 2.86455
88.7067 14.7019 2.54009
87.6052 17.4529 3.74422
33.7348 8.34334 2.27479
56.8399 8.983 1.62819
90.5373 18.3726 3.84265
58.489 11.2242 2.09688
39.6325 8.75358 1.76751
54.5422 9.30803 1.89536
59.7162 11.5859 2.0695
37.0446 8.3855 1.76541
51.9781 11.7531 2.66216
43.4982 7.25282 1.23462
55.8096 12.0297 2.58389
112.091 24.6457 5.20518
64.8727 16.2454 3.8582
52.4714 10.8023 2.50727
90.6976 18.6946 3.84989
44.0543 8.70358 2.07388
25.1954 5.70395 1.35758
71.8756 14.917 3.05244
49.7689 11.6243 2.6984
43.31 9.33587 2.02436
36.4147 10.664 2.92545
86.5786 18.467 3.99208
40.0128 10.4546 2.80764
40.65 10.3336 2.75389
39.834 9.19831 2.17775
45.0186 10.932 2.90805
100.67 22.2122 4.96726
49.005 12.9232 3.55004
26.0108 5.50492 1.4677
96.6922 24.1673 6.2176
63.0423 14.5732 3.67687
58.6914 13.4166 3.21286
58.8861 15.8653 4.20211
34.5987 10.1907 3.1536
46.216 13.6985 3.85849
81.0918 20.8921 5.3381
53.1405 13.5771 3.51456
55.4441 14.1598 3.96052
35.1592 9.54041 2.86781
96.3953 25.3878 6.70031
47.5415 14.7863 4.84835
74.0766 20.7077 6.20626
65.2278 18.559 5.37573
56.642 14.2548 3.42472
39.2603 11.1236 3.15498
70.0377 17.99 4.57531
31.7699 9.77731 3.42127
96.0016 25.8331 6.84962
49.3954 12.6157 3.21087
52.1885 15.796 4.49693
63.2792 20.5069 6.66483
37.2283 11.2881 3.61247
43.002 14.1661 5.28377
68.7547 21.2761 6.83893
63.814 18.6492 6.09726
39.875 10.4682 3.02559
46.7445 14.8322 4.56992
41.8762 15.1429 5.14065
38.7674 10.2338 2.90772
56.3082 19.6056 6.54278
36.5767 10.841 3.60106
54.2021 16.3967 4.94206
32.361 9.42715 2.6338
19.3619 6.75481 2.54697
33.6635 12.4519 4.20623
16.1593 5.46878 1.94382
34.7293 12.1699 4.58308
46.3371 13.4511 4.18888
32.0775 10.8445 3.72788
44.8233 14.7275 5.27564
33.9277 12.3479 4.43987
38.3452 13.1298 4.62772
35.1987 11.7097 4.0622
26.5409 9.01361 3.01254
27.8169 11.2364 4.44532
35.4017 13.0487 4.54646
44.8153 15.5004 5.06923
37.2556 13.5816 4.95664
22.3287 6.98599 2.42598
47.1348 15.2035 4.82944
40.6527 15.3793 6.18387
54.6828 20.058 7.3313
18.8073 7.62039 3.41378
21.9344 9.1683 3.55327
53.9088 21.7625 8.93096
38.5276 13.1224 4.80076
65.6273 25.5374 10.2509
45.192 17.8345 6.84095
21.8177 8.14096 3.6466
24.1343 10.7222 5.35886
36.7433 12.8981 4.10376
27.0063 11.7314 4.68238
36.0787 12.8385 4.96937
59.2575 25.155 10.6284
55.569 20.4574 7.91383
26.3277 12.635 6.25412
30.7354 11.1526 4.36238
57.4554 23.5811 9.42573
65.144 29.7987 13.6108
31.4512 10.1729 3.55851
65.6763 27.0584 10.4943
87.2995 36.6473 14.636
55.4289 26.447 11.5498
44.7103 15.8165 5.61271
37.2375 16.7238 6.99883
53.8255 27.9333 13.4473
24.1906 9.50453 4.1102
35.0885 19.3098 10.189
62.559 23.3601 8.60999
23.1121 10.6075 5.1156
24.4496 10.2193 4.26088
36.0503 18.4922 9.20689
16.277 6.05143 2.64862
37.4455 16.4045 7.07427
12.3008 6.69877 3.63184
38.1173 16.2186 6.86436
42.2181 23.4844 12.2307
38.7634 15.2933 6.45957
29.0427 13.8307 6.24306
38.6167 17.8139 8.20391
27.82 15.5616 8.41756
33.6589 16.5781 8.29853
43.8126 19.497 8.95914
22.0034 10.7629 5.36777
29.1293 12.5865 5.28768
51.4126 28.7464 16.0894
59.4547 26.1437 11.3805
37.7484 19.834 9.18352
28.0689 14.6127 7.53817
31.0586 17.3065 9.73049
38.9474 17.8271 8.95765
24.7934 11.1129 4.72078
25.2186 11.7806 5.60674
24.811 12.4745 6.13801
32.4332 16.8864 8.11292
22.2433 13.1837 7.6847
26.8774 15.1138 8.68655
25.6467 9.65595 3.38502
21.5601 11.7117 6.42801
27.0394 15.9656 8.36074
33.4174 20.6043 11.6297
33.2388 18.8347 10.7466
33.8968 17.6215 9.62992
43.0552 23.2355 12.2981
32.0938 18.5542 10.0515
29.4558 18.995 12.4828
22.667 10.3317 5.2627
20.8261 10.2807 4.86622
36.2707 20.5824 11.6146
22.0948 13.771 8.93374
26.2737 16.343 10.8838
21.7047 12.0298 7.54805
38.7974 18.7088 9.65502
51.0423 35.5592 22.6479
27.2119 11.2393 5.97944
48.5251 31.2083 18.6818
23.0248 11.1151 6.08418
12.8033 5.51524 3.18452
51.1881 33.1661 19.4485
16.7143 6.26719 2.99653
20.2006 11.7811 6.59247
24.3298 14.2401 8.6196
38.1492 22.4196 13.0841
20.56 12.6661 7.80787
27.5352 18.2001 12.0133
13.265 9.6683 8.66686
39.727 19.7787 10.4207
17.9881 10.2714 6.75753
16.6225 9.795 7.14964
47.1791 26.7249 12.9667
13.3775 8.39216 5.66968
26.5134 18.2921 11.1332
23.596 17.3332 12.382
30.747 17.9906 10.5072
15.9471 9.06123 5.77946
49.7441 33.8124 20.4277
30.3177 20.2401 12.7542
12.621 7.14363 4.81526
30.0737 19.2973 12.213
24.993 14.4334 8.0299
24.5679 19.3501 14.9873
18.1142 8.79733 3.83111
21.4576 19.6898 15.5203
26.9024 15.4032 8.49854
7.72413 8.11978 7.46258
25.2556 16.4505 10.8935
25.7089 17.7704 12.4279
25.6641 17.5916 12.3439
19.1562 9.9566 5.69511
21.6177 14.1214 8.79524
12.9378 10.1125 8.27768
17.1814 11.3079 7.44236
18.2249 12.6338 9.21892
18.5455 14.1527 10.2463
33.8806 26.4998 19.228
16.9883 10.6621 7.51257
15.4967 12.7775 11.3349
43.7799 27.4648 16.3614
17.5568 12.6636 8.86944
32.8158 27.2777 21.9803
30.8122 17.2585 8.81287
20.0641 17.0938 12.8096
23.6548 21.67 18.2508
26.1195 19.428 15.0728
33.5406 19.8756 12.4158
16.3097 11.0099 7.57412
6.43743 4.38076 3.5806
26.3616 19.0752 13.4385
18.3233 15.9222 13.5462
15.8215 9.46854 5.28074
20.9944 18.2906 14.7341
24.5972 20.7969 17.6224
17.2523 11.5599 7.47699
19.4254 14.5388 10.2612
14.3847 13.865 12.515
23.9234 18.5599 15.4487
16.781 12.607 10.5458
23.7662 16.0353 10.3706
24.7406 23.696 20.9261
19.6098 12.858 9.85462
21.8738 17.2207 12.713
21.2842 14.7393 10.6048
19.9951 16.9263 13.1999
24.3819 23.311 20.3825
40.6383 35.8454 30.3421
24.4526 16.507 13.2974
12.177 7.07307 4.64986
24.2233 25.0601 22.0137
19.4567 12.7074 8.8213
16.2576 16.8956 17.1101
21.9712 15.0655 11.2485
12.8668 11.507 11.2112
18.2897 12.4386 8.84558
12.1017 9.06543 7.70203
25.2164 20.8955 16.8053
31.2379 30.7917 28.2655
35.2972 32.6582 29.803
17.1784 9.74718 6.27639
15.7131 16.766 17.4882
24.044 17.0128 12.217
14.8603 12.9161 11.6749
20.2747 19.7733 17.2588
12.6142 12.9912 14.0882
20.7616 16.692 13.9326
14.7687 10.8132 9.47146
25.2565 19.5779 14.4235
25.6906 25.6255 22.5004
24.3857 20.6969 18.582
21.0203 18.4331 16.6433
22.2005 15.4868 9.86478
17.6657 17.807 15.4028
9.72877 12.2686 15.6374
27.1767 20.9588 13.2899
11.1594 16.3372 18.0083
23.3142 21.4357 19.2912
9.49089 8.50151 8.48204
12.1599 12.2179 13.5541
13.597 9.76155 7.45695
9.15229 9.80309 10.8584
23.1952 22.2578 20.183
17.1628 16.664 16.1923
14.1207 15.2967 16.8563
20.3494 22.0105 26.0086
39.9834 36.8106 33.4866
17.4702 19.3735 28.9215
56.3644 37.8347 20.9422
25.7203 28.5689 25.2552
17.5532 18.165 17.6378
13.1574 11.9283 11.9603
13.5581 11.497 9.7302
19.6218 25.2184 30.2018
24.9092 18.5592 17.792
35.9639 29.6864 20.2373
19.5183 23.3635 23.3857
18.5162 18.1355 17.1277
29.9854 37.1613 38.0482
19.9952 22.9112 27.4039
13.8574 11.7253 12.8621
9.6566 10.1231 14.1853
17.5183 15.1953 14.9384
16.3253 15.2525 15.8218
25.7483 24.5537 21.2686
15.464 19.3019 23.4511
19.2276 14.5953 10.8074
21.3595 25.6965 26.2326
20.7745 21.7364 21.4416
11.2839 12.197 13.3335
10.7338 11.653 12.9787
11.0217 9.62952 9.76061
9.34768 9.58648 9.71326
13.503 17.6187 22.4211
25.2151 30.9901 36.7437
33.2837 27.5565 24.31
29.0427 31.3823 30.7447
4.52808 5.3865 8.27749
5.04621 6.91247 12.7902
21.7264 18.526 16.2608
19.5453 24.5638 30.3144
21.74 17.6629 12.9937
10.5757 14.5215 17.9582
10.2999 11.1917 13.4574
10.4688 13.0636 18.7352
19.1698 13.8099 8.84892
8.77522 13.9385 22.7993
52.5414 57.3692 54.0934
24.1167 32.5159 40.4061
14.819 12.8459 16.2742
15.3984 14.665 17.1007
29.9193 30.0985 29.3487
19.3939 20.9486 20.102
8.9735 13.0255 17.9972
10.286 8.30682 7.35263
9.0975 9.77822 9.79859
5.89581 7.42534 9.68995
21.3541 29.7688 36.2644
8.82872 8.4417 11.335
16.1587 20.2579 26.2593
27.4593 31.7623 30.2798
7.58033 10.3557 16.2903
14.0233 14.5221 17.5012
16.8198 17.0176 17.427
7.46982 10.4479 14.271
7.9768 8.88471 11.5536
16.1362 18.536 19.947
7.14284 8.56707 10.0603
11.0489 15.1701 20.3718
15.1564 16.7984 19.3361
21.7727 25.488 26.9881
18.7501 23.2453 27.7183
13.9113 13.8164 14.0362
15.7253 24.268 32.1807
13.6485 14.5752 16.7568
12.7072 17.6991 25.0568
23.0399 32.9786 45.5311
21.1271 19.608 18.8143
12.4699 14.9837 22.3073
29.7248 29.0424 23.5904
17.95 27.7512 34.9992
10.4375 14.2205 20.3767
17.0436 17.2301 15.5452
15.1645 24.5559 32.1579
6.05856 6.87475 11.9553
13.2612 15.2646 16.2333
11.6961 20.3623 30.1729
15.2383 18.3839 22.3997
6.60339 11.8269 26.2959
21.9557 23.0248 24.9624
20.0897 24.3028 27.5086
11.4785 14.4361 16.7253
13.8984 21.6627 30.4059
15.4501 19.343 23.7449
9.01436 10.8983 14.2129
5.65461 6.81332 13.2445
23.4946 29.8092 32.3
18.9748 28.4661 39.4081
14.9464 15.8059 21.8754
22.5426 25.1503 24.3947
18.9096 32.159 44.7775
14.4736 24.5443 39.4417
11.4497 15.9202 28.3278
21.831 28.5779 37.4487
22.2812 25.8596 30.2591
11.5835 16.2764 25.4776
23.2868 29.6655 34.9986
9.4115 10.7106 14.6742
20.0066 27.4225 33.259
8.43481 9.91122 10.7421
6.55308 14.5586 27.1983
10.8494 8.64615 6.16274
14.1184 25.0081 33.5464
7.9136 14.1371 28.4644
13.4588 12.8344 17.2749
14.6145 17.539 18.0977
5.68998 11.7401 23.141
9.41045 8.51131 12.4368
18.1022 24.9822 25.2664
4.25346 12.1003 27.4772
18.4691 20.6097 22.089
11.6634 17.0291 21.5606
4.65979 8.73411 17.1499
17.3505 26.3689 38.9638
19.1276 36.5864 61.8899
14.4776 12.7019 20.4219
14.9229 16.4176 17.9924
6.4169 10.5401 17.3936
6.56216 6.86767 11.2671
13.4331 17.4369 19.4586
4.36134 5.78249 14.0284
15.8677 17.7676 17.3726
5.69592 8.79488 12.4244
8.21218 12.173 20.3531
18.1342 21.4032 19.6572
14.2834 27.3865 40.1421
8.35678 10.109 15.2015
8.21161 11.7734 16.2318
7.42604 11.3226 14.7003
6.57518 10.6016 17.7974
5.58982 4.37909 7.47809
20.4276 32.421 42.5703
11.4602 23.4722 42.4394
16.6397 25.5514 37.8165
10.2283 13.7574 23.2083
7.29111 9.52943 21.1848
15.0866 16.0557 17.3603
13.4017 21.3537 30.9676
11.9537 13.7004 11.7108
4.23499 9.62021 15.8741
6.26986 9.75885 16.9351
10.0523 13.2073 17.5546
11.635 17.6437 22.9883
17.5569 31.4643 43.4522
12.8952 20.4324 26.9183
8.59811 18.2503 29.5124
7.82726 17.2257 35.274
20.0709 36.6207 56.2016
8.03588 13.4246 32.1445
11.644 11.2678 10.8592
9.65804 20.6405 35.9403
7.63051 15.7616 33.5734
5.17174 5.3402 21.2825
19.2382 23.5706 28.8816
6.96765 11.068 18.6012
6.02731 7.17705 14.1217
6.96688 8.32804 12.5328
13.4475 18.4342 22.9775
11.8975 20.7287 32.8592
13.4733 21.5283 30.1341
6.72306 11.3982 21.4889
12.5363 17.5031 22.2803
6.40877 11.4068 21.722
15.3826 27.7875 38.7688
4.84815 10.4499 24.6136
10.0623 12.8468 18.4482
14.0947 33.9411 61.9358
13.9532 14.5678 21.3844
7.95826 10.284 14.6284
10.4953 14.1991 18.6425
14.6263 25.4422 31.1208
10.2407 27.6903 55.1793
6.34175 4.80357 13.8002
18.7348 32.108 40.3797
5.52696 13.2461 28.6608
12.1029 19.5926 24.7021
2.59293 10.5987 25.1657
3.22218 6.82247 18.4336
4.93927 7.69264 18.1104
9.77732 21.9712 49.806
11.2843 13.4014 23.8853
10.3579 13.6519 22.7973
17.608 31.4431 48.2186
7.05803 10.0993 18.0022
5.84733 15.3897 45.7943
21.2871 25.6987 23.4995
5.00304 8.62342 12.2451
5.5103 11.6475 20.557
4.60144 7.91658 16.0051
7.97374 16.7596 28.9352
6.34948 10.8912 26.6781
12.2862 15.2567 14.2687
4.83614 10.2522 15.3828
8.20745 21.5626 37.0593
5.14115 11.5032 28.9868
8.34463 12.4152 20.8365
6.72293 9.51158 17.2478
8.08159 12.4208 19.7083
8.49248 16.4331 29.9664
7.38179 11.4502 18.0458
5.86317 8.7193 15.0498
9.23571 17.814 25.4982
4.916 15.8555 43.94
12.342 15.5958 23.0703
13.3666 21.9411 30.4231
5.84407 13.0939 28.4861
12.0344 22.0451 33.6383
6.44139 12.1735 20.537
1.71698 5.44535 18.2715
4.77797 5.776 10.4872
4.80588 8.80114 20.4115
10.219 18.4053 32.0415
7.8604 12.6959 22.9966
12.1565 20.772 31.0417
10.1146 18.9023 28.1666
11.435 29.7685 59.9003
7.0074 11.4354 27.1811
6.71782 8.78707 17.7013
11.4054 25.6927 45.9853
8.78537 15.5854 30.6859
8.86357 15.5962 33.6626
14.8194 30.1157 55.3799
13.0005 20.4311 29.7241
5.20865 12.4219 28.4932
7.58936 13.8777 29.5176
8.14716 16.1344 32.7639
9.08791 14.3811 25.0274
5.88331 7.28163 9.60139
13.9586 42.5347 87.7557
9.82708 8.54599 16.9859
9.94594 20.0636 39.3322
9.61915 19.8358 40.2459
8.322 13.9851 31.3818
11.4467 20.4409 41.6944
8.77023 11.9064 21.182
7.14112 11.0523 18.3582
8.14381 13.7447 14.4639
4.17168 12.8317 27.5751
6.17112 13.0803 27.1229
6.71778 11.8683 21.5087
9.7313 27.7263 65.5391
13.5605 20.5437 35.0809
7.71685 10.7296 17.604
6.84033 17.452 35.8002
7.80227 13.9388 26.2898
5.33621 8.11108 19.6793
10.5709 23.2582 41.7948
7.93933 13.8815 23.018
7.92167 19.4002 36.636
3.55516 6.83606 21.3381
9.74305 20.4443 43.2967
8.33409 12.398 20.3994
6.5213 15.581 34.9888
7.8535 18.7223 39.2748
7.01719 13.9108 35.1453
7.38646 8.79427 9.39402
3.76163 10.4334 27.6665
7.99881 14.9698 22.485
6.78596 19.6175 49.8312
9.44206 16.2463 35.5951
9.89112 19.859 35.848
7.56277 17.1599 39.3887
8.45892 19.3898 37.9459
4.43704 6.7982 26.5326
9.8301 16.0588 29.3613
8.76952 16.1888 23.2945
6.75173 21.3032 51.1743
6.6982 7.19655 15.6601
11.8826 26.2278 47.2124
4.50047 7.13435 18.1442
4.77552 7.81616 18.1179
9.0398 19.7253 32.5523
7.3893 17.8562 37.8938
8.31426 21.8155 45.4444
5.20983 11.1727 31.4451
4.00989 5.1224 15.6173
4.98533 11.1132 27.148
7.46636 13.4306 27.3691
6.21164 13.067 30.62
6.34566 13.8304 41.7503
17.0285 36.4284 63.5869
6.96996 11.2651 27.8915
8.04782 12.8306 18.4882
3.10799 10.505 38.9279
10.8336 12.5108 16.3645
9.27698 19.0573 28.5324
4.94846 9.68476 14.4856
10.7938 34.0995 67.2535
3.69581 5.29828 18.8512
7.59258 15.1443 23.2222
2.54646 6.44092 16.9325
4.86039 13.8178 30.6399
3.49819 6.56743 14.5585
5.72669 18.6508 45.929
7.53294 16.0181 36.6832
6.30599 10.1627 12.8373
4.88894 17.9512 46.9062
10.5178 24.4667 43.3579
3.64532 8.76473 27.0028
6.3477 16.2331 41.7
5.45392 8.92273 20.0143
3.47027 4.74011 13.0618
5.36422 15.5465 44.278
6.3723 5.86418 8.81487
5.94202 14.991 29.8333
6.30118 13.9595 27.041
3.26188 6.85215 14.8046
2.98452 7.86383 23.5149
3.67778 7.74973 22.1128
6.44088 14.1697 23.4055
3.04487 7.02528 15.3774
7.64418 30.5069 91.9634
11.5012 16.778 31.742
5.73256 15.2893 50.0655
8.55076 10.313 32.6175
16.1597 35.0539 51.7469
3.6801 6.19292 14.2401
3.96539 11.3632 33.1862
6.05025 10.3318 28.9323
9.68904 17.1265 26.5897
5.64696 11.5685 18.8158
4.18203 12.6342 25.4662
2.80966 7.27225 25.6742
5.28629 13.0957 28.9064
3.9637 8.55018 25.432
4.97949 8.7573 18.7553
6.21744 15.7048 30.4721
5.2429 10.2145 12.1245
1.23743 11.8696 54.5659
12.2645 18.3069 30.4811
6.79121 14.1953 28.545
7.12455 16.4069 34.9247
9.08054 21.0107 32.9981
3.92049 12.654 30.6072
4.70859 13.4956 32.7982
3.89249 10.1758 29.3753
5.34626 12.0971 27.1127
4.94093 15.4987 42.0725
7.78277 20.2962 43.1572
3.57387 7.41593 27.1568
5.36085 10.544 21.6469
4.15785 11.7879 33.8609
6.01212 17.0189 53.5921
10.0344 16.3371 18.5445
2.68905 8.83752 17.6281
3.66651 16.1743 49.4481
6.30221 14.1073 33.069
4.13184 8.05875 20.4826
3.5934 6.84525 21.0408
6.27103 14.363 27.3924
4.72075 15.885 51.26
8.47281 19.059 47.366
8.79955 20.8939 50.3966
6.5171 15.3485 36.42
5.61893 10.2034 20.627
5.24935 15.6385 32.4637
