# pn-170911/RbIIR-60-PTBB-1280-1959.psd
# Power spectrum* (dif=0,1,2) (really just |FT|^2)
# NOTE: only the first half! (symmetric)
# weeks: 1280-1959
# 8 clock-days, 0 excluded
# PSD: 1441
410.495 0.0385917 0.0250931
11643.3 0.325792 0.0158594
95810.2 1.90406 0.0157982
15667.5 0.520514 0.0159363
30789 3.13673 0.0168602
5212.01 0.328999 0.0162175
7602.72 1.134 0.0159118
3242.64 0.942148 0.0175319
4960.05 1.51124 0.0180175
2374.78 0.955209 0.0165746
1659.49 0.772852 0.0184238
2154.21 0.898734 0.0166042
950.659 0.593758 0.0182215
1527.88 1.45175 0.0175497
2044.15 2.05871 0.0218071
1062.45 0.847743 0.0146515
1151.81 1.78328 0.0199946
769.93 1.18529 0.0207246
878.545 1.48556 0.0151204
601.106 0.838219 0.017091
1641.29 2.8944 0.0229181
1015.71 2.21452 0.0223414
666.402 0.935551 0.0171847
336.562 1.13844 0.0180702
266.209 0.55406 0.0199368
190.177 0.398142 0.0184184
768.419 2.14007 0.0252277
476.012 1.43329 0.0188494
357.407 1.47939 0.0205654
427.584 1.63527 0.0245843
451.1 1.9689 0.0205729
501.199 2.21164 0.0147013
434.367 2.19221 0.0297123
554.541 2.57466 0.029268
890.101 3.90379 0.0283727
231.873 1.32558 0.0412452
275.679 1.96557 0.0155908
471.933 2.935 0.0365714
257.303 1.39138 0.0166036
306.723 2.34502 0.0378996
248.75 1.87006 0.0435232
229.257 1.7848 0.0314785
412.363 3.0827 0.0366437
163.517 0.951337 0.0284865
323.26 2.68595 0.0576964
311.908 2.1144 0.0354176
264.397 2.50533 0.0282756
283.823 2.75569 0.0636679
205.809 2.57054 0.0453748
291.641 3.19893 0.0626856
114.3 1.47263 0.0286558
324.802 2.96769 0.051674
167.568 1.86355 0.0494205
155.567 2.22287 0.0380783
270.829 3.90157 0.0595137
89.1019 1.76293 0.0278893
136.096 2.57263 0.047885
223.728 3.03776 0.0417669
248.006 3.44082 0.0784676
203.417 2.90519 0.0550133
127.237 2.01097 0.0423503
177.358 3.39333 0.0878351
266.065 5.14405 0.127768
207.945 3.51628 0.0699161
130.11 2.7395 0.0825788
92.212 2.46011 0.0566315
260.914 4.06857 0.0981837
349.722 6.4512 0.128495
210.001 4.52494 0.126943
202.421 3.76278 0.118378
268.096 5.84561 0.173457
91.1766 2.07536 0.0609101
370.487 8.29513 0.201966
181.087 4.72469 0.166925
305.648 9.2924 0.304952
674.69 17.6649 0.470317
609.855 15.43 0.482885
187.221 5.31821 0.178083
236.419 6.15407 0.199417
66.822 2.11733 0.0490456
166.625 4.88037 0.124488
138.954 4.98413 0.151642
113.99 3.34983 0.118981
144.963 4.38472 0.136843
147.139 4.1967 0.171791
100.786 3.04046 0.137828
222.814 7.77009 0.259885
113.014 3.94104 0.190873
117.51 5.70674 0.220522
134.029 4.15286 0.210355
131.209 4.81735 0.159842
109.246 3.51107 0.149507
205.771 7.0134 0.301417
126.067 4.11302 0.18244
151.468 6.05541 0.262368
121.394 5.48912 0.271015
95.5375 3.70021 0.219484
170.796 7.26345 0.363501
176.479 7.79491 0.394159
161.342 6.80097 0.398407
192.84 8.75468 0.43912
103.539 5.05826 0.209253
69.6392 4.4393 0.219905
149.832 6.57686 0.259139
79.7194 4.37088 0.235126
205.16 10.3446 0.506673
177.596 9.80702 0.511245
101.827 6.01224 0.368084
130.485 7.0036 0.403046
46.913 3.39603 0.176599
76.8012 4.82495 0.295816
116.572 7.24941 0.444558
122.768 7.76544 0.508978
72.538 4.63473 0.280284
106.936 6.69192 0.42607
88.2152 4.91015 0.385631
67.1243 3.21026 0.183519
107.121 6.34112 0.381297
146.607 9.04915 0.613451
171.11 11.5004 0.897561
70.8088 4.32647 0.345214
74.7773 5.90388 0.442001
105.149 6.41651 0.444607
145.835 10.9768 0.802442
152.409 10.747 0.97493
148.361 11.0233 0.755219
81.3208 6.27679 0.520289
237.708 17.2575 1.30328
120.618 8.63562 0.642723
92.3257 6.89601 0.577181
61.4109 5.24138 0.456369
85.5933 8.27969 0.75617
157.227 12.4955 1.11046
84.4432 7.17718 0.722842
145.677 12.5413 1.15247
120.389 9.62939 0.723729
162.451 13.5803 1.19899
91.8949 7.91659 0.612134
91.3368 6.7084 0.599889
213.817 18.5156 1.58549
35.088 3.78565 0.367935
157.899 15.1889 1.65782
159.654 16.3024 1.39508
51.8829 3.663 0.300485
213.142 19.7864 2.07302
72.4346 7.17151 0.751057
107.999 12.9229 1.35792
43.5793 3.26469 0.328105
99.2086 10.1556 1.03566
131.773 13.7357 1.48507
41.4313 5.07366 0.547508
142.728 13.7964 1.47613
81.0126 8.53482 0.918755
90.6481 9.73665 1.05206
170.419 20.0384 2.38486
149.135 15.9544 1.82401
70.4575 7.10943 0.854906
62.4734 6.90521 0.797238
81.2085 9.08547 1.1825
140.918 15.1199 1.80419
88.8741 9.9469 1.13863
117.449 13.143 1.69515
84.0478 10.3563 1.46615
65.1764 7.28151 0.903607
99.7849 13.2571 1.64897
93.3421 12.509 1.79251
52.7796 6.30161 0.640951
68.4241 9.89823 1.30605
95.0172 12.9165 1.60257
66.96 8.08251 1.11656
120.994 16.6019 2.25652
82.4612 10.8574 1.56924
54.5317 8.12382 1.21782
120.214 16.2606 2.15122
86.9981 13.1842 2.03558
76.0641 12.627 1.87286
149.798 20.836 3.16588
71.2071 11.1912 1.87545
91.1578 12.9356 1.87517
40.2913 5.81351 0.86532
72.6494 10.383 1.74662
71.4634 10.3075 1.73242
44.9926 6.49516 1.05532
104.03 14.6756 2.03209
47.3476 7.47946 1.37523
88.7582 13.6723 2.0379
37.2237 5.34907 0.869549
87.8738 13.7707 2.34301
34.6996 5.94658 1.00201
61.8667 10.1298 1.89242
64.0456 10.6961 1.73962
58.3425 10.4124 1.69054
91.3601 15.6803 2.60944
58.0818 11.6644 2.24602
100.387 16.0596 2.74026
48.3898 9.72622 2.15407
89.5917 14.8254 2.46341
66.451 12.5026 2.22295
75.3763 13.1821 2.37796
55.9991 10.812 2.08389
56.583 9.55167 1.68879
53.1364 10.8574 1.97699
63.445 11.5707 2.02575
61.0347 12.3651 2.58423
117.199 22.1577 4.30659
77.7493 16.55 3.46686
111.671 23.4055 4.49819
68.0809 12.9585 2.6549
83.2642 18.4696 3.8142
51.2425 10.9938 2.51016
44.0754 7.14766 1.20699
95.7336 18.8525 3.85091
59.7152 13.5321 3.09773
104.805 21.4624 4.0703
85.5477 17.5056 3.76583
41.3718 11.0051 2.52872
48.1488 10.7918 2.49229
51.7388 12.2263 2.67525
33.7548 6.39666 1.48695
61.5094 14.5314 4.06272
61.9064 12.9313 2.35117
58.9253 13.6733 3.3869
60.8026 13.0418 2.96058
88.5033 24.3484 6.34863
63.9822 11.8187 2.26361
53.5112 13.5375 3.01495
46.5636 9.65038 2.48765
44.5407 12.9806 3.34853
48.9066 11.1203 2.6173
67.0975 15.6517 4.00564
77.7507 20.3027 4.862
45.1383 13.2645 3.88686
89.9058 19.5633 4.31054
71.7306 18.1527 4.63372
62.9106 17.5601 4.51485
64.7861 13.9293 3.23684
61.913 18.4286 5.54946
75.9547 15.0371 3.05889
62.0403 16.4192 4.49255
62.3629 16.4704 4.54592
49.6029 14.8764 3.99541
80.1039 20.567 5.48674
60.1665 18.318 5.83208
63.4223 19.4502 6.14379
92.5385 22.8846 5.08715
26.6888 7.87175 2.07861
47.7504 13.9456 3.7253
31.9097 10.6066 3.55772
50.643 12.9364 3.73207
80.6221 20.3903 5.46226
50.8692 15.2876 4.52159
45.4596 12.3624 3.46945
31.5261 9.52431 2.92957
36.0321 9.75366 2.50122
47.2287 14.4406 4.67923
39.6645 12.3514 3.53834
37.9386 11.7282 3.78724
42.9176 14.3788 4.42715
28.5729 8.44031 2.44016
57.3644 17.4284 5.65042
44.0459 13.2714 3.94095
59.0155 19.8088 5.98905
59.0512 22.5276 7.5658
50.6524 18.2163 6.42716
43.4647 11.6302 3.01629
56.13 17.8227 5.80943
56.5184 20.5976 7.56537
47.3043 11.3787 3.1151
75.2009 22.1521 7.09065
63.5709 21.5687 7.25121
39.9264 15.2249 5.66118
28.8978 8.32052 2.86697
73.8826 25.229 7.7889
70.2857 26.1467 9.42623
39.7781 11.3649 3.81039
50.6406 17.633 5.74277
47.8713 18.8827 7.25368
47.3351 15.42 5.31837
49.6304 18.8712 6.45768
53.5422 18.0475 6.24699
48.6571 18.3314 6.67952
40.1808 14.4234 5.75299
45.1394 18.3495 7.18341
51.86 19.8682 7.17827
51.8453 16.9484 6.16649
18.6609 8.36922 3.61917
56.9339 21.1505 8.10567
66.9691 22.5059 8.19753
47.9726 16.8103 6.25303
79.8139 32.9858 12.6163
57.5883 23.9245 10.1087
39.5807 18.0757 7.64453
42.1949 17.2449 6.81851
56.1565 22.0414 8.83882
78.577 28.6188 10.4438
57.8679 25.8394 11.0973
28.3954 11.5123 5.2677
51.9525 20.1199 7.86634
33.2337 13.3122 5.66123
19.1586 6.81194 2.69636
31.0834 15.2146 6.49505
55.9028 27.4757 12.5677
49.2166 18.0385 7.29495
43.312 15.8155 6.22468
28.6074 11.4879 5.65354
70.7588 26.7992 10.2786
28.5176 12.4185 5.38272
56.5369 23.3448 9.9222
28.1667 8.71693 2.68049
44.8978 19.8458 8.33429
48.1683 21.019 8.31677
23.3982 11.2786 5.53416
67.9729 34.2095 15.4562
26.3956 12.3272 6.44037
25.3212 12.4401 6.61134
44.5821 19.9432 8.14068
34.8538 16.5463 7.75513
25.7853 11.673 5.15435
31.2235 11.1173 4.63246
42.5143 20.6933 9.63002
25.6968 13.4515 7.55142
35.6011 16.9972 9.00942
37.0228 15.1156 6.71744
49.5768 23.6344 10.982
51.3905 21.9753 9.03676
41.1116 22.5047 11.7448
59.6328 30.3043 15.927
24.3549 10.6085 5.17071
29.0937 11.3514 5.253
27.7284 13.1782 6.68092
11.295 5.7456 3.11616
35.3836 18.3276 9.37633
42.8992 18.9433 9.25189
43.3305 23.0364 11.3653
24.6249 11.6075 6.41057
22.7005 12.2373 7.0149
41.4578 17.6266 7.03128
24.7165 14.3694 8.55236
48.9614 27.0581 15.059
30.0828 11.9314 5.92125
62.2019 29.5283 13.7259
20.8771 10.979 6.94228
44.1798 20.2733 9.53985
53.4462 27.8009 13.3599
57.7499 32.5217 18.27
24.011 11.3342 6.76481
34.615 16.7883 7.72787
36.4852 23.2116 13.7063
28.971 15.2761 9.75609
54.8519 28.2165 13.6666
17.4677 8.16606 4.62618
33.94 20.0648 12.7538
34.5893 17.5033 8.52788
32.2396 16.6156 7.95634
15.5404 10.4471 7.06167
39.7165 24.0254 13.0405
28.7633 15.932 8.79647
39.3782 25.5824 14.9748
34.2688 20.3811 12.3641
39.6092 22.9175 14.2004
11.4488 5.26989 3.70002
24.2425 12.2025 6.41959
32.6568 19.986 11.1678
28.6383 16.2222 8.87698
24.5798 15.9258 10.0424
14.6062 11.074 7.9467
20.8627 12.2118 7.69169
36.0003 22.8266 14.0112
37.7191 21.0928 11.7775
26.9035 16.8416 10.6357
23.7946 13.7557 7.53682
29.4354 19.8099 11.8638
32.5993 25.158 17.2623
32.8049 19.1102 12.1258
35.7366 24.6912 17.6184
25.3463 12.2218 6.91136
38.8431 24.6507 13.7755
21.1648 15.8239 9.792
18.7957 12.8963 8.83914
16.8054 8.89224 4.47861
25.723 18.3471 12.6201
34.961 25.7209 17.5444
28.065 14.1691 7.14172
17.1855 13.4776 9.81315
23.3264 15.6963 10.8343
23.6883 14.958 8.56201
19.835 19.442 16.0297
22.4352 11.7418 6.71943
23.4732 19.1982 16.65
47.5054 26.4353 15.9768
28.6245 18.719 13.2717
26.0247 16.0016 9.64132
23.6585 18.1108 15.2558
53.5041 32.8437 20.1142
21.0827 14.8542 10.1593
19.5936 14.9949 10.8804
24.4236 15.1248 10.094
24.9111 17.6315 12.0143
16.849 14.6658 12.34
24.7153 15.0599 9.419
12.463 10.0374 8.53387
13.8279 9.14675 7.26261
28.1809 20.2561 13.7638
24.3936 18.3164 13.7296
19.1222 13.6243 11.0472
25.6129 16.2657 10.9383
14.1246 8.2151 5.42949
7.9078 7.13645 6.04501
20.175 14.5336 11.0981
19.0368 13.5455 9.11186
29.1058 21.5309 15.9013
12.5155 12.6073 12.3119
27.0698 15.7603 9.9891
20.2406 11.2767 6.16288
7.63361 6.15406 5.63063
22.4946 14.7542 8.95245
20.8122 17.7208 13.7647
11.5071 9.71962 9.03984
24.1702 19.1616 15.579
23.6968 19.7953 17.3792
29.3308 19.5505 12.2289
20.0448 15.9981 12.229
14.2814 10.6811 7.95423
31.9158 26.2376 20.0645
24.4537 23.1082 22.5509
35.0152 24.9688 18.6182
22.3269 15.2275 10.6593
15.2637 14.8695 13.097
25.0559 16.1545 10.8344
18.1129 15.9777 13.5364
27.5098 22.6813 19.8169
23.6996 21.2146 19.4949
25.9793 21.4567 16.5843
11.3389 9.39479 9.23804
35.3131 32.6998 25.9464
21.1909 15.2584 12.5689
24.9929 20.5941 16.1934
11.1543 8.54415 8.28376
20.5685 20.0424 18.9206
24.692 15.7858 9.21989
16.675 12.5271 8.98252
19.2891 18.3299 15.852
18.075 16.8765 14.3322
12.0763 14.0152 15.9205
29.6642 26.082 22.4758
16.6072 10.2014 7.4526
21.487 22.5504 24.1422
29.6669 21.3528 15.0798
23.1263 19.9299 14.5617
13.0666 12.1687 11.6634
23.6602 25.4057 23.5412
20.2817 14.6465 11.9766
42.0169 39.1943 32.2238
15.0039 15.212 15.8308
18.9486 17.072 18.5482
16.2802 11.9151 11.0246
11.5725 10.6769 9.14523
20.4004 20.2032 18.6452
12.7786 12.9447 13.5705
10.7384 6.33256 5.66741
13.8417 11.3287 10.5324
22.2828 19.5413 15.8367
12.3496 11.7856 12.6063
14.6231 13.0312 13.1496
17.3632 14.6402 13.3094
25.821 24.1002 20.6792
17.4353 15.9246 13.4211
13.6293 16.4942 16.6834
11.7712 9.43496 9.09956
18.4132 16.0077 13.6841
19.0823 18.5461 15.4634
5.84352 11.5303 16.3251
16.7099 10.9663 8.31709
13.3202 14.2299 14.7027
23.439 20.816 18.3462
12.0816 9.99339 8.80128
28.5433 29.6924 30.2227
13.3891 14.2598 15.0475
16.0249 13.4251 10.7767
12.2492 16.1059 19.5704
15.5349 13.4531 12.6175
16.2214 14.2543 10.7299
10.934 11.6811 12.8249
17.7413 19.8659 19.4633
30.1601 38.3157 41.7285
24.163 21.6975 21.7646
19.3318 15.4371 11.2909
12.1137 15.333 16.5532
9.98481 11.8722 14.4968
11.2551 13.382 17.0269
14.4267 15.3276 16.7966
19.6036 18.18 16.0659
5.73542 7.7024 10.8814
12.0736 12.4612 16.1694
14.3041 9.48605 5.80375
10.4473 9.97761 8.8557
12.7789 17.7308 21.489
16.8753 15.9252 14.3824
17.084 20.1748 21.8196
9.03442 10.3246 12.8285
23.3429 27.9918 32.3844
13.2588 11.4665 13.4561
16.6911 12.8497 10.2974
10.073 10.6041 11.1572
15.8465 19.8328 23.3575
16.5314 16.2091 16.3465
15.5508 18.3634 20.866
11.285 13.9984 19.6529
22.6495 21.8562 23.148
17.5682 17.0741 17.6025
7.34518 7.71723 10.9026
18.0097 18.7512 19.6552
18.1353 20.1357 20.8068
8.58762 9.36641 12.4218
12.0954 12.0141 11.1545
12.7622 15.413 16.7591
23.5581 30.7038 35.8542
13.5566 17.8361 21.8008
7.91969 7.95295 11.9645
16.6962 14.383 14.4735
20.0921 20.7359 19.9295
13.5384 16.7673 19.1805
7.38651 8.95302 10.6169
11.1823 13.7826 16.2287
28.5463 36.8735 40.5964
8.33006 10.3692 14.8631
11.492 13.1332 15.5321
17.9664 22.7005 27.8226
18.8746 20.8982 22.7865
22.5919 27.6649 32.0029
11.8015 11.4081 13.5689
15.9875 22.1197 27.0236
13.8633 15.6613 17.4868
19.2595 27.8054 36.0346
9.26054 11.1897 16.4485
9.82012 13.7448 22.1774
16.629 14.6384 13.7752
7.8162 8.69201 12.1185
8.04823 7.94381 9.41515
9.35865 10.9022 14.335
14.4826 16.6185 15.4291
8.19919 13.9597 22.7639
17.4466 16.7739 14.1447
11.8369 20.9616 31.2355
13.4941 10.3064 8.63232
4.57712 5.78603 8.07985
9.31571 10.026 10.606
14.2158 19.9233 26.0006
15.0148 17.8291 21.0581
15.7845 25.9472 39.2556
10.7068 9.2897 12.45
18.803 23.3776 25.1554
7.45521 10.7013 13.4988
7.29929 10.7974 14.1225
4.87928 10.2329 19.9594
14.1965 15.2605 18.6912
11.6513 16.3534 25.6457
15.93 15.8523 16.6985
10.2461 13.3177 15.5447
12.529 17.4935 23.5212
15.6755 20.6438 29.2973
16.0988 16.9747 18.9765
16.3401 21.6024 25.8856
12.3708 15.9476 20.6462
17.574 26.5647 34.3242
15.3024 23.9014 34.121
11.6391 11.661 14.9818
8.7768 11.4725 14.8921
15.0395 20.8758 25.7898
12.9176 17.3438 23.6454
17.1564 26.2702 36.8924
18.5381 24.9571 29.8467
16.7646 29.3515 47.1024
14.5313 14.0919 12.7075
8.85774 17.6838 27.3041
11.6008 12.5013 17.076
12.8955 18.4345 25.5663
5.98267 6.56072 10.3248
13.1095 21.7358 29.9857
8.07287 10.2487 18.008
10.5445 13.7402 25.1584
17.6265 20.3607 19.8236
12.3812 21.584 31.3207
8.2052 7.70856 11.954
7.03899 7.05039 8.19725
11.09 18.6132 28.2184
16.3374 26.5615 39.1962
10.7475 9.23785 11.8431
15.6059 24.725 37.5018
18.7254 21.7051 20.8924
6.18214 12.6092 21.1165
7.86688 9.4092 11.0299
5.2105 8.27447 12.7797
9.63968 17.8243 27.0485
7.82295 10.6612 15.18
8.9893 13.8126 18.8259
4.02993 8.7097 18.2108
12.055 20.9504 40.3146
16.6295 19.6121 23.6157
7.09887 7.75402 15.1798
16.3929 23.3911 32.0343
12.4909 16.0293 17.957
5.71267 9.46525 17.6028
18.1489 26.9118 29.4751
14.241 28.1694 44.7913
9.89021 13.6565 24.6313
14.1765 21.2136 30.2388
8.21011 12.5531 21.1055
10.5718 15.0801 21.5202
7.43117 27.2003 83.7463
59.7612 68.999 65.448
13.7229 20.3746 31.9494
11.0165 14.929 17.8549
10.4934 19.5809 33.5154
13.3293 20.7052 31.1822
11.3126 15.7487 23.7941
10.9737 17.9782 26.4687
7.57111 11.4841 23.225
10.8968 13.1378 16.1541
5.96942 9.41199 17.9112
14.5888 20.9865 27.736
9.63285 17.8708 29.1104
7.06728 8.9467 15.4664
8.57039 14.184 24.2002
13.6553 18.1995 20.7217
7.9468 14.9088 24.8754
5.7167 10.6261 20.1691
9.4859 19.2892 37.8102
12.2265 14.5446 22.3463
10.6087 16.0367 19.682
7.25384 13.948 26.2202
11.0096 19.1917 34.7305
11.2305 17.4754 27.6146
8.12592 11.4086 24.1624
14.1474 21.2948 29.2857
6.67956 8.40145 10.7731
9.78809 20.1918 34.788
6.854 9.00513 14.4281
8.56697 15.4699 27.0535
5.46382 7.96718 15.5286
7.5404 9.64846 14.3021
12.8222 22.3248 26.572
4.48982 12.7967 27.9899
8.32487 9.91479 16.2785
8.166 14.3033 24.1214
9.91795 14.88 20.5649
7.76855 14.9368 28.565
11.9976 22.8608 41.3572
7.24143 11.756 35.2655
21.3611 30.7344 37.4797
10.1301 15.592 19.7138
7.5158 17.1951 33.5048
12.9931 22.0333 32.0365
6.56057 12.0987 23.0841
8.76316 12.0235 17.5345
7.92996 14.4744 22.032
9.86293 19.4257 29.4996
10.3945 21.2825 38.0773
6.43621 9.36474 23.0433
15.4832 24.9728 30.0364
4.55444 10.2857 18.5545
5.92812 13.0315 27.1988
9.50301 15.6998 23.521
6.88729 18.1719 45.1669
11.1354 14.6181 25.8332
9.50536 11.5358 10.957
2.9732 5.62767 10.5385
8.5554 21.9643 48.2066
11.4462 14.0935 15.7838
4.34289 9.62625 20.4276
6.92778 13.022 20.8733
5.87584 10.8992 24.3587
12.1016 24.345 39.8313
9.43315 14.9962 19.9564
5.45718 16.5613 41.085
9.14834 15.3975 29.4586
6.30423 6.96255 13.5672
11.6322 20.7561 32.471
5.42531 9.81378 17.4318
3.84087 8.35875 25.9723
16.239 26.4572 35.7721
4.81523 9.08864 17.0428
4.74552 8.47802 15.5554
4.68394 9.79281 20.2144
7.08639 17.2703 42.1397
12.5899 15.7508 19.9781
7.48142 14.4046 21.9247
2.97381 5.8946 14.7158
4.28444 7.74036 15.6049
5.53635 8.24404 18.5056
8.60828 15.3178 23.9628
7.84376 15.1366 28.5584
7.05148 15.0357 28.9749
5.7183 9.85737 19.6859
7.3865 12.7785 20.6996
7.45043 17.2514 34.3803
6.05261 11.7425 25.4937
13.6385 27.1112 49.065
8.5313 16.6042 34.5457
10.8296 18.6291 32.7899
9.46285 16.4269 26.9037
8.13651 18.302 35.5324
7.16063 12.8254 20.1996
7.40931 25.9055 65.0207
10.7905 10.2083 17.2753
9.32722 21.1788 40.383
8.77274 14.4479 30.6684
10.1189 13.5696 14.0123
3.89026 13.4134 33.956
8.64953 12.5377 19.8658
7.38614 15.8352 28.5206
4.14002 8.16188 22.6956
8.86376 13.1807 20.0039
4.77699 8.76946 16.607
5.45808 12.8437 22.0739
5.54404 11.8545 25.6445
9.04714 15.688 25.1224
6.15002 16.3084 37.1493
6.44153 10.7632 19.7206
5.11521 11.7264 24.7969
5.33099 9.76717 21.6368
5.19712 9.70187 22.7928
10.1854 24.308 51.5869
7.17941 8.89047 19.1137
4.56168 5.66477 15.7258
10.7673 21.5201 40.69
7.19217 13.4662 24.778
3.51277 6.98132 25.9496
12.0655 19.7818 28.5085
5.3619 9.76817 16.0055
5.92267 11.7574 20.1777
5.56308 13.9233 21.8693
1.14682 4.56418 14.9456
2.64371 8.20035 22.6415
4.41984 9.79289 25.4715
8.56609 17.2035 34.1543
7.18773 13.8492 29.4022
8.39989 15.228 24.8209
3.82567 7.06743 14.2404
3.2125 7.57954 17.3875
3.88769 10.7507 35.8529
9.82375 13.9734 17.8483
3.52977 7.58628 15.6485
3.06483 7.07119 17.9019
5.50638 9.30135 13.0403
6.47521 19.4948 43.054
7.60509 17.9383 41.7781
8.09756 14.8732 34.9575
7.37165 11.623 18.461
2.54962 7.33432 19.9335
4.71713 8.81992 18.3483
5.01302 12.1304 24.5817
5.01446 15.7087 48.6023
8.99509 11.2696 19.5797
8.07843 14.5655 14.312
6.17053 24.9415 65.4335
11.8913 23.3819 43.8751
5.96355 12.0983 28.9394
5.15601 6.77592 15.3318
5.24363 9.91476 19.9007
4.4658 10.3246 27.2918
11.1296 21.7937 28.3802
3.01705 11.4014 30.4762
3.45778 4.44828 13.4758
7.12326 16.4385 36.9393
7.07455 14.8217 29.296
6.62909 17.5699 36.7018
8.29121 21.0507 45.8204
9.64392 19.2842 40.577
6.52212 12.8454 21.8262
4.06093 13.8344 41.5985
6.94287 11.7856 22.6512
5.32973 10.8556 23.7111
3.90237 8.80919 20.8165
4.61277 9.371 20.9947
3.69492 7.71165 18.4741
4.84584 8.65926 14.2074
6.13893 21.3243 48.1861
4.51426 6.91304 25.0908
10.8035 23.8281 41.7288
4.91155 11.6085 28.069
3.73251 6.68975 14.4411
1.65532 3.5777 16.8147
6.88616 18.4995 39.8541
3.73751 4.96124 13.1984
5.74399 14.627 35.7204
5.44345 8.15651 20.677
9.11681 23.3503 46.1014
4.64234 12.4948 36.2156
6.51983 11.9292 27.0959
7.53656 18.8718 45.2163
7.2227 15.2163 34.0901
5.51932 13.6783 32.2193
5.38553 11.7845 28.0393
8.08873 22.3504 54.0924
8.58085 16.6623 34.2492
4.80151 10.6126 27.0121
6.46243 16.0897 33.8352
4.22097 9.70605 27.1957
4.95662 8.30305 20.5128
4.6918 11.6204 29.9184
4.02024 6.81175 17.5794
2.97424 5.85498 25.2555
9.8486 17.514 22.0588
5.34576 17.4268 36.5166
3.54124 9.4862 30.5759
6.37267 13.8148 24.0124
3.19673 9.16203 25.4116
4.12049 9.89838 28.6994
5.92171 13.1054 30.1757
5.02886 9.92219 26.3579
7.34006 17.7208 41.1924
7.92158 17.6061 32.2191
4.20136 8.73597 19.009
4.59299 16.1483 38.4388
2.7403 4.63663 20.3252
5.51505 14.9329 34.7026
4.05094 9.80735 30.6807
5.91144 9.30933 12.4017
1.84436 6.65814 21.2335
2.21512 5.0984 19.7713
4.24808 9.08467 23.1431
3.67264 6.21957 15.9883
5.3217 12.6763 25.5684
4.81453 11.2816 32.479
5.97841 14.3184 31.5069
5.0863 11.7929 31.6259
