# pn-170911/RbIIR-59-WTZR-1280-1959.psd
# Power spectrum* (dif=0,1,2) (really just |FT|^2)
# NOTE: only the first half! (symmetric)
# weeks: 1280-1959
# 19 clock-days, 0 excluded
# PSD: 1441
402.6 0.0538519 0.127323
9864.7 0.233464 0.185999
27742.8 0.689609 0.152436
15503.4 0.746306 0.175552
24517.7 1.75257 0.210271
3803.41 0.33911 0.168809
3556.16 0.619612 0.206311
2690.09 0.714682 0.165545
3350.27 0.981981 0.257975
1625.87 0.505336 0.191562
1514.29 0.817751 0.217307
1262.29 0.687461 0.198253
796.477 0.536979 0.231344
907.193 0.628826 0.189501
728.788 0.516902 0.181583
619.119 0.583627 0.168798
624.385 0.723462 0.198724
436.621 0.580353 0.14508
443.046 0.80305 0.15854
279.461 0.585439 0.137135
495.482 0.723077 0.161883
283.01 0.667376 0.160198
448.47 1.14785 0.147506
235.818 0.617813 0.172269
316.279 0.934789 0.187421
323.941 0.987585 0.180523
358.762 1.18823 0.199341
254.778 0.803819 0.16277
217.877 0.875107 0.21334
235.734 0.937549 0.160744
278.317 1.17604 0.181745
284.665 1.17318 0.17589
333.728 1.31899 0.188132
239.016 1.07213 0.156617
244.261 1.28837 0.147327
272.353 1.70921 0.162961
229.366 1.30895 0.146832
221.377 1.56509 0.145386
291.276 1.7379 0.119098
279.811 2.01424 0.149066
323.336 2.29414 0.144924
296.697 2.15643 0.130788
183.164 1.52699 0.110143
319.507 2.50312 0.147909
364.225 3.23657 0.173838
204.046 2.29704 0.149817
249.969 2.37695 0.179682
246.108 2.37347 0.163485
216.048 2.26747 0.200524
226.61 2.4404 0.15792
283.061 3.422 0.163302
186.46 2.15914 0.17089
263.696 3.17277 0.206978
119.111 1.43504 0.15068
222.889 3.36972 0.11918
212.001 3.18514 0.137921
287.534 4.04515 0.156986
160.733 2.48962 0.144768
121.108 1.98622 0.108972
266.325 4.28998 0.179851
185.953 2.91274 0.136277
176.053 3.1478 0.182851
153.008 3.2023 0.140204
209.904 3.83143 0.185406
200.991 4.12627 0.221354
145.786 2.80469 0.226449
199.48 4.39521 0.126139
229.979 4.47854 0.303602
187.91 3.86574 0.204985
133.966 3.11112 0.199506
260.065 6.08091 0.263454
218.567 5.23895 0.235278
179.422 4.49849 0.237681
178.484 4.19866 0.270629
299.212 8.49191 0.270344
212.834 5.36384 0.305458
168.825 4.45972 0.192911
172.256 4.68918 0.174029
173.805 5.23499 0.239638
164.747 4.87259 0.194924
202.335 6.16554 0.269041
123.156 3.3458 0.249306
184.581 5.79027 0.291578
192.191 6.79136 0.239652
155.437 4.94594 0.243878
179.105 6.26604 0.364784
215.971 7.75534 0.228762
173.805 6.57851 0.495407
159.522 5.9869 0.348086
202.613 7.43634 0.276501
149.048 5.8468 0.330997
157.137 6.20674 0.314972
197.626 7.77561 0.368922
147.187 6.50387 0.214342
120.676 4.76724 0.292165
163.269 7.31409 0.4556
299.129 12.3164 0.669643
108.577 5.13082 0.251815
127.137 5.6496 0.335878
165.625 7.83672 0.565348
148.825 7.55051 0.525336
186.956 8.40972 0.48943
224.965 10.835 0.651494
153.39 7.67401 0.678811
195.525 10.7482 0.513772
116.09 5.92562 0.394363
140.392 7.89645 0.459892
198.38 10.7865 0.875236
244.694 12.9638 0.600362
145.201 8.05541 0.685772
177.875 10.0342 0.54787
174.41 9.2626 0.586172
151.059 8.99095 0.498718
187.424 10.4232 0.739588
153.012 10.3532 0.844863
195.278 12.0312 0.828641
105.177 7.45005 0.495564
126.849 7.79843 0.543938
181.305 11.5995 0.805732
201.866 13.366 0.88021
196.811 13.478 0.900735
189.517 13.961 1.04101
161.615 12.0334 0.860289
139.905 10.4408 0.736875
212.574 15.1899 1.21699
139.748 10.7768 0.894345
171.146 12.7361 1.24403
99.3343 7.10956 0.737746
183.444 14.2455 1.09058
201.837 14.9884 1.10938
207.452 16.2033 1.08068
113.667 9.33619 0.74761
155.487 13.6276 1.35747
158.209 13.0376 1.24916
199.086 17.2349 1.67645
106.893 9.52821 0.84212
110.408 10.1041 1.03532
139.642 11.7152 1.16714
121.174 11.0095 1.00219
199.277 18.2018 1.6084
121.577 11.1875 1.08476
141.883 12.8979 1.56448
139.852 13.7218 1.26009
133.83 13.499 1.26903
142.682 14.0033 1.1176
199.711 19.8744 1.7652
153.651 15.2638 1.71273
147.233 16.0679 2.27577
82.4655 8.18887 0.898
149.446 15.2068 1.46036
111.295 12.1688 1.4767
203.524 21.4736 2.07112
130.117 13.604 1.45421
114.173 12.9903 1.48921
168.635 17.8255 2.01987
150.383 18.2121 1.96478
105.761 11.8076 1.27278
124.098 13.9986 1.87912
80.1229 9.39408 1.02311
133.013 15.8314 1.94809
145.735 17.3371 2.42546
150.492 17.679 2.3273
121.501 15.5301 2.02953
166.96 20.2804 2.56404
84.7298 10.8777 1.79015
93.4555 11.2463 1.74476
145.304 18.6217 2.64101
117.386 16.1706 1.96762
112.907 16.1787 2.10195
139.02 17.321 2.63592
112.173 16.5717 2.41239
99.0061 12.3676 1.50049
111.076 15.3755 1.95129
173.095 23.049 3.64393
160.692 24.1263 3.46873
178.197 23.7216 3.11728
114.006 16.127 2.51231
90.902 12.7539 1.77873
171.823 27.3672 4.44121
138.556 19.1187 2.58421
99.0324 15.5333 2.82153
128.698 20.8139 3.74022
105.954 13.9464 2.1631
86.1042 14.0323 2.48671
126.83 18.9945 3.1867
67.7132 11.5684 1.93874
181.93 28.4222 4.31771
137.144 21.7261 3.82919
71.9754 13.7404 2.21963
86.674 14.3902 2.49994
102.101 17.6926 2.90795
98.0933 18.8746 3.11828
189.949 32.1518 5.37536
95.1159 15.6007 2.43328
80.8979 14.2665 2.66045
94.4418 17.1788 3.55059
102.086 18.64 3.54541
111.962 19.4088 3.22967
95.4038 18.0372 3.77739
138.661 25.5184 4.46912
81.0023 15.5156 3.05553
87.8367 16.6199 2.76276
97.4328 17.998 3.05235
111.244 23.5925 4.82639
88.6529 17.5155 3.24329
80.0704 15.7756 2.95008
123.065 24.5993 4.61967
92.9895 18.8974 3.81521
148.826 27.4269 5.41688
102.925 19.4837 4.00919
134.426 29.5312 6.68476
134.298 25.5061 4.8764
77.3446 16.9681 3.48845
93.2581 23.0774 5.29691
68.4409 13.8892 3.28142
85.7387 17.8397 3.7031
57.2314 12.6634 2.94874
77.3372 16.2186 3.68416
82.2678 18.5714 3.92194
106.832 22.7634 5.66882
91.7764 20.8675 4.71052
70.575 17.1719 4.02858
89.3382 22.3365 5.06694
99.0944 20.47 4.91759
101.69 26.5613 6.39549
102.946 23.1777 5.22228
56.2768 12.8048 3.30329
75.0175 17.3973 3.7876
77.5055 19.8326 5.02698
70.4071 17.6989 4.45888
109.295 26.3617 6.41414
87.3242 22.6333 5.63775
79.288 19.0655 4.9978
91.3413 23.9032 6.57777
123.64 28.8876 7.02479
75.6452 19.9985 5.01324
102.562 27.064 6.01667
76.1376 20.0901 5.48856
91.1156 24.0257 6.52151
63.3682 16.7508 4.44699
87.0551 23.0272 6.13888
54.8629 12.9875 3.1709
124.98 35.1787 10.1022
83.8855 22.6765 6.18667
64.4455 18.5026 5.17331
89.9749 24.0927 5.99692
78.7564 24.4462 7.33835
84.2644 21.8944 6.07403
87.8128 22.8026 6.49449
77.2991 21.2355 6.10756
93.4231 27.7804 7.94375
81.1084 24.408 7.28498
104.543 32.0297 9.26123
76.9154 23.5899 7.21445
74.4092 20.7034 6.08512
100.685 27.687 8.14187
78.335 25.737 7.78495
111.037 35.7374 11.0316
48.8199 14.8077 4.9173
70.4975 21.5892 6.64389
48.1253 13.812 4.27928
66.4469 19.5599 5.98009
75.275 25.6843 8.55019
77.6392 24.9958 8.27114
72.4725 22.7467 7.47516
48.904 14.9463 4.57435
60.7416 19.2145 5.94073
64.0301 21.6953 7.04635
88.4261 31.1691 10.3765
61.6547 20.6621 7.02234
67.0683 21.6297 7.20794
76.6303 28.1746 10.3614
58.3355 20.4657 6.34464
70.7678 23.5519 8.30866
63.4641 20.3109 7.28038
72.2308 24.6208 8.71404
97.6861 36.514 12.7077
59.9692 19.575 6.82315
48.6594 15.3925 5.26239
37.1075 14.2245 5.48848
61.8663 19.712 5.98439
66.4264 28.0424 10.6695
62.9208 23.1413 8.53638
44.9684 16.1625 5.59991
43.0254 17.8529 7.32843
65.5736 24.3234 9.03789
51.8825 19.377 7.32472
64.9994 24.5062 9.66438
93.0249 33.5417 10.7718
91.3543 38.3851 15.905
56.417 22.1173 8.63037
58.8504 22.1859 8.30131
44.6448 20.9092 9.85563
52.0945 19.2082 7.46991
46.2957 19.4395 7.14793
58.1138 23.818 10.776
97.1466 36.552 12.6296
46.8369 17.3956 6.0131
50.6995 23.5951 9.61389
47.8099 18.333 7.83774
65.7465 26.0905 10.8584
52.4909 20.5602 8.86615
52.6076 23.2643 9.26381
58.9152 24.3305 10.1627
71.1965 33.5925 14.6159
59.3589 25.2805 10.5967
72.5899 29.4955 11.8989
44.7572 20.0985 9.00342
60.492 26.2661 10.878
35.7944 14.9703 6.77022
30.0896 13.2747 6.04958
57.2242 28.9954 13.1425
56.6634 22.4564 9.36482
52.2484 23.9334 9.60528
68.0395 28.4564 12.2878
62.5579 29.917 13.3777
40.1308 17.5193 7.50063
58.2565 28.3222 13.7528
49.6102 23.0046 10.2042
44.4646 22.3431 11.3286
61.0024 27.5263 11.5387
47.8447 21.7394 9.09645
33.0553 17.7302 8.77298
54.8967 24.0977 11.2699
58.3416 30.2242 14.2038
41.0232 22.9222 11.3769
45.1958 22.8447 12.5135
48.8512 20.9223 8.78533
41.4664 22.7075 11.1419
21.6728 11.1736 5.90178
55.1792 24.4634 10.8216
35.0345 21.0579 11.3911
42.3508 18.7055 7.6039
37.7495 20.0726 11.065
41.8755 22.941 11.7485
48.6314 24.2165 12.068
41.374 21.8909 11.0486
41.5377 21.1045 11.3539
24.3134 12.5273 6.31054
60.7646 31.1473 16.7877
46.2103 23.984 14.0463
49.5032 23.7458 10.3199
39.8858 24.6955 13.2104
40.7454 22.2178 11.6841
36.6936 20.1246 11.8584
36.8856 18.3043 9.36842
35.4109 19.1399 11.1891
46.2669 25.7942 15.159
64.2586 36.8076 21.0248
41.0739 21.6703 10.6571
48.8498 26.7458 14.6855
54.1827 28.6393 14.4512
36.6323 23.6116 15.0119
39.2233 18.9622 8.85363
39.1893 21.6638 12.2155
44.3518 26.5255 14.5007
37.1764 19.5985 9.91348
30.2036 19.9551 11.6762
39.5761 21.8724 11.1023
24.8308 14.7871 8.55757
21.2089 13.2938 9.0838
41.6268 22.4462 10.6917
51.4573 31.5936 18.2499
50.0853 32.6544 20.9635
53.8916 32.8785 20.2321
53.2779 31.3294 18.1393
18.8609 10.9199 6.73298
31.2793 18.7992 10.0836
46.5366 31.1781 18.9636
42.28 27.826 18.3627
36.7558 22.2069 13.434
28.7442 17.7806 11.5815
25.2712 14.4941 9.51186
31.976 19.2282 12.1991
37.1956 25.5215 18.1632
43.996 25.0097 15.1738
46.8629 27.3381 15.0395
32.5955 19.8036 11.8701
24.5652 17.8099 12.9667
27.3515 16.17 10.0816
35.1829 25.1412 17.3931
36.3646 20.8712 11.9651
31.5209 21.8297 15.764
43.0915 25.5651 15.5133
54.3622 37.4419 24.8593
28.363 16.8704 10.0559
35.0092 29.7746 24.4074
42.6162 24.6165 15.296
30.3631 18.0974 11.1066
42.5559 32.512 22.9128
42.7128 29.4745 19.2436
41.6295 27.2808 17.2222
23.8009 16.9493 12.4101
30.1946 21.0674 14.1356
35.7014 30.1601 24.2157
35.9927 21.5219 13.9831
33.9999 23.0187 14.8617
38.0054 28.4276 20.7755
43.3779 29.5832 20.1762
44.0925 33.4499 25.0898
39.1597 23.8849 15.0069
22.916 18.4625 14.5986
38.5721 25.4947 18.2072
49.5944 35.4392 24.4596
37.8974 29.8124 23.3318
29.4376 20.1348 14.0545
23.9474 17.9104 15.2941
56.0009 39.9409 26.6298
35.3805 22.8373 14.8086
18.5484 14.9967 12.1081
33.9905 28.0842 20.0112
32.1095 24.8484 18.936
33.0116 23.448 16.6948
20.0796 14.7279 12.6149
32.0482 24.8307 19.61
43.1579 34.5582 26.7398
48.5567 40.979 33.3461
45.9396 31.9794 22.671
35.4931 25.5467 16.8908
24.5522 20.0024 15.4092
29.7624 25.6015 21.5313
26.3216 19.8109 16.0545
26.3829 22.417 21.2533
52.5102 37.5006 24.9694
26.0467 22.2249 18.8858
30.7412 24.5853 20.7079
30.9449 22.7299 18.1074
36.11 26.855 20.2069
27.508 24.576 21.1701
37.3969 28.4184 21.6793
27.678 24.2934 20.2958
24.1652 19.9902 18.4323
24.3917 19.4858 15.5117
29.0991 24.8089 20.1306
26.5047 22.486 19.5113
29.5345 21.928 16.1162
31.2953 28.6154 24.0667
25.483 21.0063 18.958
30.6645 25.3823 22.3813
27.5312 22.6134 19.435
23.2607 18.0915 16.677
34.3526 31.3386 27.9305
33.2129 28.5041 23.6133
27.025 22.5843 20.0586
34.5425 29.2795 22.5984
28.8623 25.9601 22.6623
20.2491 21.4431 22.4668
29.7495 26.1783 23.9727
31.0871 22.189 16.4647
26.3189 23.5694 19.1709
32.6158 28.5107 24.0942
42.2464 40.8903 37.1672
32.5308 24.8683 21.9417
28.1389 24.9764 19.6537
18.8824 23.0453 24.6334
24.8081 19.8327 17.628
28.469 21.9238 19.4204
20.9406 17.4782 15.0693
38.2994 36.5312 33.5413
33.515 34.1365 32.9247
27.9231 27.6235 28.5887
24.9722 21.9911 22.7205
40.8936 35.7315 31.5127
27.4701 25.6838 25.2805
23.5286 19.1842 17.6165
37.1896 32.3238 25.3209
19.4456 17.6125 15.7436
31.9618 33.2469 30.6105
24.3104 26.6832 27.5871
27.5599 29.5375 30.7391
24.6189 19.9796 15.6896
25.1279 28.177 27.3727
23.476 23.3354 24.7509
27.9281 23.782 20.2128
29.484 31.9847 31.4495
16.0131 15.9348 16.9289
20.5518 18.2588 18.6582
22.8729 21.6204 21.0716
27.5965 26.4448 25.2912
23.6916 24.806 26.0194
33.9957 33.5991 31.435
22.9382 24.2666 26.5534
21.1823 16.7953 14.5219
19.5527 20.8839 21.5924
18.6729 19.2273 19.6339
17.7521 17.5153 19.2034
28.8821 27.7583 24.126
17.5569 21.6533 22.3125
26.183 26.8948 25.7856
24.5377 33.8643 39.365
19.7231 16.7109 19.0592
25.6098 24.5773 22.7279
22.7488 23.8476 23.7981
15.2015 15.7058 17.4087
19.5591 22.1781 22.2907
14.4173 16.487 21.0803
18.482 16.0016 15.1269
17.7115 18.7747 21.6925
20.5638 21.6019 25.0437
25.3989 21.6828 18.7394
23.1974 25.8756 25.718
17.0036 16.83 16.3983
28.7558 34.898 37.085
15.2726 16.5609 21.7599
24.3746 24.2844 22.1464
14.4018 20.1449 27.4568
17.6613 15.6098 15.3292
23.7997 29.3483 31.9668
12.2477 11.5332 16.3527
29.4581 30.7534 30.2761
30.652 34.2005 31.4257
15.0235 21.315 29.5652
19.5305 21.9545 27.1769
21.4612 22.5269 25.6948
25.8051 26.9434 24.2644
17.8896 24.2154 28.6692
23.2388 28.6134 34.9863
18.1914 17.4623 16.6207
16.1872 23.0031 32.0834
29.9218 31.3542 29.7896
21.2591 30.4939 38.2285
21.4994 23.5148 27.7527
25.9365 30.0104 33.1011
22.7861 24.9317 26.9361
20.2237 24.9993 30.2385
18.8027 21.6625 24.7039
19.6819 25.1804 31.462
19.7631 22.9126 27.9635
22.5599 27.6632 32.0204
12.9679 14.9754 21.4056
23.5084 21.5459 21.1138
17.7444 18.9455 21.0841
21.5207 29.5797 37.8539
17.0742 20.8412 27.4731
19.2823 20.8736 23.1679
16.9316 19.3592 21.6752
16.2912 23.4803 32.127
14.8481 15.9449 19.8728
21.1258 26.9308 31.8975
18.7555 23.6323 28.1309
16.8581 22.2699 28.7903
20.6094 23.2569 25.2484
13.9069 19.7562 26.4261
13.5926 17.4725 23.2106
16.3952 19.0258 23.0404
16.9913 24.8512 32.885
20.9159 25.6686 33.0364
16.917 20.0229 25.4296
12.4498 18.7951 26.6997
18.6892 22.6498 25.6706
16.8134 24.8029 33.6966
11.8669 16.376 26.1931
15.2657 16.4671 24.1043
22.5916 25.0345 27.1388
14.9324 17.3157 19.442
21.1176 25.9424 29.4405
15.9604 21.9398 30.3144
18.7547 24.0597 28.8755
15.5579 22.0923 30.9059
23.9577 29.5896 33.5303
10.1869 11.886 13.9902
15.9218 24.9137 33.0577
12.2579 14.6739 21.0435
15.7181 25.1818 39.4741
16.393 16.2257 20.2068
17.5396 26.0609 36.3433
18.0611 22.5811 34.8312
26.4645 31.6452 45.8027
40.0592 51.7347 57.6973
17.3565 25.9806 42.2422
29.4301 37.2967 45.1076
17.1166 24.6257 36.6588
16.877 21.6785 31.072
19.1812 25.7193 31.5625
12.9534 20.611 35.1471
22.2005 29.1998 43.2757
30.0399 37.0772 42.783
25.1207 37.7644 50.9448
12.1047 13.2338 18.4704
10.0098 14.165 21.7926
14.037 20.15 32.4633
17.362 21.9225 29.8791
14.7733 18.5237 27.0693
18.4938 23.0093 25.6366
14.4724 23.0953 30.3258
19.1031 29.821 41.9488
22.3221 31.1384 41.0617
10.238 14.0007 20.3143
13.6316 23.3378 40.3139
18.7276 22.4579 29.4741
16.8563 26.9878 40.7504
19.7313 25.334 36.6118
22.3066 29.7778 35.9901
16.8238 27.3536 35.4314
14.2452 25.946 42.1653
17.4363 20.9356 28.5441
13.3285 18.8285 27.538
11.1945 14.6278 19.8279
15.7701 25.9283 36.3574
13.3348 22.1819 34.2304
9.54051 13.7041 25.5785
16.7594 24.7277 35.3882
13.6656 21.2189 37.927
17.9372 23.8139 28.4998
11.7956 20.3457 32.2468
15.9995 23.9256 34.971
11.4245 16.9774 28.2056
12.9469 17.7105 25.6369
9.7111 14.3201 21.8368
10.8715 16.8004 30.6937
27.4686 36.6307 40.5427
11.6298 21.0237 30.6501
11.3265 21.558 36.1896
10.1243 20.8179 43.2175
19.6935 24.4628 33.9377
16.2518 23.4218 32.4584
11.0738 15.1685 19.1179
7.48529 14.1712 24.6561
15.5866 26.4702 37.4408
7.56235 14.2311 28.9602
14.6107 21.9995 32.0178
13.6723 19.806 25.09
7.84837 17.4878 32.8136
13.5821 24.1715 42.3795
16.9102 27.2117 41.2442
12.6353 19.468 33.4463
10.3499 12.3052 19.8682
13.447 21.8685 37.2852
17.3713 25.1879 31.6451
8.57374 19.3286 40.5699
14.0743 21.4718 35.3142
12.1448 17.3039 31.2201
15.2244 21.4671 30.9576
14.4015 25.4921 44.1945
18.1411 26.61 39.4088
12.2255 16.5308 23.6686
14.737 26.9627 41.5878
10.0337 16.839 33.3392
13.9449 19.67 31.0511
18.6542 32.9259 52.689
13.1319 19.169 29.6466
11.2529 19.3908 37.7938
20.8552 34.7568 50.6792
9.60945 13.2226 23.0884
9.30542 18.3286 33.8123
10.373 14.216 22.0743
11.9168 18.9388 28.1794
11.6366 18.6706 31.0535
10.5699 18.7449 32.8629
14.1491 25.2634 44.2281
9.5696 13.1437 24.9946
8.46664 10.7273 18.5569
9.366 14.567 24.892
9.42603 15.4098 27.6543
12.3313 20.7289 35.1535
16.0508 25.8227 41.5073
13.3522 21.1196 36.7684
19.5576 29.2062 41.8784
11.8326 23.4216 43.3769
15.3374 19.5383 24.0529
7.40895 15.0959 29.0495
6.78211 11.2757 20.8631
10.4765 24.8439 48.9691
13.1799 20.8999 37.8272
11.9935 15.9866 23.7073
6.78151 14.9383 33.603
12.1328 18.0286 35.208
15.367 22.4166 27.428
8.12535 18.7789 42.3074
12.7921 17.2985 22.8403
11.8027 26.2164 49.4623
15.1432 32.9611 72.4601
26.1636 40.565 51.2531
7.3564 15.6816 37.878
13.417 23.9784 41.7401
11.4132 18.2034 29.9916
10.3488 19.6819 34.5923
12.7114 28.6565 59.4798
13.4141 19.4359 30.0921
10.665 23.2729 50.1521
14.6396 21.4857 33.8102
10.3762 21.1684 38.5696
10.481 18.0434 35.4718
9.11622 17.234 32.3042
10.765 19.1917 34.4989
9.75411 16.0406 29.4713
12.2024 23.6787 45.0227
11.9244 19.0934 31.6413
11.2033 23.9794 44.5065
12.5462 24.2804 49.4066
11.9275 20.5252 35.0083
9.31575 21.2738 48.379
11.6338 18.0761 30.4367
8.78691 15.5522 34.6546
13.0355 18.3976 23.3371
6.05177 13.743 32.5472
9.94852 16.9194 37.2926
15.0393 27.7399 47.0816
9.68158 16.7086 30.0096
6.5172 11.004 21.3981
11.5322 22.9204 41.1509
8.7755 17.6775 36.2916
11.0728 23.5828 41.8613
9.25814 19.3154 40.1103
10.6487 21.9995 51.0636
12.9724 19.9201 36.8875
12.254 22.0848 41.5495
13.1847 21.9319 30.642
7.89977 18.0704 37.7448
10.098 18.2829 28.8177
5.12084 11.1368 23.1537
6.0594 11.9201 24.8946
8.4799 18.0287 38.4009
7.74688 11.7236 21.1516
7.76809 15.3465 29.1218
6.41565 12.9063 31.0811
11.1374 22.9393 39.3924
9.80904 21.1391 41.2615
9.47408 22.1869 45.8047
9.17858 19.8077 45.0911
14.3493 24.2724 44.4323
9.74496 18.1582 30.1853
7.30409 15.9531 30.4712
5.49503 13.1522 30.1238
6.40876 12.3568 30.8906
9.83458 17.197 27.1624
5.83291 13.9983 28.3092
8.27358 20.6432 50.1553
12.0098 22.3601 48.7037
14.4071 28.5386 59.1388
13.2055 25.3941 45.5478
8.24348 17.5233 41.6087
9.37601 15.1568 31.7098
12.0152 25.6372 44.5947
7.05953 14.3573 33.895
8.10984 14.4838 35.799
12.7743 26.5904 55.3018
13.3515 25.5261 43.9482
6.09671 10.6662 21.6474
7.17761 16.1326 30.8152
8.38168 18.2605 35.7718
5.83754 12.9383 35.2279
11.1066 21.222 40.9564
7.20092 15.2205 33.677
8.44877 17.2645 35.9993
6.87445 16.1956 40.6636
8.72487 19.6078 45.5077
9.78232 16.8341 35.0999
12.052 28.9334 57.6665
7.01309 10.1072 26.0763
9.0192 18.3695 31.9691
6.27089 12.0358 25.5737
8.31644 17.307 35.8116
11.2152 27.5413 60.7372
10.3609 16.6072 28.6592
8.28998 20.9372 47.8742
9.16886 17.1379 34.6436
8.43244 17.0872 29.2252
5.65821 13.6754 36.5227
10.4764 27.1176 65.8534
14.4802 26.3466 46.3328
6.14432 13.643 35.035
7.64441 17.2967 39.2264
7.98042 18.4881 46.3781
8.38454 14.3901 29.5878
7.682 17.5999 40.4078
7.06399 12.7834 25.1891
5.79124 13.3042 38.4129
10.1195 21.655 42.0209
7.58178 13.4942 30.3571
8.50458 16.9209 38.5188
9.19867 18.7321 31.5143
6.83444 17.0834 34.6564
4.38485 12.7042 37.3832
8.50951 17.2995 36.4865
7.36045 15.1675 33.7427
5.57359 13.7032 34.6037
7.98365 18.2423 42.4672
9.40553 21.7352 46.5633
7.38289 16.1502 43.679
9.94013 20.7849 45.9546
8.3363 15.912 28.5471
6.2956 14.6487 31.1632
5.96518 18.6628 55.6379
9.07089 15.446 34.8565
8.73718 17.2802 32.589
7.42355 23.2223 63.7561
10.5409 17.0918 33.8042
8.37902 19.6624 41.9743
7.7127 16.2069 38.3264
8.28736 16.6375 37.7232
8.43727 17.1695 35.4752
7.86566 19.0234 34.4785
4.42746 13.0221 36.2543
6.46035 17.385 50.7393
9.72804 19.7162 42.7057
7.72976 14.4642 33.1736
7.43554 15.2767 31.472
7.37016 21.0518 51.4338
8.9914 15.1189 26.6023
6.42439 17.2693 36.4626
7.06225 19.8304 50.1352
6.46024 12.8362 34.9677
7.12863 17.3414 44.788
7.71609 14.112 26.2559
5.96645 14.8827 32.6368
4.38253 12.4635 36.5434
5.95343 11.195 23.8495
4.91219 15.4894 50.6294
9.41008 17.6899 30.8307
4.46637 11.666 38.2308
8.66548 16.78 42.0535
10.0518 24.3423 44.7871
4.48258 15.3353 46.054
6.50194 11.1124 31.0227
8.68674 21.1018 44.9649
5.49846 13.2857 41.4753
7.27349 10.5589 25.4724
8.52485 20.6411 40.0558
6.66574 20.5115 49.8803
7.92036 17.4067 45.0684
6.17474 11.4968 27.255
6.68857 17.2033 43.7729
7.52584 14.8494 25.3667
6.20642 21.4084 64.5608
10.5359 19.6364 34.8039
4.81222 12.7612 34.3079
5.1112 16.2559 41.0039
4.29362 9.50872 36.8377
8.33377 15.7755 32.2888
