# pn-170911/RbIIR-53-RbII-1280-1959.psd
# Power spectrum* (dif=0,1,2) (really just |FT|^2)
# NOTE: only the first half! (symmetric)
# weeks: 1280-1959
# 119 clock-days, 0 excluded
# PSD: 1441
171168 3.03762 0.0336701
5.41081e+06 141.505 0.0641569
5.06253e+06 69.3784 0.058986
1.85392e+06 30.6214 0.0549042
1.15189e+06 21.7907 0.0581688
784847 14.5408 0.0559325
518657 12.2426 0.0506696
360857 8.84539 0.0548851
283857 8.28643 0.0563239
242256 6.76104 0.0609754
162451 5.11128 0.0616941
173054 4.65421 0.056855
107430 5.03029 0.0562946
121265 4.38414 0.064463
94940.2 3.83489 0.058136
93142.6 3.2734 0.0533431
67995.6 3.85818 0.0514697
72682.9 3.46895 0.0565139
63465.5 2.6095 0.0506967
56658.5 2.86013 0.0501908
33819 3.70928 0.0545224
60229.7 2.76433 0.0660664
47476.5 2.77078 0.0657019
35427.8 2.48632 0.06694
28218.2 2.41787 0.0641106
28942.6 2.29151 0.0626727
21721.8 2.35064 0.0693347
25764.8 1.94254 0.0741596
24560.2 2.5375 0.0725439
20838.7 2.89425 0.0802828
16385.7 2.53877 0.0661581
19770.8 2.62068 0.0719441
17831.2 2.5158 0.0647567
14858.9 2.67155 0.0776126
17764.7 2.45453 0.0728275
15303.4 2.66609 0.0620516
13851.7 2.57694 0.065566
13753.3 2.50207 0.0723899
12401 2.73671 0.07797
12790.6 3.23467 0.0853647
10608.1 3.47081 0.0750985
8952.67 2.7022 0.0786282
10857.2 3.06002 0.0868061
9235.83 2.72681 0.0865322
8251.13 3.13631 0.0924455
8549.8 2.92408 0.0816581
9255.9 3.91833 0.103716
8806.67 2.59268 0.0959715
6750.67 3.19881 0.0982558
7790.77 3.38208 0.0979828
8200.12 3.20058 0.103085
7993.89 3.54723 0.109712
6470.81 4.26754 0.113916
6454.27 4.13404 0.118103
6013.94 4.0876 0.120259
7052.15 4.2089 0.123839
6327.8 4.34806 0.101296
6989.98 3.69615 0.118905
6727.84 4.84792 0.143339
5652.42 3.62625 0.108617
5879.85 4.25516 0.147321
5943.26 4.11322 0.133656
5404.38 5.39222 0.156262
5815.1 4.44704 0.149288
5642.55 4.92467 0.160999
5352.52 4.33568 0.14943
4657.72 4.84945 0.15676
5646.17 4.08682 0.156707
4330.46 5.10122 0.164808
4805.12 5.06212 0.189503
4222.35 4.94827 0.166709
4017.04 5.25817 0.170797
3983.06 4.95676 0.187698
3570.41 5.32516 0.204996
3938.32 4.72709 0.193835
3879.53 5.4117 0.201405
3806.09 5.45542 0.20711
3598.42 5.96525 0.234475
3427.84 4.89252 0.200673
3385.03 5.19182 0.233704
3024.33 6.20852 0.272831
3080.73 5.71517 0.209459
3016.99 5.89164 0.260796
2666.65 6.02829 0.244782
2854.63 5.18473 0.238081
3083.87 6.08724 0.274439
2025.86 6.77837 0.278874
2616.3 6.83018 0.311158
2471.58 6.9765 0.322931
2325.16 6.24762 0.30208
1970.35 7.26075 0.356635
2569.19 5.62696 0.269432
2228.54 6.37332 0.33012
2169.43 6.3598 0.312276
2490.2 8.0502 0.414929
2444.58 7.70576 0.397165
1990.86 7.457 0.345521
2448.27 6.93734 0.387543
2086.28 8.54598 0.486071
1681.34 6.90341 0.350846
1797.02 7.19423 0.381903
2578.78 9.11246 0.49736
2060.08 7.74822 0.454722
2301.17 8.46025 0.502544
1991.15 7.5233 0.445111
2174.71 8.25787 0.509574
1505.56 7.62751 0.467223
2199.07 8.08766 0.4683
1638.33 7.45999 0.447975
1713.47 7.52534 0.479354
1467.45 9.606 0.6197
1952.41 9.01775 0.598897
1771.21 7.43953 0.520609
1255.48 8.37463 0.563638
1628.79 9.24613 0.600946
1770.19 9.15215 0.626869
1124.03 9.67864 0.657409
1274.1 8.98812 0.680682
1626.25 11.2586 0.790856
1518.31 9.85686 0.703633
1639.67 9.14473 0.654917
1197.98 9.89856 0.743085
1448.22 10.7921 0.816024
1765 10.1064 0.801916
1570.43 8.20852 0.639454
1443.46 10.4308 0.81365
1352.62 8.94372 0.74226
1124.33 10.9112 0.926181
1225.11 11.2352 0.846303
1144.76 7.72149 0.670745
1216.81 12.0455 0.975101
1243.28 11.1039 0.986094
1163.85 10.7399 0.934314
1261.05 13.6661 1.12689
1264.98 11.5091 1.0147
1357.91 12.9353 1.24218
1350.89 11.6084 1.10838
1000.95 9.55747 0.856824
1000.96 12.1866 1.16524
1122.93 9.99591 0.978835
1173.01 11.5519 1.15214
1136.79 10.2318 1.01151
886.294 12.6575 1.28347
1077.19 10.5646 1.08205
1033.83 9.94997 1.01999
1124.48 14.5174 1.53802
849.866 10.9183 1.21218
1053.99 10.9791 1.2149
917.555 10.7236 1.17421
1005.26 9.46636 1.03539
885.136 10.6663 1.19196
880.697 12.5516 1.34564
1029.34 17.8835 2.0033
1058.85 11.5963 1.33286
970.184 13.0276 1.51936
898.432 10.6083 1.21548
777.461 13.942 1.65363
991.003 11.2423 1.38641
859.852 11.8012 1.40217
719.859 13.1426 1.69007
756.474 13.0837 1.63613
741.283 13.631 1.74569
889.868 16.212 2.09084
799.03 11.9997 1.51768
1007.2 13.8912 1.88628
939.429 11.9968 1.56009
700.537 12.6664 1.63257
648.527 15.6946 2.18049
1047.15 13.3381 1.78543
690.338 12.2868 1.70868
758.444 13.5899 1.87306
587.57 15.5499 2.20276
571.346 13.583 1.97207
799.71 14.3974 2.1133
665.021 13.2869 1.94803
566.67 13.5513 1.95528
688.128 16.0796 2.38591
772.33 14.4981 2.25436
623.592 13.4538 2.09819
724.601 12.7258 1.96494
697.841 14.13 2.25752
778.275 13.5579 2.28393
544.878 14.5006 2.31834
748.888 16.382 2.59919
722.24 13.4449 2.22804
828.089 16.2562 2.63782
701.065 13.1988 2.15122
844.918 14.8057 2.424
543.266 14.1021 2.4109
514.348 13.965 2.40925
621.634 15.4355 2.58323
701.322 14.3966 2.52282
584.878 15.9366 2.68756
693.617 15.7519 2.88996
635.467 14.3901 2.6283
609.111 14.5229 2.58597
536.955 14.0764 2.54046
750.224 16.0279 2.99767
522.829 16.0471 3.00192
544.219 15.7514 2.99489
608.727 15.3934 3.0156
568.349 16.382 3.20705
481.263 15.2758 2.88951
659.824 17.9504 3.58513
596.448 16.7056 3.29914
503.971 15.3295 2.99692
592.877 17.2436 3.4582
545.712 15.1521 3.26235
522.547 16.3036 3.3465
603.495 20.1076 4.032
589 16.6196 3.55523
600.87 16.0966 3.3981
573.544 16.8107 3.55143
550.767 17.5266 3.89248
519.873 18.3214 3.9846
473.827 16.6729 3.66314
554.564 15.7146 3.50432
548.714 17.8688 3.94897
501.921 17.2132 3.86584
518.928 15.4201 3.47874
479.29 15.0301 3.41257
551.772 14.0688 3.48215
479.383 18.1826 4.06097
550.502 15.4515 3.71021
527.286 16.8301 4.02352
526.726 16.3959 3.92509
486.783 16.2559 3.89362
438.174 15.6761 4.00894
502.322 19.1959 4.67858
457.603 17.0737 4.243
451.142 17.4304 4.17302
449.55 14.6271 3.5794
461.994 16.8959 4.42846
470.288 19.9898 5.1228
361.019 14.5847 3.88359
416.14 15.056 3.95448
357.111 16.1822 4.19758
445.186 17.5412 4.71669
500.871 21.2986 5.45613
447.845 21.5389 5.80936
365.898 18.5131 5.26679
427.539 18.969 5.10741
401.481 19.5309 5.22004
325.161 16.8242 4.83176
319.171 19.7405 5.65948
391.547 15.4787 4.35845
355.579 19.0515 5.35239
339.093 19.0516 5.72418
360.787 20.1153 5.68085
404.309 16.5201 4.94803
360.829 15.8359 4.43628
402.745 17.4305 5.23164
327.315 18.0312 5.36499
334.444 18.9873 5.48513
376.481 20.0728 5.8637
299.29 16.7557 5.10923
408.517 21.2311 6.42184
353.35 19.3966 6.06858
364.474 19.8393 5.96712
324.018 17.4495 5.68613
350.477 16.629 5.49599
350.129 17.1127 5.40758
283.88 20.1296 6.64334
309.276 18.305 6.03947
324.464 20.1403 6.4337
345.181 23.7698 7.73031
380.238 20.5387 6.68635
432.509 18.3175 6.09897
257.397 21.7203 7.23746
394.484 18.8446 6.66381
360.248 19.3807 6.30407
330.5 19.7027 6.90276
301.215 17.9629 6.01392
316.828 17.5052 6.17765
310.237 20.9983 7.36414
342.821 18.8429 6.27684
268.205 17.8435 6.33423
337.364 17.3622 5.86342
272.789 18.339 6.65252
330.399 17.9649 6.92068
267.996 17.975 6.4551
315.246 20.0479 7.15363
305.603 20.1213 7.6248
266.234 20.311 7.35634
229.004 20.7567 7.66211
196.499 16.9645 6.55906
174.818 20.8886 7.54473
365.106 22.4395 8.97177
217.355 21.4198 7.77495
168.369 20.3183 8.18902
252.587 20.8721 7.98854
231.322 20.0519 8.18112
244.544 22.8154 8.87641
276.906 17.4695 6.94549
277.517 20.0769 7.92978
238.549 18.0446 7.27164
292.543 19.0754 7.74099
267.464 21.616 8.27317
239.267 19.0267 7.89
312.442 17.844 7.56446
247.016 20.9565 8.74363
306.485 21.8875 9.47708
251.673 19.9713 8.20309
289.889 22.9801 9.98389
225.153 22.466 9.27608
271.922 23.3695 10.1793
257.057 19.1869 8.42212
241.334 20.89 9.00876
209.766 18.0176 7.39609
310.626 21.3552 9.65725
288.362 20.0404 8.94292
258.125 21.0421 9.04214
230.275 23.3695 10.6792
214.658 18.3159 8.59237
205.925 29.3577 13.4421
245.17 20.978 9.48957
215.523 18.6611 8.45718
232.704 20.4417 9.88439
186.38 20.9639 9.65512
270.064 20.1915 8.94105
214.353 18.6698 9.14846
228.965 19.8432 9.201
277.862 23.4373 11.337
256.623 23.8601 11.6624
215.583 21.4964 10.3928
219.327 20.718 9.61857
214.633 20.9502 10.455
227.027 20.703 10.0413
222.672 24.3624 11.6466
208.058 22.8465 11.5335
219.146 19.3954 9.44557
191.74 24.9332 12.2701
180.07 19.7387 10.2889
187.313 20.4341 10.9157
187.16 20.4728 10.6264
235.665 20.9069 10.1936
173.623 23.1707 11.8449
175.332 21.7315 11.865
224.363 20.1367 10.0671
215.542 16.9055 9.04731
166.248 18.9121 10.1178
185.015 19.5601 9.71617
186.623 22.4194 12.2261
212.622 22.7349 12.301
178.019 20.606 10.9907
230.725 18.6684 9.79086
226.962 16.6104 9.41865
207.62 19.2601 10.0131
214.601 21.9606 12.8455
221.875 23.0539 12.2526
212.097 19.5636 11.1474
234.474 22.9091 12.697
183.594 18.8747 11.1035
230.767 22.5913 12.4359
225.266 22.195 12.8279
238.639 19.9599 11.7062
197.637 19.9236 11.0823
219.257 18.683 11.0091
194.984 18.8294 10.9688
207.461 21.1822 12.6225
207.946 21.6216 12.6433
180.408 24.2083 14.8466
212.493 23.7914 13.4312
206.341 20.8438 13.0023
195.17 20.171 12.4845
180.659 21.0759 12.3046
168.573 20.2871 13.2057
201.809 20.2751 12.0689
189.912 23.8077 14.0297
160.03 20.9322 12.3466
179.747 23.7024 15.1243
193.121 20.9837 13.6402
177.779 19.6964 12.3938
187.207 26.6402 17.205
146.597 20.9138 12.2011
203.751 21.9993 13.9293
189.695 22.1606 14.2588
177.281 20.2414 14.2529
156.257 19.9172 12.2027
183.353 22.3011 14.3711
171.756 21.883 14.0478
160.565 20.4865 13.4684
187.518 20.6923 13.4941
186.887 23.8192 15.5649
156.385 24.5704 16.5096
189.347 21.537 14.5618
176.685 23.1243 16.0704
162.22 23.0282 14.9076
164.457 21.4404 14.7775
195.619 22.0067 14.9268
167.913 22.0668 14.7198
183.312 24.1988 16.3502
177.086 22.9082 15.6736
178.972 23.7763 17.0611
138.583 20.749 14.2674
183.998 20.5471 15.0487
157.508 22.8418 15.4653
176.446 21.1533 15.4837
142.865 19.1614 13.8252
196.138 22.1688 15.3501
170.238 21.9603 15.9518
149.31 26.285 18.2674
155.832 22.7745 16.4196
174.592 20.9254 16.1099
142.195 21.416 14.8023
131.219 20.2127 15.6939
170.81 24.9491 17.5597
171.958 20.0206 16.0465
153.874 24.1437 17.261
143.271 20.7942 15.0814
144.666 21.9506 16.7795
174.55 18.8999 14.3522
144.491 21.3805 16.3082
166.452 20.1822 15.9779
136.425 20.3958 15.6942
122.187 19.0659 15.3592
153.859 20.5756 16.8037
143.479 23.9947 17.2132
147.372 21.1671 15.78
127.971 18.9764 15.8439
128.973 20.0614 16.031
149.31 21.3764 17.1312
134.001 19.6105 15.1013
130.649 18.3677 14.4471
137.565 18.2559 14.6623
120.287 21.8631 17.809
132.822 20.6164 16.6209
145.594 20.3781 15.9867
150.069 21.609 17.2394
147.742 21.5388 16.6621
112.461 19.4415 16.8131
161.354 20.3447 16.9429
135.412 19.8389 17.2267
138.823 26.433 21.3831
119.056 22.552 18.4152
140.351 23.0526 20.0495
133.701 21.3074 17.6549
131.088 21.5098 17.2199
140.174 19.4322 16.458
133.837 20.8314 18.4322
145.53 22.8266 18.8031
180.85 26.6247 22.4801
140.234 20.4124 17.3287
141.764 17.4796 14.8589
116.492 22.6427 20.2294
154.468 22.8648 19.3564
136.924 19.8971 18.3111
133.632 23.5699 20.053
122.873 16.9955 14.8456
113.751 25.6187 23.3304
134.751 19.9558 17.6389
119.486 22.3794 20.1968
166.38 23.4511 21.471
140.04 22.5128 19.4208
100.434 19.539 16.6416
105.881 20.0694 20.0574
171.863 23.4924 20.2547
114.358 20.6095 18.1629
126.594 24.5486 22.4627
110.168 24.0474 22.5346
108.457 18.7196 17.0358
157.57 24.5548 23.2823
119.322 24.878 22.9721
97.5476 25.5066 24.8607
122.906 23.0289 20.4416
127.498 21.3078 20.1005
109.29 19.3411 18.0389
112.329 19.0262 19.5861
127.444 20.4034 19.9659
146.35 24.596 22.1437
102.893 23.8724 22.4681
119.66 20.7406 20.6471
117.808 22.1096 19.9531
127.873 20.1212 21.2722
117.671 21.2977 20.9171
112.013 19.3161 18.5335
101.893 22.1233 21.7244
99.8375 22.7068 23.3752
117.028 24.409 23.3153
134.052 28.2545 28.681
108.059 25.5511 24.8786
127.982 24.6524 25.7401
123.969 21.9323 21.7733
109.254 19.8657 20.1401
108.444 20.6637 20.6296
142.223 18.6403 20.2955
109.474 22.5227 22.8927
118.746 20.1734 21.4878
116.083 21.9202 22.509
108.286 24.9789 25.2034
107.361 21.8992 22.7202
109.915 17.963 19.1259
115.849 18.5418 19.6846
103.834 24.8105 24.426
113.303 20.8857 21.9791
124.627 25.1306 26.0182
113.105 20.2559 21.7424
121.363 19.964 21.0095
119.927 21.1345 22.1837
115.856 20.2421 23.0974
111.59 24.794 25.6382
105.387 19.8666 21.8048
102.83 22.5226 24.8441
90.4989 19.7087 22.0872
102.858 20.9839 24.5155
102.436 20.8195 22.225
97.5725 21.0609 22.9129
98.5186 21.5069 24.2846
113.414 23.976 26.3367
116.612 20.1741 20.819
93.3306 20.8633 24.8809
120.455 24.8708 28.1707
106.029 19.6974 20.4616
108.76 21.68 23.5936
120.282 21.2836 24.1885
91.0975 20.9168 24.402
88.5582 22.3174 25.2128
92.4015 17.1052 19.908
91.9691 18.7346 21.2256
99.8133 18.4199 22.3782
93.3993 20.4419 23.0484
116.162 20.0893 22.6032
86.116 18.2253 20.7904
98.3712 22.5673 27.2275
87.532 21.1565 23.4024
105.4 22.4327 25.7056
97.2354 19.8603 23.2022
119.166 19.3606 23.8043
89.3406 20.3737 24.3181
108.979 21.6945 25.5461
91.073 23.6986 28.4274
84.5816 18.2848 22.3277
94.9296 22.8606 27.7384
94.3427 21.9576 26.0257
91.0519 18.2158 23.3841
85.7768 20.8867 26.5211
91.958 19.4226 22.6506
103.762 18.038 24.0577
95.3357 21.2899 23.7515
100.309 16.2251 20.014
96.9371 18.0174 24.0295
87.0425 17.7173 22.6288
84.4426 18.9516 22.2016
88.2935 21.4118 26.2848
87.2344 19.3056 25.4749
96.2809 20.5108 25.9216
110.823 21.0851 26.6233
82.4341 21.4827 25.2884
112.076 20.6664 26.5394
79.0738 20.2441 25.6826
81.9886 23.0728 30.3226
82.924 21.6319 24.8639
81.4397 20.7345 27.0835
72.2965 19.3758 24.4854
112.49 22.0134 25.571
96.6016 22.5068 30.9344
65.9442 18.281 25.2841
98.1106 19.8862 26.348
101.723 19.8702 26.7338
89.8469 19.7642 26.3429
72.0041 21.9771 29.3112
85.8444 20.1871 25.7537
81.7331 19.7741 24.4352
105.904 24.2586 30.2433
88.861 20.7411 29.5611
84.7578 21.997 29.1842
89.619 22.0291 27.0662
92.6266 18.5561 26.7438
78.3693 22.7292 29.2084
87.8754 16.8236 25.5282
84.5754 16.7452 22.4956
79.8811 20.4277 27.2186
80.8793 19.3046 25.9305
65.0815 19.7944 27.9149
65.6192 21.3954 30.0775
125.34 19.4416 28.6131
72.7257 25.0482 33.0866
58.4207 22.4635 28.9298
87.9166 20.9846 32.5801
76.7706 19.8833 27.0466
80.3741 20.4424 27.0628
86.6547 22.8831 29.9414
85.7459 24.0569 33.2439
71.0261 21.1143 30.7994
81.9188 18.1755 26.8713
69.0028 20.6254 26.4725
73.9113 20.5197 31.6154
71.3639 19.8606 27.3958
61.1009 21.0388 29.4573
75.2847 18.497 26.5101
76.3809 17.8864 25.2235
75.4185 23.9091 33.559
78.0705 22.3168 32.1944
83.798 19.6364 28.6008
64.4199 21.4223 31.8333
68.7509 19.9218 33.1932
75.1849 19.8599 27.3966
82.3851 22.8445 31.7859
81.0528 17.9561 29.1558
83.0663 22.0401 30.7408
69.6046 20.4029 31.0513
77.3464 20.1013 30.0095
66.1577 19.7417 27.8136
72.0794 18.2398 27.9819
74.9976 21.1813 31.6506
70.8661 20.153 28.2602
49.213 20.1737 30.169
79.5433 22.7888 34.5288
69.7843 20.9011 32.4155
75.7301 20.2782 30.461
66.5169 19.9912 30.8634
78.1682 19.7203 29.6114
72.2386 20.0458 31.7356
73.2345 22.398 31.6219
63.3844 21.9714 35.8683
61.3118 15.8797 25.6173
64.0418 18.3151 26.5711
67.2564 19.8359 31.4902
73.9968 18.1538 28.7656
55.3019 17.351 26.9575
60.8222 17.4435 25.9536
72.0617 19.709 31.1223
66.6278 21.9357 35.7432
66.8195 17.9084 26.919
52.6545 20.7512 32.1
68.7008 19.5671 33.3806
69.0514 20.976 31.6843
80.6628 18.6457 30.8691
65.7276 20.9299 33.507
62.4406 17.8648 28.76
71.2113 18.7402 30.478
71.0719 21.0636 32.2691
55.6128 17.8934 28.8838
67.6149 19.8771 32.5282
73.3093 20.3038 30.4615
64.5931 17.6448 30.5747
68.2366 19.3883 32.8187
69.143 19.2388 33.4535
66.5053 20.5473 34.0203
72.8826 19.8361 32.5837
58.0053 19.0871 33.2128
73.8668 21.5697 32.2449
65.6711 22.5358 35.9886
73.3104 20.0942 34.3702
66.3232 21.0402 34.259
74.4289 19.0901 32.9029
62.3886 14.3507 25.8909
73.1758 18.285 29.6413
66.1625 17.5944 31.5701
53.4339 21.9875 36.6882
73.3755 16.9798 29.9594
66.689 21.486 36.7268
62.015 19.4896 34.6278
63.3704 17.5608 26.8677
64.6756 18.5348 32.9041
67.6415 20.1049 35.7815
69.8408 18.3337 30.7828
56.9161 21.9857 38.0915
62.9596 19.1407 36.0078
64.6748 18.7564 32.2203
66.3944 24.167 38.4612
67.9322 16.136 31.3802
56.7019 20.4178 31.52
70.8905 17.8103 32.9809
66.5846 18.5088 32.7828
59.6664 18.1359 32.5263
65.3293 18.001 30.9174
70.2487 16.1884 29.0251
56.5002 17.9498 31.8471
53.7123 19.0666 37.8558
65.1839 17.6906 28.0659
66.4142 23.2499 42.8127
62.0247 23.5097 37.1707
56.3476 20.4151 39.6497
67.0651 18.9301 31.0192
54.0333 18.3798 35.6522
68.8932 19.5385 34.4711
69.377 18.4618 36.4283
55.8785 17.9336 32.8985
65.8306 20.2975 36.0354
69.1035 19.8175 33.4137
65.1184 18.7613 32.3924
51.6824 20.1812 38.2411
55.2097 18.6952 34.8708
63.0971 22.4665 38.4676
62.9283 21.2487 46.9355
59.9527 18.0689 32.3949
75.4756 15.7932 28.0185
67.0085 18.8615 35.0298
65.1442 21.3931 37.9185
72.2499 20.3338 36.9845
61.6469 18.9217 33.0051
55.679 18.1569 36.8396
61.122 19.5471 36.9307
53.8186 19.1838 38.7098
58.4438 16.9632 31.5733
55.3467 17.9743 33.8712
60.5637 18.3998 32.4618
59.2878 17.0507 31.3605
62.0742 17.9682 33.3572
51.7327 15.6245 31.0537
63.5497 19.8072 37.4196
56.7159 16.6182 30.4334
55.655 17.6038 32.2798
55.413 17.8675 33.4938
60.9711 16.4251 32.2321
61.4975 15.0705 29.1485
57.8488 17.8862 34.8874
56.6116 20.4266 40.4298
61.8301 16.646 33.7439
53.2516 15.9112 30.527
55.4415 18.6287 34.028
52.5853 17.8746 35.6987
46.2154 17.0086 36.5623
53.9378 17.6342 32.7005
55.6042 16.2746 33.9177
65.6368 19.9865 38.467
58.668 15.7434 32.9526
42.3075 17.5153 34.7774
67.0839 18.1867 37.0292
52.5267 16.0781 30.5704
63.6237 18.0082 36.9648
54.7397 16.7333 35.9831
44.0315 18.1401 34.3229
57.3097 17.5005 33.6559
54.3688 17.2267 36.8875
55.6888 20.3111 42.3691
57.8003 19.3191 39.0453
45.7695 16.6324 31.834
61.0066 17.2904 34.3295
56.6393 18.9053 35.1886
54.4831 16.1 35.073
44.729 15.1838 31.9596
68.3727 17.2825 33.548
54.4509 16.8966 35.5694
52.5057 16.3872 32.7898
50.6184 16.6455 33.3912
52.8239 19.1694 39.6882
57.651 18.7454 39.8323
50.6967 18.574 39.0996
64.9515 16.8483 36.0456
59.1255 17.1262 32.3564
49.0449 20.4341 42.8147
50.7983 17.3298 35.0687
65.1577 16.4426 35.1597
47.9981 18.9264 38.73
52.6983 19.3726 43.0661
47.3281 18.3536 40.9195
49.1115 16.5787 40.2201
48.1529 18.5612 32.144
47.9542 17.6657 41.0807
46.4703 19.7428 41.3697
44.4027 23.8705 50.3811
46.4208 18.0899 39.7244
54.0674 18.084 38.7424
46.7667 17.4854 39.3246
53.2715 15.0117 32.4884
56.505 22.3518 46.8105
45.6437 15.6845 32.9802
46.7664 14.5591 33.5301
50.8853 17.4179 39.5513
59.7644 20.39 42.3776
46.0368 18.5004 37.5033
45.7888 17.1054 40.2887
53.0917 15.2507 34.8324
46.1453 18.4239 38.7933
47.9917 16.9095 37.4864
55.4898 16.8205 38.9666
48.5113 16.8996 35.7213
56.1611 14.2943 31.4486
52.9546 18.2519 40.1384
46.4211 17.8804 37.9552
50.2105 18.8155 35.6441
61.7414 15.1606 36.7873
53.6271 15.1305 32.2369
43.8363 17.8782 43.744
49.136 14.3623 33.1763
48.7959 16.26 33.311
45.1025 13.7484 32.2715
57.4884 15.8181 36.3911
51.4471 17.1879 40.9716
51.4422 19.419 44.1992
66.0928 16.6489 35.6952
61.0964 18.4388 37.1184
46.7238 17.5128 42.9311
60.947 20.0977 45.1833
51.7481 15.3969 36.069
67.961 18.0855 42.7146
47.5964 15.7735 38.3841
46.8619 17.0824 34.4692
46.58 14.2489 32.4587
45.636 16.8255 40.4275
51.2418 18.9293 43.2399
51.9382 15.0043 31.3156
40.8779 15.2513 38.3142
49.506 16.9653 37.8756
46.8756 14.5204 35.7794
45.0288 17.2777 34.1694
44.7022 14.6334 38.9892
50.3181 18.0236 40.4618
47.1231 17.0431 41.512
50.5762 15.4353 36.1097
52.7897 18.9104 43.1504
40.8115 16.4953 38.0792
44.6089 16.0011 39.7419
51.2946 15.5342 36.4641
43.7463 14.5103 33.2385
36.9366 16.0499 36.4342
42.8659 16.4344 37.6453
53.8954 15.739 35.1046
42.8455 14.1261 36.648
48.2242 14.1297 37.4677
43.5471 15.0889 36.4869
55.9375 15.0389 35.6665
43.1971 15.9513 38.1472
45.846 16.2658 39.3696
51.0159 14.4154 34.8581
50.3908 16.5023 37.4619
39.2514 18.4894 43.1989
51.4565 18.7801 45.1021
42.2456 15.0733 35.8286
46.0679 15.2985 39.4843
60.6883 17.2261 43.3682
49.9046 15.2053 40.0367
46.6416 15.5009 37.8167
55.6344 12.91 33.1562
46.201 15.3326 36.1932
53.1535 15.5283 34.6317
45.3859 15.2616 37.6727
