# pn-170911/RbIIR-53-TWTF-1280-1959.psd
# Power spectrum* (dif=0,1,2) (really just |FT|^2)
# NOTE: only the first half! (symmetric)
# weeks: 1280-1959
# 8 clock-days, 0 excluded
# PSD: 1441
161.011 0.0871 0.0375869
41331 0.553785 0.0156197
100231 1.55659 0.0151412
16844.4 0.42737 0.0152887
20789.5 1.64293 0.0153684
3616.44 0.425154 0.0148182
1667.54 0.390942 0.0156358
1383.86 0.191203 0.0155905
5434.36 1.3089 0.0168905
2671.28 0.779684 0.0145718
1142.06 0.416115 0.0153427
1001.96 0.570114 0.0155505
628.061 0.359834 0.0161967
778.335 0.497204 0.0176362
646.179 0.556751 0.0158566
645.444 0.488137 0.0176972
304.349 0.337743 0.0186647
1077.85 1.36638 0.0179021
530.873 0.536953 0.0155437
188.795 0.331306 0.0178853
443.356 0.588609 0.0189744
266.583 0.400778 0.0170527
679.154 1.38734 0.0206176
542.627 1.40338 0.0134597
488.466 1.12788 0.0170481
541.072 1.3799 0.0197217
477.015 1.55322 0.0212979
164.477 0.626785 0.0162462
292.82 0.927794 0.0177913
441.241 1.50932 0.00999331
434.805 1.80596 0.0221815
320.13 1.36661 0.0216887
352.912 1.47196 0.0270699
283.755 1.71009 0.034373
205.602 1.02669 0.0225581
318.028 1.54602 0.013558
142.628 0.793016 0.0194053
363.872 2.07006 0.031407
233.23 1.36943 0.0134793
375.524 2.38006 0.0341164
152.073 1.25152 0.0246052
375.317 2.47067 0.0255347
139.121 1.31042 0.0214962
272.29 2.27025 0.0274849
318.318 2.72995 0.0365387
242.485 2.01201 0.0282614
259.768 2.72784 0.0435458
333.526 4.19314 0.0374131
257.749 3.25126 0.0456457
248.697 2.68016 0.0462472
207.002 2.45584 0.0481427
134.385 2.00778 0.0359509
326.6 3.64733 0.0689948
355.127 4.07318 0.0613586
133.364 1.77315 0.0369833
240.502 3.94788 0.0545017
174.678 2.64751 0.0473114
210.338 3.12641 0.0480336
192.522 2.44476 0.0600353
187.084 2.66837 0.0734782
194.512 3.13039 0.0518173
127.44 2.14357 0.0604261
231.248 4.26654 0.112218
281.808 4.92549 0.124194
233.451 3.7877 0.0987494
112.716 2.41144 0.0764946
236.197 5.68397 0.10548
292.904 6.85477 0.177111
290.965 6.38442 0.153004
203.84 4.31585 0.143589
164.139 3.76404 0.0903458
82.4348 2.09074 0.0943276
148.491 3.62481 0.0773358
218.226 5.6858 0.16245
208.664 5.30661 0.142429
147.417 3.95725 0.165427
96.699 3.0166 0.0874438
254.027 6.84724 0.216473
169.605 4.42537 0.15074
93.4249 2.31196 0.0832976
107.953 3.72481 0.126571
191.817 4.78901 0.184327
244.046 7.60552 0.25557
114.737 3.65009 0.138082
92.8381 3.47255 0.0899774
115.91 4.30816 0.176989
158.992 5.1207 0.19977
197.814 7.23555 0.229122
145.191 4.90557 0.232526
95.8304 4.06889 0.157584
81.325 3.05612 0.148315
184.512 7.24308 0.226835
93.4688 3.51214 0.181936
118.745 4.30782 0.188104
169.66 7.66978 0.388113
153.669 6.5216 0.331123
171.743 7.54664 0.277084
181.876 7.38967 0.341123
235.528 10.3498 0.537791
67.5415 2.85339 0.169724
163.097 7.35435 0.413762
173.159 8.02536 0.418373
82.6784 4.01736 0.213974
191.201 9.43413 0.521927
118.417 5.92339 0.364422
112.757 5.4499 0.238986
145.022 7.46221 0.485359
196.328 9.97529 0.520834
143.398 7.5403 0.486651
106.077 6.05114 0.332932
199.688 11.0188 0.679419
113.836 6.3066 0.424558
210.202 11.8876 0.7342
122.439 7.19432 0.459143
139.352 7.78194 0.51717
85.861 4.87727 0.306556
188.161 11.6317 0.718557
108.564 6.96373 0.406026
158.085 9.60945 0.665217
157.317 10.1319 0.596789
162.802 11.2719 0.7351
280.859 18.8473 1.3847
181.447 14.2925 1.19917
67.9964 5.1972 0.425369
155.451 11.4961 0.96183
121.819 9.0806 0.600108
70.3662 4.2651 0.294242
110.422 8.53757 0.602132
88.1791 6.67786 0.528912
222.767 17.0967 1.36201
80.3859 6.03747 0.401459
143.999 11.9325 0.996218
84.6189 6.32914 0.511813
105.957 8.98848 0.752834
190.184 15.8469 1.259
148.238 11.7647 0.982329
263.502 22.1524 2.01994
170.038 15.3947 1.38091
105.018 9.03892 0.972958
93.4452 8.19762 0.845743
275.102 26.8432 2.6283
97.0917 8.83204 0.804264
80.1831 7.15231 0.590343
237.997 23.3362 2.2808
186.767 16.2946 1.55358
74.3358 7.60162 0.726295
107.648 10.4768 1.10263
106.86 12.4083 1.44511
174.333 17.1605 1.75551
124.042 12.1042 1.17862
114.315 12.4209 1.26539
146.918 16.3628 1.73135
99.9391 12.7811 1.54552
138.334 14.0127 1.52687
137.62 15.4515 1.55955
96.1547 13.6065 1.60489
57.2324 6.64686 0.793756
145.791 16.667 2.06163
115.557 13.2323 1.56075
151.312 18.9529 2.43074
115.58 12.4832 1.5402
100.369 11.8789 1.34498
84.4441 10.0072 1.20138
162.605 20.019 2.47114
75.5339 8.91294 1.02889
41.8389 4.79748 0.519018
42.5174 6.0845 0.738529
86.076 12.175 1.71203
73.5778 9.77299 1.36518
84.8657 12.0552 1.76821
121.362 15.8549 1.97541
84.4307 11.5028 1.6614
56.4228 9.04169 1.4512
96.6425 12.3764 1.90865
111.97 15.7281 2.35922
167.687 23.7505 3.71939
99.2053 14.7164 2.22835
58.2416 8.67092 1.45693
86.4203 12.3266 1.74077
85.4023 13.9507 2.06795
123.708 17.9712 2.79067
64.0677 9.21163 1.28303
72.9723 10.3661 1.65299
155.526 23.4449 3.59648
114.173 19.5163 3.07293
65.6287 10.4397 1.47929
82.6732 13.0282 1.8915
93.0037 15.6273 2.57424
101.52 17.1928 3.04828
137.929 23.0032 3.83343
135.172 21.3035 3.40771
100.635 18.9417 3.37185
128.659 20.2321 3.47247
76.9955 14.0182 2.60227
132.565 22.3394 3.8953
184.366 35.5338 7.03301
173.712 30.3467 5.13145
114.308 17.999 2.80289
25.4578 4.01103 0.86333
41.2438 6.85268 1.29877
83.6258 15.4039 3.01363
85.8317 17.3663 3.26344
82.3687 16.2447 3.00011
180.689 36.3182 7.247
158.038 29.3537 5.39683
92.1538 18.8571 3.75689
64.0131 13.1179 2.64787
49.9667 11.667 2.65945
128.884 24.242 4.58762
48.3441 8.83008 1.80906
103.092 20.1134 3.84802
55.439 13.4377 2.96237
115.799 22.1858 4.55691
71.4899 15.133 3.10191
94.8868 20.4792 4.2564
137.807 34.0927 8.20983
48.2743 11.1777 2.92449
67.6915 12.7293 2.75212
158.274 33.3645 7.27914
102.461 22.1986 5.07145
42.0842 10.0402 2.61723
45.7661 11.5745 2.90579
62.4056 14.3786 3.75369
61.2591 14.1302 3.06248
74.2784 15.5815 2.98445
30.4125 7.75646 1.86323
127.693 30.8849 7.41089
38.7668 11.0979 3.10988
100.956 21.3655 4.53307
100.628 26.1013 6.34953
45.1711 11.6778 2.94656
66.1048 17.5549 4.54362
31.9402 8.9069 2.8376
84.2965 18.2548 4.14806
92.9787 23.5189 6.41285
68.3104 19.774 6.0288
65.5371 17.8261 4.7184
75.8253 18.6851 5.04681
93.0356 22.1672 5.03627
103.895 26.7453 6.71808
69.066 19.5045 5.69374
58.5383 11.7357 2.41644
56.0919 13.7733 3.34419
25.2519 6.60554 1.86022
100.175 27.2525 6.96104
59.4652 17.1411 5.09215
42.9938 11.4528 3.37882
100.334 28.4151 8.21922
68.7339 19.9443 6.03589
89.1428 24.9723 7.0213
22.6668 8.09534 3.13138
96.6261 27.2612 7.743
38.55 12.9006 4.72513
79.4588 21.2179 6.20908
46.6369 13.4512 4.09791
57.8951 15.9325 4.4497
61.0084 18.0191 5.39504
56.0677 18.1291 5.77385
87.0195 23.3094 6.37921
69.8464 23.4816 7.98237
69.849 20.134 5.36485
48.4012 18.5639 6.68578
98.8486 32.3374 10.8749
68.1425 19.2865 6.19069
134.514 44.0536 13.2665
63.8158 21.3417 7.17925
47.7468 14.4443 4.3473
37.3981 11.1431 3.2823
49.0364 17.2848 6.25688
22.408 6.74625 2.25564
67.7693 23.0905 7.34617
72.7055 27.0919 8.98149
45.6915 15.9043 5.29504
28.3292 9.94806 3.39056
46.448 16.9291 6.16489
53.5656 19.3374 7.28959
59.3862 18.7337 5.70853
40.0875 15.8901 6.40171
65.8383 23.9322 8.31449
24.298 7.29645 2.87621
35.0921 12.6073 4.3609
63.0022 22.6281 7.58211
49.5187 20.7232 8.52851
39.4191 13.843 5.51895
37.5946 13.2169 5.10158
107.783 39.5849 14.1774
56.6741 19.3431 6.15431
45.8121 19.0192 7.77751
61.6479 23.2231 8.5436
32.9594 12.1446 4.21681
40.3699 16.6216 6.96987
36.806 14.113 5.04148
26.5009 10.2678 3.86119
40.4443 16.8874 6.22935
58.8713 24.7607 9.78022
41.1176 17.5303 7.79913
60.2019 24.8123 10.1364
36.9883 14.4198 6.1383
59.5216 21.8136 7.59151
24.965 10.1313 4.29062
53.5399 21.7502 8.47154
77.0016 38.5122 18.5668
95.4955 36.1637 14.734
68.2153 27.0352 11.3441
66.8787 28.9506 12.5992
53.2646 20.6321 8.0747
70.67 30.2227 11.7584
25.4283 13.6401 6.91888
60.289 27.8213 12.7272
40.6513 17.5625 8.84583
50.3532 18.5512 6.42051
35.2158 15.0755 6.15189
57.8114 25.5706 11.3578
21.813 9.29821 3.91093
32.5183 15.0731 7.1136
59.361 28.5806 14.3182
54.4493 20.3192 7.89791
68.2755 28.5072 11.4038
53.8308 24.3096 10.3563
66.3844 35.9868 17.1657
28.3444 18.0607 10.3924
38.1766 18.2639 9.227
24.9742 12.3938 7.67533
38.2233 13.0654 4.90646
59.7862 24.3553 9.52191
38.8957 19.3139 9.34256
51.1105 22.6218 10.2893
30.1279 14.0086 7.24322
35.9497 17.1394 8.51959
27.4962 12.7949 5.65373
23.1691 13.0888 7.02314
21.4246 11.0695 6.14533
39.9551 19.2344 9.74899
39.6732 16.9374 7.87048
31.2049 14.7058 7.15673
29.375 17.609 11.3261
84.0138 41.6409 19.4583
42.8934 26.3604 15.5952
17.3488 6.83645 3.55908
50.7165 27.1125 13.8021
31.9676 14.8157 6.77228
43.9458 21.637 11.015
17.7314 8.60532 5.0131
54.8215 30.5723 16.7096
46.939 24.1397 12.6414
36.0904 18.3319 9.73806
33.7565 17.2656 8.23908
14.7779 11.2193 8.14653
71.1021 35.1652 16.1463
37.0169 24.1672 14.3917
27.5862 15.1853 9.01871
42.8498 26.2469 15.6401
42.4157 25.2729 15.5974
66.736 35.8531 19.26
52.5941 26.3786 12.883
37.2193 22.2135 12.3005
16.5322 11.7966 8.50322
19.7048 10.3854 6.29736
46.8716 27.3766 15.2346
23.6853 12.4759 7.77873
45.7967 28.1131 17.2707
38.3435 19.1499 10.1235
28.507 16.9401 10.6153
48.0239 28.942 16.5552
39.887 22.0642 12.6271
56.095 40.2023 27.0798
26.5457 11.9999 6.88408
37.3331 20.0693 8.96675
52.2904 35.6009 22.1583
43.5905 29.1493 19.253
34.8364 24.6133 17.4116
29.1342 20.0031 13.7382
34.3274 19.8045 11.9395
27.9322 17.6524 11.413
31.177 20.0442 13.2614
25.1152 13.7276 9.39534
32.4191 18.9432 11.4488
46.5016 27.469 15.1711
33.4017 22.5008 15.9444
45.1494 29.4812 18.2089
41.4751 29.4092 18.0697
15.4775 9.10028 6.95618
36.8875 22.5498 13.6712
16.6831 14.189 11.5721
33.1386 16.2287 7.39627
22.0744 15.3898 9.55204
15.7192 14.6807 13.1023
46.5168 32.5734 21.9743
38.2937 23.3404 13.8081
30.6433 23.0414 16.8506
27.3097 21.5561 17.4373
50.9869 32.3544 19.371
21.9012 14.2605 11.3441
40.7866 27.5746 18.2145
23.7778 16.6421 13.2852
30.3878 20.3306 14.1836
42.807 28.5085 18.5814
44.6391 32.9313 24.5983
39.5424 26.9142 17.5226
21.6764 15.7762 12.3611
39.0886 29.3028 20.4844
18.9539 12.3119 8.87432
31.0412 20.3885 11.8812
15.0524 15.7807 13.6854
17.4859 10.3136 7.12341
29.7532 24.2979 17.9336
16.6392 15.6625 16.0509
42.2602 26.1202 17.8332
24.4915 17.186 14.6595
37.0655 24.5338 15.9489
44.5387 32.3105 22.104
20.3924 11.7646 6.91735
36.1776 27.5377 18.4312
24.4442 23.7879 19.6267
13.1114 10.0526 10.0565
30.1969 22.3593 16.1215
15.0179 10.298 7.63494
17.2856 12.3711 8.68835
18.1727 13.9877 10.4375
16.2693 13.764 11.3145
29.8475 25.5096 20.4185
22.5826 17.2814 13.1711
12.9427 10.8222 9.29508
22.657 21.5962 19.5412
23.5677 16.3001 12.8051
21.667 16.4583 13.2761
36.7936 28.5933 19.8325
28.0735 27.6392 24.2242
21.4242 15.0541 12.5132
36.5358 35.2653 32.1133
28.0228 18.6234 14.5692
20.1414 13.1663 9.44052
28.8599 23.4408 16.7482
15.1132 15.0349 15.1748
24.8636 18.2143 14.7532
41.1626 33.9692 26.1001
21.2533 17.1763 13.0342
18.4159 17.1858 13.924
25.7704 28.7126 29.5911
25.7088 20.0806 17.1538
15.5277 14.4934 15.6652
31.7916 21.8869 16.4523
35.7482 28.1031 21.4866
24.018 18.8035 16.3051
51.9547 46.8212 35.8312
21.8721 24.0223 25.8232
25.2095 17.0291 13.2678
32.7897 29.6574 24.1052
31.9099 29.0721 25.4567
9.75838 12.5591 16.1173
25.9602 23.6568 22.9248
35.9062 29.6692 25.6802
17.6681 15.6774 15.4062
16.9123 14.0435 13.5467
10.902 8.23503 8.89039
17.4262 13.7516 11.7637
30.6216 26.0987 20.128
16.1137 17.0816 17.4101
15.3713 17.3046 21.2835
34.2642 22.6073 15.0841
17.3982 17.4686 17.9286
37.9943 30.9826 23.4162
16.2186 15.2082 14.2065
32.8004 33.6205 31.1938
26.5453 28.7827 29.5273
18.079 16.8221 15.6434
22.3756 26.4681 31.3522
28.4877 20.9637 17.6627
23.1971 24.3044 27.1342
46.8496 36.2602 29.425
31.7349 25.6 19.9655
29.2087 29.1803 25.9247
9.58222 9.49936 11.4783
26.6908 25.5609 22.2704
15.7147 19.7841 22.5258
22.464 20.6636 21.4316
20.1886 15.9857 14.7811
23.5384 24.309 22.2475
15.7537 17.261 20.1719
37.5181 37.3133 35.7406
38.9112 40.5707 39.4134
29.4893 24.8076 19.1657
14.9 16.9166 16.744
11.6399 15.295 19.897
23.7265 19.1411 16.2694
16.8077 17.0646 15.6523
16.5052 18.2245 21.1757
33.9334 37.4775 38.6537
17.7939 17.026 17.2765
21.6175 21.446 20.1893
14.9206 18.06 20.9886
19.3635 18.8638 19.4049
14.2672 13.0068 13.0831
20.4446 18.0436 15.5737
10.9117 11.2736 12.0304
13.7006 15.8261 17.662
19.1307 19.0424 18.7336
31.1946 37.9366 42.5339
18.9184 20.4533 25.3193
26.4885 24.9576 25.3374
29.1263 29.0287 28.3967
31.2304 37.867 38.9094
10.5399 12.5103 16.267
18.1163 20.1078 22.8931
26.2444 28.796 30.4805
17.2365 21.3916 28.7259
23.2954 19.7716 16.7251
20.2809 24.6674 26.6536
9.82518 10.9812 12.2758
13.8966 19.1524 21.5899
12.188 18.2103 28.5686
29.4994 34.1554 42.301
22.7421 19.2049 17.3212
14.3551 15.8127 16.7083
17.567 26.6167 35.5986
21.698 20.1423 23.2509
26.9756 28.6685 32.1317
23.399 21.959 20.0373
15.6731 18.8936 21.3266
11.3419 12.7071 14.0802
22.7267 28.2401 32.5853
23.7722 31.8379 41.8773
17.8331 16.2111 16.5004
14.9707 15.6123 16.1028
19.5245 31.0524 44.5266
21.6971 23.2978 27.4774
24.019 29.5451 36.539
17.9595 14.2646 12.8641
17.3316 20.8795 21.9682
14.626 16.9874 21.7268
14.8282 17.5139 21.4385
15.8186 18.6828 20.47
18.5677 23.8461 28.9386
13.92 15.1665 18.6841
16.3856 21.5657 25.0591
10.6264 11.5067 12.6633
8.79195 10.9433 12.8874
11.4007 18.4419 26.7574
14.1936 17.3373 25.6155
23.2365 25.3685 29.978
23.2068 25.7914 24.8454
11.9957 23.1358 41.535
26.9166 22.7871 20.0185
15.6534 20.1355 24.0939
21.8179 29.961 36.0983
21.6402 28.7014 34.7672
8.9732 7.88104 11.2889
25.0618 37.5932 46.3
7.25791 10.7377 21.5613
20.9897 25.6039 37.1564
28.9812 32.575 38.7182
22.3464 22.3084 19.3605
12.0188 22.0233 34.8955
14.0845 10.0289 7.42004
14.6578 21.0634 24.0935
9.59166 13.6352 19.5083
18.3918 22.4998 27.1409
14.3628 24.1464 41.6638
40.8817 47.9715 49.065
9.11724 15.684 28.4687
14.2591 16.4958 27.2268
21.3945 22.0555 25.123
26.9167 34.6228 35.5617
15.4338 24.3288 33.9556
7.63287 9.33391 16.6744
13.5071 13.8104 11.9737
8.50873 13.3577 17.8186
8.58601 9.40246 12.4864
19.3064 27.6041 30.7086
12.5119 23.369 37.5283
11.8317 12.9929 19.4725
17.5832 20.9719 24.018
14.1336 23.8407 31.8283
11.0305 10.4962 12.2413
10.3128 14.7606 18.0389
8.12231 14.3975 22.2439
18.4802 30.9331 45.8449
17.8162 24.44 35.3304
8.22947 7.31541 11.5792
17.3135 32.8153 58.2486
17.4458 12.4722 15.4703
26.6384 33.6561 35.6887
7.02765 11.502 24.2663
20.0094 24.3826 30.0822
22.4637 30.6591 34.382
11.4431 14.6166 17.2023
10.6512 21.5085 35.0995
11.7788 13.6582 18.6484
12.9239 23.1173 35.6577
19.1294 27.2471 39.2926
12.3979 19.7285 36.8693
19.9954 21.2395 19.0183
6.12313 10.1507 16.2956
11.1988 20.398 35.4924
15.3652 18.9044 23.7493
9.99289 15.7479 25.1096
12.6651 17.3601 26.0734
13.5302 21.0538 33.7717
19.1677 26.4534 32.4277
9.83269 18.0673 34.0382
11.8111 11.8915 13.5732
11.0946 16.5162 23.7931
19.1287 33.4173 47.4189
9.90703 11.5447 19.7389
14.2319 22.14 30.2294
13.838 22.7889 38.1232
15.3955 22.6416 32.1255
7.97686 13.227 29.2627
19.9398 26.0764 35.1628
17.9752 28.7255 39.9748
18.6087 27.608 34.3143
5.46902 12.3678 25.8961
15.0055 20.8107 24.7468
7.54933 17.0836 36.3681
17.5306 21.9802 28.2762
13.015 25.6435 44.7535
13.0502 13.2767 16.1752
7.74286 9.44726 13.6277
16.9063 29.8234 40.4795
5.83584 8.38576 15.0764
8.22108 12.7072 18.4127
11.6413 21.1202 30.1312
12.4205 26.2058 45.4893
12.8046 17.7209 28.964
12.2298 19.8018 37.9724
21.32 27.0964 33.5939
12.2216 18.5359 25.615
11.5171 20.4422 30.1829
6.89653 14.682 32.1601
17.5904 28.5329 41.929
12.8094 20.4868 33.9143
12.6528 21.5071 35.1888
13.5971 24.0837 43.0965
9.73698 16.915 37.1821
18.7107 23.5477 27.2081
7.91796 14.8223 24.0057
5.41584 10.3089 21.5852
9.98977 16.5964 26.4859
6.86599 8.82624 16.6748
9.01249 12.0761 13.7391
7.60442 21.632 50.6249
16.3977 20.0252 32.4142
20.5815 32.8246 44.5455
13.2851 25.7273 49.7227
22.6575 34.8036 49.7495
15.4551 25.289 32.5787
7.62297 22.5232 51.093
12.8931 15.0341 21.9732
10.3891 17.9387 31.5851
12.8754 22.8195 42.2214
16.3705 24.5419 34.2663
18.4301 32.5484 46.7432
6.67323 11.3634 25.306
17.5241 31.5095 48.0702
11.556 23.1705 34.7668
2.15356 9.46651 34.1303
12.2353 13.3207 17.437
10.0169 17.4823 28.4698
9.86886 18.0424 29.4921
7.92332 15.3012 32.3249
14.9383 27.3487 44.0551
6.52139 8.17552 14.3854
7.77445 18.4845 38.8806
8.77683 14.7615 39.7746
17.7603 23.3352 31.4845
11.4872 16.3066 24.7168
15.7244 33.2668 58.3209
8.19058 7.869 14.3572
8.56227 12.9386 19.3929
13.3121 29.5063 48.1796
9.21317 16.2137 31.635
9.58432 18.6546 39.9114
10.7483 13.1352 19.4044
9.1471 16.6038 30.7775
8.94178 15.6452 25.5161
7.13805 14.73 30.8228
8.02173 11.6648 19.3066
7.10286 12.8487 29.732
14.9392 22.3148 32.5029
9.64172 15.7901 22.2844
7.92287 17.9571 35.9126
9.85706 14.6109 22.3967
9.26554 19.9886 37.9734
10.5806 20.5001 39.6733
12.7231 23.1757 40.9756
14.3439 29.026 52.3676
7.15648 11.6895 22.555
8.60509 19.2898 39.6754
9.63614 17.7119 33.8121
6.16773 13.0446 34.7102
11.5848 23.9212 60.3937
16.9065 20.0528 24.688
10.6898 18.2919 19.5314
7.83439 19.8057 35.3888
8.86098 25.3012 64.4538
15.2424 22.7829 33.2018
7.52772 16.2324 37.4812
14.5606 29.4979 58.5731
13.2069 20.076 29.4939
4.48391 8.96645 23.5025
7.41454 14.5448 28.5201
7.41384 12.9331 30.5968
17.2957 35.9101 52.4115
6.99556 15.1068 33.157
8.38211 14.8124 27.2383
7.28785 15.3389 30.7034
5.27139 11.2471 30.3294
8.34249 14.4791 28.2623
11.6493 26.1503 44.9295
4.15719 6.3567 21.2647
7.63957 13.2391 34.697
16.4895 30.7235 52.1463
6.21218 7.50775 19.9589
10.4908 15.5296 18.9334
7.91844 18.8241 37.7899
10.873 24.6042 49.8775
10.3242 16.2923 24.0422
6.74995 17.8137 40.2421
9.55553 22.3482 49.9517
9.39738 10.2294 16.3567
9.74074 20.7296 39.3031
8.79187 16.8633 31.7543
8.93455 21.2384 52.6997
15.0983 27.8617 39.252
6.50613 20.0637 54.185
10.5278 14.9259 33.932
15.4495 28.55 38.8973
4.81232 12.3497 26.3147
5.68734 13.69 31.9809
6.68826 16.7023 40.4975
7.77867 15.5356 40.9773
13.7697 22.3224 31.4623
7.9334 21.2096 55.2064
11.8553 18.783 31.9697
8.78878 20.8121 45.5486
8.9509 13.345 22.9274
9.22261 22.1348 40.8427
4.87116 10.1761 29.9812
7.86708 14.1796 25.4754
7.40107 19.9454 50.3131
9.82903 13.9856 20.6792
2.60236 5.08404 17.5653
8.26723 14.0211 26.9485
11.0517 25.2379 46.379
7.75334 18.0623 43.485
7.75169 10.3276 18.1735
6.80795 15.1609 29.9954
6.34722 13.798 35.0098
11.5893 21.3043 37.0061
8.46025 19.9557 48.1475
14.9782 29.8309 50.41
6.49465 15.3947 35.1417
5.54315 8.94127 15.1367
5.64565 18.3365 45.2061
5.78435 9.56742 26.7699
8.64163 16.1809 32.0898
8.26356 16.3322 28.2518
7.96042 20.3771 45.8432
10.0873 20.4025 34.5966
7.35959 18.7671 36.8002
3.21033 5.85009 18.0992
7.87809 22.4558 47.5843
7.30605 15.8223 42.397
8.44562 13.1899 15.4178
2.19887 10.1774 38.3736
8.82864 16.7317 28.9705
5.05885 14.5588 39.7065
6.81969 10.4887 28.8079
10.5495 20.7143 33.775
4.63662 9.3742 22.8659
10.4491 30.13 59.3657
4.33224 13.615 61.1265
18.8183 34.5448 49.9597
5.34325 13.732 34.255
4.78246 13.4982 43.5657
7.88112 11.775 26.0832
8.72161 17.5965 26.4832
6.82508 18.2042 33.7329
6.01843 22.2188 59.8693
8.16713 16.821 41.6245
7.90896 16.8056 39.6032
4.68255 9.05787 34.0202
11.0968 20.8208 27.0963
4.06199 14.6239 39.0482
4.42663 9.24525 34.2148
12.3816 33.2828 74.1846
7.09607 11.3032 47.209
14.9745 23.7566 27.7497
10.0447 31.2192 59.2691
7.49934 19.0643 48.5444
7.62185 13.8085 20.2829
4.05401 15.1833 35.1601
5.76766 22.0172 64.2503
9.02534 13.4357 23.8613
6.32408 27.6571 82.7537
10.6802 12.3538 28.6285
9.1738 24.9138 69.833
13.3893 20.603 22.8983
5.78071 23.9134 63.3476
6.54418 8.86494 26.0692
6.40427 14.8139 36.0382
8.97504 19.6826 32.863
2.17216 6.09877 28.6954
9.62711 19.2626 34.8048
3.97591 12.732 49.5202
10.5976 23.8773 51.0184
7.16035 8.63705 10.8478
5.35845 15.2097 22.7784
2.18611 7.171 20.8218
4.17281 8.83219 18.9676
5.90867 16.1673 27.9171
4.11182 15.7041 48.9751
6.13928 10.5229 25.0376
5.39209 12.4462 23.6487
3.42735 9.39055 28.1778
7.73623 17.3495 31.7329
5.14984 15.8689 32.8649
3.90531 13.9714 44.5605
4.23676 5.88222 29.7153
10.6901 24.9068 39.1779
4.01982 9.28852 21.3161
6.5381 26.0603 76.0568
10.9065 25.7681 69.3461
11.1203 20.1001 34.3214
6.9735 20.6405 49.0793
5.81481 16.5737 40.8534
