# pn-170911/RbIIR-44-WTZR-1280-1959.psd
# Power spectrum* (dif=0,1,2) (really just |FT|^2)
# NOTE: only the first half! (symmetric)
# weeks: 1280-1959
# 18 clock-days, 1 excluded
# PSD: 1441
4602.19 0.0876245 0.102724
182563 5.99583 0.0877018
253307 3.91926 0.147745
78166.3 1.09163 0.136594
60471.4 1.7875 0.125288
27626.1 0.638082 0.164665
17184.1 0.618737 0.107914
11353.3 0.749594 0.182079
10039.8 0.895099 0.143645
8777.62 0.759483 0.177369
6489.92 0.849309 0.121623
5312.45 0.523889 0.143557
4412.87 0.743584 0.146658
4411.53 0.734363 0.104017
2598.61 0.643336 0.148126
2688.53 0.636603 0.106712
2317.69 1.02843 0.141493
1950.9 0.540644 0.117541
2176.9 0.810873 0.0750066
1540.25 0.723076 0.110613
1050.92 0.8113 0.086252
1478.23 1.27342 0.111941
1738.46 0.844891 0.122772
2165.96 1.97169 0.0798134
1620.71 1.85707 0.194816
1228.55 1.80656 0.106137
1168.09 1.04699 0.187641
1509.68 1.60406 0.102486
1344.54 1.96585 0.139207
1194.37 2.11663 0.22248
1184.55 2.3114 0.119042
802.241 2.4165 0.236057
1117.22 3.0397 0.130766
1034.09 2.08579 0.156188
1263.1 3.52976 0.161792
606.146 1.64816 0.151532
1025.24 3.61249 0.147585
817.533 2.65532 0.139584
989.409 3.10721 0.163654
1019.11 3.51318 0.11163
536.149 4.23367 0.135257
873.319 4.58042 0.12062
779.806 3.17473 0.143575
939.755 5.03081 0.12783
892.633 3.91165 0.0804659
764.567 2.98182 0.14865
595.376 4.26045 0.0708829
744.248 4.74808 0.206692
608.135 5.10207 0.152338
806.111 6.53274 0.185738
575.362 6.42773 0.185858
513.886 5.99145 0.184105
636.932 5.14815 0.252577
637.61 5.01155 0.145346
500.929 3.59574 0.191712
517.865 5.82579 0.210877
805.221 6.24039 0.192556
587.623 6.08775 0.315145
611.21 6.49055 0.279935
456.246 6.50551 0.243706
361.193 4.70022 0.247668
622.843 8.59708 0.291006
869.617 9.85965 0.362763
550.447 5.30142 0.192054
363.366 5.04855 0.322868
568.086 7.31023 0.258849
513.407 8.04583 0.198785
396.232 6.0168 0.246274
444.296 7.21609 0.269324
452.477 8.1428 0.27261
548.79 10.1237 0.290083
488.528 6.92476 0.363629
267.215 6.44011 0.245925
629.472 13.064 0.3991
456.099 11.3233 0.53481
398.527 8.87871 0.373134
568.63 10.6481 0.542845
311.235 7.00989 0.328558
757.05 17.8189 0.577312
282.495 6.93941 0.212812
308.257 7.53762 0.409449
278.374 7.62611 0.353912
450.202 9.69237 0.331317
347.12 11.5427 0.553339
465.199 12.7576 0.48901
316.711 9.08929 0.388956
345.031 10.9038 0.385114
283.174 9.25458 0.344309
451.869 12.0202 0.514411
441.405 10.2089 0.628394
281.767 8.11461 0.321244
311.672 10.7452 0.527671
321.897 9.71236 0.479808
360.69 12.8412 0.375579
298.394 8.8311 0.470803
446.042 15.5764 0.732776
426.151 17.7858 0.729465
311.384 12.4987 0.860599
195.688 8.74812 0.510729
296.572 10.0526 0.546806
324.723 12.7287 0.770729
302.925 12.8184 0.720347
206.835 12.0248 0.790109
359.1 13.6206 0.712109
210.074 9.63309 0.583572
178.226 7.41439 0.421278
467.646 21.5253 1.15428
306.402 15.6693 0.838312
298.956 17.3801 1.09519
399.219 19.0937 1.22932
204.659 11.5722 0.642854
249.833 14.2651 0.853711
320.919 14.594 1.02728
321.033 13.1318 0.969717
246.341 15.8621 1.02731
211.149 16.1141 0.962549
250.282 13.6231 0.974634
190.175 12.5735 0.872101
233.37 12.556 0.933098
211.314 13.3487 0.868673
244.203 12.8712 0.740944
257.333 12.8658 1.17277
327.153 17.536 1.5429
211.174 12.5432 0.982591
360.934 23.0608 1.5008
208.383 13.308 1.09955
201.131 16.5408 1.48555
211.991 12.0686 1.07626
221.961 16.5348 1.63602
347.58 20.7262 1.78287
287.402 19.5601 1.52496
220.07 14.6081 1.2741
162.695 9.82956 1.03117
197.363 14.3059 1.39639
235.525 14.104 1.25427
207.361 13.7624 1.15925
181.269 14.7002 1.3518
217.292 16.7118 1.41195
109.041 9.11962 0.970883
198.42 13.9723 1.33256
150.486 12.903 1.31168
185.078 14.9665 1.23723
139.886 8.09615 0.917856
215.888 16.427 1.66273
216.542 17.7783 1.5973
188.705 16.225 1.63959
136.985 11.4993 1.28497
208.872 19.4823 2.16943
190.483 17.9017 2.1075
201.169 14.7283 1.74523
211.238 19.9271 1.94057
113.46 14.8914 1.77916
195.286 22.3943 2.42819
149.164 15.9832 1.72717
233.106 18.4537 1.8712
145.861 16.9465 2.29132
185.478 17.8386 1.69554
136.52 14.6017 1.63774
150.846 12.2351 1.52166
131.305 14.6701 1.87645
119.868 9.88304 1.13571
172.994 18.956 2.17339
182.603 17.6855 2.10298
183.486 22.3818 2.93147
176.876 18.347 2.3947
171.102 19.3685 2.51855
134.635 13.351 1.68832
195.951 23.003 3.12315
176.412 19.1947 2.51559
206.245 28.6791 4.2908
188.153 20.2005 2.88054
146.924 16.6433 2.18739
172.673 20.9044 2.7499
129.991 15.9891 2.41891
119.613 15.4085 2.53005
193.379 22.0284 2.91765
101.79 11.3343 1.67242
106.392 13.1056 2.22231
128.41 16.0271 2.49786
95.5004 10.3455 1.49957
131.162 18.0531 2.52466
163.252 22.4071 3.43018
136.672 19.1421 3.34914
114.694 15.794 2.35674
152.519 22.7227 3.39731
121.054 17.2996 2.76205
151.18 21.8856 3.45065
115.278 14.7251 2.415
107.937 14.458 2.56361
94.3104 12.6596 2.4062
71.4639 10.1132 1.79768
107.178 17.0605 3.38904
301.098 57.0174 8.86068
104.887 18.206 3.41703
85.9189 13.3979 2.33013
123.031 21.8111 3.71242
80.1257 14.337 2.48009
116.142 18.0794 3.48296
134.728 21.1109 4.00285
109.209 15.0328 2.67846
115.588 17.1103 3.07481
64.3127 10.6032 2.23239
92.8613 16.2895 3.37178
81.0039 11.7929 2.62005
146.744 28.0372 5.65557
144.816 21.8222 3.87972
96.656 19.1871 3.75508
143.182 23.804 4.96786
112.527 22.642 4.37624
94.1902 17.2076 3.34981
85.2491 13.1638 3.0646
91.7033 19.3995 4.08433
107.321 17.681 3.66859
90.5485 14.4876 2.73114
153.987 26.4589 5.76359
103.138 16.9162 4.16238
118.89 22.6224 4.75085
153.995 28.3076 6.10831
106.58 21.9914 4.99299
101.18 18.8179 3.64819
127.17 26.9485 5.65039
81.2988 15.0954 3.22545
153.348 30.3754 6.55877
117.246 22.1138 5.17778
83.3747 17.5362 4.68144
92.5613 16.5845 3.88171
41.6164 12.2252 2.82439
104.707 22.2277 5.09966
99.4835 20.3065 5.55499
79.0125 15.1901 3.65175
132.693 28.7774 6.97934
99.8023 26.9368 6.54769
88.8325 22.2862 5.73119
114.174 23.9571 6.04276
105.39 23.5915 5.51241
57.5057 11.1289 3.10485
157.47 37.7673 9.44448
96.3202 22.5317 5.86153
85.4426 22.2821 5.77494
105.207 20.4724 5.89283
120.603 25.5481 6.90565
69.5838 16.1355 4.77699
82.6911 20.6213 5.7569
64.2207 15.7891 4.17826
76.7432 20.6429 5.02111
83.3451 22.202 6.12594
111.278 29.832 7.95922
68.8029 19.5606 5.30961
76.9211 20.3427 6.32
81.1028 19.4082 5.6836
77.3682 18.4947 5.2022
99.3679 24.2161 7.29217
76.7526 21.4568 5.97329
82.5009 22.9043 6.32932
56.4941 16.2692 4.63804
95.9072 24.0607 6.75388
100.983 30.39 9.65821
80.5854 28.1393 9.24151
85.0749 24.0146 7.647
54.5142 16.1658 5.28226
63.2787 21.4227 6.4571
101.274 27.1509 8.57458
73.1919 18.6004 6.28481
87.872 31.468 10.4023
68.7892 15.3989 4.07035
78.9763 22.9938 8.05819
59.8837 15.6266 5.18038
71.2662 22.8739 6.99354
69.9255 19.5815 6.59044
68.9795 19.0556 6.37103
78.8771 17.5356 5.61311
58.1192 17.0563 5.58826
64.577 19.9756 6.30966
48.1227 16.4403 5.51603
69.9937 20.7522 7.46966
95.4392 27.9755 9.72392
64.4137 17.9136 6.71832
85.4625 29.3314 11.0341
47.1274 13.49 4.73922
62.8738 21.7061 7.74579
64.4492 25.7151 8.68032
70.3628 21.8648 8.58075
66.7848 24.996 9.40641
63.8556 19.5094 7.60573
72.4697 23.7323 9.36921
65.7048 20.8438 7.4187
56.258 22.3713 7.88038
81.473 27.6176 11.6165
175.301 59.3 21.2094
51.6806 18.9125 7.20464
58.9774 24.7556 10.1981
73.8284 26.1327 9.70758
65.4079 24.5296 9.81078
67.3953 25.3354 9.33397
53.6598 21.5032 8.73868
92.6658 35.9067 14.0909
42.8311 17.0411 7.0734
54.79 16.7376 7.49448
71.8554 24.046 9.44319
48.7727 20.0204 8.55138
83.1452 27.5219 12.849
60.2801 20.092 7.22879
80.5341 25.6751 9.93411
40.1808 13.8226 5.26407
37.9406 14.4021 7.24039
54.1105 18.8647 8.53937
61.5485 20.2821 8.27954
47.6784 16.7384 7.96694
78.3925 32.9978 13.0918
42.7607 14.4438 6.42622
37.2203 13.537 6.78532
59.8923 24.941 11.6538
64.3227 29.3701 13.2032
67.8696 25.1865 9.58349
51.6456 21.5712 9.96711
52.3388 23.7215 11.1686
42.8976 19.5043 10.623
79.5541 30.7577 11.6885
40.1493 18.9821 9.01386
46.3837 22.0555 9.98729
59.6886 26.8309 12.855
50.399 21.6598 10.4186
65.3981 25.7573 11.4452
38.6995 21.2577 10.3863
64.4755 32.388 17.8768
81.4008 29.3502 11.4363
53.7049 24.695 11.0624
59.223 24.8714 11.0607
66.1396 28.6374 15.6751
56.5687 25.0426 10.1775
45.0685 24.1311 12.3998
58.9223 25.0909 12.4996
47.8633 24.1876 13.2575
58.9074 20.4723 9.64705
42.9363 18.8001 9.86703
47.7602 19.0796 10.029
59.3488 24.6761 12.1143
83.4124 39.9065 20.4576
42.818 26.9176 13.9976
54.6804 32.1055 19.3741
65.1187 27.9809 15.0765
46.3717 20.4613 10.5854
41.2503 16.4008 7.80892
43.1079 21.5334 11.5479
45.6 28.5326 14.995
45.3243 22.253 12.7105
44.4725 21.8842 11.0585
38.8704 15.7822 9.59878
47.6897 28.1731 15.9089
53.9562 24.1626 11.5332
54.2155 30.6596 17.7196
34.2499 15.4002 7.75257
56.195 34.4426 19.9998
45.6873 25.2052 15.6425
57.0046 28.1165 14.5452
42.9232 21.7542 12.1705
46.3216 25.9571 14.0217
49.1286 26.5301 15.3354
39.5535 21.6483 13.6884
46.0779 23.1241 12.8546
30.3327 16.4493 10.9468
38.8856 17.5514 11.1773
29.4913 14.3514 8.03161
52.4043 24.6419 14.6737
57.6702 29.9395 16.7541
51.2723 30.1328 17.2855
36.9493 23.2419 14.4733
52.5536 30.0165 17.4622
32.9284 25.2058 16.1731
47.1534 25.0519 16.1939
54.4545 30.3771 19.3516
38.8873 18.2295 11.0843
29.0749 19.434 11.3242
39.1043 23.3574 15.798
54.6392 31.6391 16.0782
41.6231 28.9682 17.8832
17.5968 14.7241 11.7627
39.1405 19.3419 12.7929
41.0826 20.2491 12.6789
36.166 24.923 17.1788
32.4136 24.8963 18.4968
30.9671 17.1392 11.3782
51.7796 30.6367 21.3112
40.9875 27.9234 20.933
129.562 68.5928 38.7025
40.2002 26.873 19.7909
47.1548 30.0764 19.8511
28.0155 16.6373 11.3283
27.655 18.4519 13.5873
34.301 23.4743 15.5874
40.6156 26.5732 17.7474
36.8057 20.8624 13.6209
34.5844 22.942 15.2339
22.4304 14.9678 10.9956
35.3273 23.3672 15.4398
30.4683 22.1892 15.2025
38.9454 24.2876 16.719
37.6942 23.0117 15.622
42.1045 27.6574 20.9389
38.8344 23.0274 18.1935
31.0502 16.0948 10.4308
29.6446 17.1883 10.5166
25.4299 21.6375 16.75
32.4648 17.928 12.798
31.926 27.1298 21.1536
38.9934 24.6058 18.673
31.2787 25.5119 19.7218
49.9127 35.013 26.5833
43.84 31.0695 19.9533
22.5287 14.414 10.661
34.696 22.3344 14.9085
22.9541 19.1891 14.7833
24.2345 18.3708 15.827
37.9141 21.9613 17.675
36.5019 27.795 23.6309
37.9853 21.2371 12.2449
45.6173 39.6522 32.3825
43.3829 23.6556 16.3953
33.0072 26.7916 21.1082
36.1254 23.1308 18.2717
33.5106 25.8639 21.0809
37.2225 23.3645 17.1904
47.7982 30.7815 24.1376
42.8409 31.8341 23.2559
28.3437 24.1069 18.8724
12.9048 12.8778 15.4501
40.7324 31.4382 20.843
25.4103 22.8655 20.4826
35.6381 18.4154 15.6167
36.9727 24.1342 15.6382
30.3956 27.9109 25.4212
43.5777 34.0765 30.3861
40.6265 20.7434 14.8299
29.2738 26.1223 22.5776
38.7594 28.8126 21.8123
19.4284 14.6852 13.1898
31.0294 25.9103 22.445
30.5948 21.8745 18.732
22.3091 18.57 15.2693
25.4351 27.281 26.3343
31.6384 22.3114 16.4594
28.1194 24.8704 23.9644
35.6916 27.8845 23.6483
33.6844 27.2907 24.4591
30.6871 21.5321 20.7082
35.0831 25.3671 20.7185
26.8198 18.9703 17.9825
34.1199 24.5769 20.7441
35.0281 31.9809 27.506
40.8698 27.2718 24.8412
27.1367 30.6722 31.5465
48.7998 31.315 21.549
26.576 19.6298 18.3052
25.7238 27.2359 25.3541
31.8927 19.3279 13.5573
34.7224 31.6419 25.3984
22.0353 21.0359 21.0083
23.3826 15.9782 16.0116
21.8043 19.7274 17.5709
36.1297 29.3933 26.331
27.0842 23.5892 24.5999
39.2387 31.5974 27.7714
49.0371 42.0722 37.3189
24.4169 21.6292 18.8754
21.4691 25.7148 23.7029
18.7982 20.5704 24.2827
34.4144 25.8038 22.384
22.5239 14.8655 12.923
33.0617 28.6058 24.9942
23.4408 23.8814 25.791
36.0837 31.9317 28.2326
26.5293 23.2236 21.5927
20.3778 19.0948 22.8533
27.9794 21.9657 18.6395
24.7105 22.7032 24.3277
29.6052 31.5297 30.8908
30.7281 26.9244 32.403
40.2133 33.2346 30.2871
26.4867 21.5106 24.3203
44.9682 35.184 31.5025
79.4257 68.7372 59.2623
18.3176 20.2338 20.6786
23.5317 21.5932 24.8952
27.1953 23.5191 25.2956
36.8854 29.4309 26.348
23.7677 21.1492 19.6715
12.8524 15.5926 17.4859
30.5872 24.7376 24.1494
19.3897 19.4505 18.7992
13.9775 11.3991 12.946
17.1033 15.0077 15.0313
26.9699 28.3171 30.0648
22.4243 21.2398 24.6496
16.4922 12.9094 11.0103
14.9982 18.0998 23.7005
26.3098 27.4502 32.7001
25.2682 20.3968 17.9667
21.5348 22.2885 26.1138
27.2492 20.5982 20.6445
26.952 25.5018 26.4246
22.1038 24.4989 25.0414
19.5634 13.6552 13.4906
17.6342 15.8629 19.6683
19.3637 21.0209 24.8447
28.4136 28.0763 28.0426
24.9467 23.6865 22.5071
18.4934 16.9048 15.5512
17.0436 22.5952 26.3432
15.9331 17.7249 22.6984
18.859 19.6987 23.3331
20.2752 21.8597 26.3306
25.2152 19.8851 21.6954
14.7996 17.0056 22.8448
18.8658 19.6709 23.8689
37.0589 31.7189 31.4137
33.4791 35.9812 35.0973
29.9189 35.1695 38.3966
16.3407 24.6818 29.2071
22.9329 25.009 31.7648
27.5827 22.8631 27.5862
27.8208 26.1003 27.6923
28.4153 22.2144 22.1006
15.0261 18.6024 23.6904
18.6406 16.5787 16.3244
17.0655 25.6165 31.8511
24.1571 22.425 26.5584
23.8014 25.4025 32.3309
30.846 28.7011 35.3597
25.3908 21.5341 22.9137
22.0318 16.1274 17.7353
15.1639 14.2488 15.7096
12.2397 12.3047 18.4689
28.9116 31.7441 33.6527
13.1519 14.989 23.3051
27.2999 24.6878 25.9605
30.9995 34.5748 39.4425
20.5588 21.5813 26.9963
18.3288 20.9188 26.901
15.8789 18.3411 23.6398
22.0006 22.9562 24.9693
17.9568 19.59 26.9815
18.6351 16.5922 16.8309
21.4281 28.3613 34.8565
20.4365 19.4199 24.0302
21.9784 29.5244 35.6207
16.4046 18.7549 24.775
19.4935 22.5399 34.7159
31.3205 29.3116 29.6183
15.8714 16.5023 19.8855
23.1802 28.1472 34.5405
14.6284 21.0073 29.6606
21.2075 27.1398 34.4655
16.3864 21.3613 28.5913
24.8526 24.4668 31.4841
21.5885 23.4936 29.7291
22.6103 21.5231 22.44
12.7433 21.4162 33.3323
21.2865 20.8385 24.7412
17.1868 19.9117 25.39
24.8964 32.6186 44.1076
25.0757 31.2976 39.0581
29.0487 37.853 51.707
23.4051 25.1184 31.2638
16.0597 18.8594 25.4363
22.8361 33.7087 47.0053
18.7137 18.8869 28.9231
23.9578 26.167 34.8241
18.7638 15.5225 19.4137
20.573 22.3195 31.4632
23.9288 29.3153 33.8635
17.9746 22.4328 32.6154
18.7835 23.762 36.4808
18.5096 20.8806 26.8596
12.9202 18.9082 33.1215
26.2624 25.9529 30.1489
25.4794 36.6321 67.3523
59.8829 76.3306 80.5992
19.5522 25.1239 40.4215
22.1269 29.3634 37.0543
16.986 23.7433 31.2113
13.224 16.0146 22.0519
16.426 23.2139 33.9259
24.5568 25.9282 35.2066
16.6597 22.1473 35.3621
11.112 17.648 26.0133
12.8582 16.1577 23.225
14.3103 20.1922 29.9961
15.5602 24.679 29.4339
13.7914 21.7943 37.5186
18.1251 16.6374 19.0367
14.6441 22.6267 33.4593
16.4683 15.9949 20.1856
9.80264 10.3806 16.3228
13.932 17.6687 25.819
14.1191 21.6123 35.8646
14.8873 18.3969 25.8797
16.2484 21.5365 31.7681
17.3514 27.4977 35.1308
10.3286 15.2537 25.1862
10.7138 19.451 36.091
23.7443 29.3921 42.6766
20.0183 21.8675 26.5437
17.8395 25.939 39.0301
17.1661 18.5392 29.5021
18.4825 26.1795 35.5903
15.4362 22.9679 39.0665
19.2133 23.28 36.4427
14.3234 17.5499 25.9038
14.7681 14.5292 21.5479
20.6792 27.137 38.8952
12.3236 15.0899 23.2554
16.2671 19.0084 26.5324
12.4783 19.9371 33.0024
14.1311 16.1647 22.9674
14.9288 16.0709 19.6033
15.6616 26.1506 39.2791
18.7582 31.9103 52.5178
16.6927 21.5146 33.7442
19.3273 24.5031 40.4421
15.4005 22.6776 39.6507
16.7866 21.6021 26.2393
10.5398 17.4384 30.0194
15.9703 19.2082 30.8172
13.361 19.547 35.7714
19.8225 30.7641 48.9686
16.9857 17.9519 19.1128
13.1808 16.2699 22.7204
12.847 18.5456 32.4512
10.9592 14.565 25.4414
21.2466 29.9094 43.3191
17.4875 28.4392 45.1862
16.8077 24.3013 42.3887
15.2795 18.301 30.5082
16.2672 17.2716 23.1185
17.4724 26.7943 46.3798
8.05545 8.59476 17.4536
12.9309 17.6957 28.3448
22.3949 28.1883 37.3843
12.9688 16.8734 25.7582
11.0971 16.6208 32.1617
15.8226 25.8682 44.3126
13.9907 20.1343 28.0636
11.4141 21.1097 41.8828
26.1721 39.3469 58.7504
9.98732 14.7399 24.6977
10.9143 20.4031 41.6462
18.1669 16.5242 24.5755
24.5733 40.8538 58.3425
12.3224 27.6722 55.1575
23.8016 32.7186 61.6372
15.8343 24.4769 41.5083
20.9065 24.2485 33.6559
13.7495 23.4238 36.1532
14.8392 23.6754 39.1923
13.6857 24.015 48.0328
15.0307 16.1811 20.1692
14.8675 29.0159 47.6672
9.05745 13.3277 24.3343
13.1189 22.9936 46.2132
14.7085 22.2942 39.4915
19.9459 32.2076 47.2759
11.4344 14.9763 20.4524
7.16238 16.7992 41.1061
11.1196 16.9361 32.1489
12.4816 18.8366 38.8472
13.6043 18.9274 30.4186
19.6928 32.6177 51.4887
14.1175 21.5725 41.8152
10.812 21.2417 34.3986
10.9019 16.1889 30.2053
9.03542 16.3908 31.5293
10.3675 18.9498 57.5747
40.9204 75.7759 104.188
13.9217 18.5622 34.4528
11.6045 15.4312 20.5223
6.45433 14.8881 36.8663
16.9415 24.7666 38.658
15.0647 18.7069 36.0005
11.3226 17.3996 30.9545
9.07705 19.1076 40.7789
15.3818 22.2913 41.4125
13.6013 17.9931 30.5745
9.45107 14.6914 28.663
12.9446 26.4305 47.6204
8.62719 14.4962 30.0397
14.7101 17.6252 28.8408
7.95074 12.2611 21.9255
11.8987 24.5267 41.0229
10.0249 21.6751 43.9011
9.44663 15.0636 29.752
9.93232 20.3185 42.4623
9.99414 12.1834 29.8171
13.5387 16.5849 25.3149
12.7077 19.479 35.7287
12.3833 22.0544 40.2501
10.9884 17.4214 31.4312
11.2865 16.505 34.463
13.1608 21.6614 43.959
12.9881 15.8105 31.8761
16.2591 18.6996 29.6294
12.1065 20.892 35.4609
9.54587 16.3829 40.0228
14.0841 24.46 47.4106
11.5429 14.4085 24.3298
9.74196 11.9524 25.303
16.0625 29.3944 52.1343
8.76627 23.3822 56.5646
17.9391 28.3374 47.6915
6.8716 14.0372 30.9839
12.1184 16.4736 29.5119
10.5526 17.5815 33.7062
9.58763 15.9979 36.3532
8.68231 13.2288 26.9828
11.7694 20.3292 34.6842
11.1968 20.5581 40.6672
14.7716 27.1494 62.0092
11.9957 17.1585 32.1374
14.4666 21.0966 29.4629
9.09856 15.9946 29.7742
8.77855 20.0571 53.4327
17.5455 29.4857 49.2645
11.886 18.3252 35.7641
8.9418 16.2017 29.4863
9.12736 21.9081 47.9781
11.868 16.6733 30.1611
8.27769 14.2664 27.0474
11.6459 18.5756 37.1138
10.1969 21.2562 47.1365
8.91349 20.1124 39.3755
11.425 23.4274 57.6225
17.3711 24.0768 38.6493
11.2144 25.7241 50.1934
8.50797 17.4039 34.346
6.42169 13.274 38.1462
17.3247 25.1246 53.9344
14.6824 27.472 53.6716
10.6 17.0554 32.756
12.6279 27.3157 53.061
11.5763 14.7123 22.7363
6.71731 17.2825 45.3591
13.274 20.7812 42.6277
10.6191 22.3437 47.9976
9.5448 17.024 41.053
10.4681 20.9398 34.8983
9.55903 16.0443 34.98
11.1507 18.1021 40.0982
14.582 29.375 53.1454
8.77082 18.0169 34.1441
10.7423 23.9357 52.0302
12.3203 21.5678 52.1079
13.119 26.1663 48.5863
8.99039 15.109 39.3802
10.6303 18.1852 38.1305
11.5366 24.5416 44.9746
6.46452 12.1486 34.6274
8.4151 10.8587 19.0242
8.19175 15.2878 34.6357
9.6181 17.1515 45.4514
11.6165 13.4902 25.6216
8.09341 17.7064 43.527
12.7558 27.754 52.2915
10.5819 15.0459 31.062
10.9832 19.5507 41.8154
6.96187 16.0035 47.2747
8.66801 16.0219 25.6383
7.98139 20.3925 53.9482
10.155 18.2077 41.9511
8.11928 18.5969 69.9685
21.976 47.2311 79.0744
12.8448 24.4084 46.2576
7.89328 15.1011 43.4358
11.5207 19.5575 30.9915
8.1122 21.4232 45.9181
11.6281 22.0953 54.4704
10.1657 16.2134 39.7742
7.4668 12.3361 26.4632
9.89871 14.9789 30.3081
8.93567 14.2359 30.1639
9.29819 17.4409 33.9814
5.7121 13.4992 30.3908
5.36958 13.0308 34.86
9.27795 15.6858 32.6261
9.03037 14.7105 40.4041
8.47867 18.8354 40.8216
7.31178 15.9194 35.3975
8.0807 12.5165 29.3275
8.21521 16.6383 36.9184
6.81678 16.1823 35.4869
7.30518 13.7618 36.2457
9.2074 16.3209 31.7309
4.33178 11.8653 37.1462
10.3134 22.789 51.0981
8.68154 9.221 20.095
9.4241 18.905 34.7606
8.54779 25.2458 63.7716
12.2228 23.2277 39.1916
8.0012 15.6692 41.4354
5.33789 7.5664 18.6557
7.08211 12.7606 26.916
4.81582 11.9598 34.8291
7.3623 13.9732 23.0562
7.91307 17.7072 37.7011
7.99233 14.0406 33.3257
7.38828 21.9672 49.55
11.0361 15.8881 42.6045
10.4439 15.8239 29.5122
5.66111 11.7853 38.8339
10.2514 21.6751 45.9244
7.07136 14.6104 41.3467
8.31188 18.7854 36.1766
8.62088 19.3289 38.519
6.31214 19.9136 58.0834
11.3587 18.117 36.6665
6.23822 12.1274 35.125
7.63395 13.0992 33.4874
8.02277 16.5328 38.4018
7.65017 16.2646 52.4948
14.624 23.0994 43.6819
7.02434 11.8186 26.1097
8.65598 18.4296 45.2111
9.06247 17.1919 44.122
7.69345 13.5124 31.5721
7.37411 16.7258 48.0348
9.06326 12.7401 21.6003
7.38046 15.5219 31.599
5.03756 11.0307 40.8471
12.4808 20.6685 43.7383
7.14525 9.56312 32.3906
9.972 17.7911 41.7747
7.58633 16.0613 38.8438
10.5968 22.1255 49.3816
