# pn-170911/RbIIR-59-USN7-1280-1959.psd
# Power spectrum* (dif=0,1,2) (really just |FT|^2)
# NOTE: only the first half! (symmetric)
# weeks: 1280-1959
# 415 clock-days, 122 excluded
# PSD: 1441
241.896 0.0734208 0.0908072
10693.9 0.320461 0.180172
41543.6 0.906599 0.173241
13901.9 0.549541 0.164084
21962 1.66129 0.164606
4684.11 0.547365 0.162829
4553.76 0.792995 0.176511
2618.39 0.561638 0.15202
3596.52 1.08804 0.181288
1639 0.568245 0.16629
1673.06 0.749042 0.181274
1093.79 0.626948 0.172949
1202.47 0.774578 0.168471
857.587 0.680812 0.171306
784.403 0.672643 0.174574
669.152 0.675929 0.15712
752.124 0.875507 0.17683
561.438 0.713546 0.169443
590.078 0.863926 0.172408
504.073 0.809617 0.160209
438.54 0.808126 0.173967
418.809 0.82415 0.177985
384.243 0.816631 0.172027
361.766 0.87175 0.15601
380.648 0.926326 0.183864
309.418 0.862054 0.1561
355.61 1.09547 0.153852
293.643 0.982947 0.158288
329.437 1.17938 0.168413
296.164 1.17168 0.17896
322.743 1.34466 0.169361
256.647 1.13796 0.161335
287.029 1.42957 0.180839
285.579 1.39598 0.163979
284.12 1.5089 0.177828
235.36 1.30135 0.168199
290.312 1.66959 0.176348
269.11 1.76274 0.176187
251.796 1.6813 0.173127
238.792 1.68923 0.178178
249.25 1.83598 0.18167
256.149 1.9514 0.190155
215.001 1.70281 0.188566
235.184 2.08123 0.184213
236.246 2.18481 0.191665
228.376 2.16064 0.174807
210.506 2.08685 0.17684
214.548 2.13814 0.187489
255.451 2.75607 0.18516
208.195 2.31126 0.192708
221.64 2.58444 0.19047
217.936 2.63244 0.213878
208.633 2.6841 0.219493
242.689 3.12292 0.197735
236.946 3.28485 0.235703
180.273 2.43771 0.193659
216.141 3.19645 0.199137
221.438 3.26869 0.213952
205.67 3.19502 0.227666
194.252 3.18338 0.226864
229.8 3.80594 0.238418
243.596 4.19243 0.254413
235.91 4.16085 0.222938
170.503 3.17158 0.213135
186.386 3.61934 0.230295
193.861 3.8885 0.26325
204.764 4.17477 0.258567
248.607 5.16848 0.251566
184.094 3.93362 0.247495
180.138 4.00804 0.246929
191.933 4.4394 0.278836
239.414 5.68892 0.279641
204.256 4.96798 0.294442
199.505 5.04025 0.283402
175.439 4.50866 0.254549
189.932 5.049 0.283608
220.218 6.07364 0.316683
216.36 6.01002 0.312829
234.096 6.50689 0.349227
167.964 4.94638 0.311934
178.205 5.3199 0.29928
164.804 4.98739 0.337346
206.222 6.35208 0.338087
230.982 7.42632 0.377085
210.356 7.0124 0.38568
177.463 6.06305 0.347622
203.719 7.12892 0.413292
200.076 7.00773 0.416191
178.701 6.57846 0.385746
192.451 7.18163 0.409831
183.959 7.02741 0.403357
242.519 9.67157 0.484808
196.918 7.80604 0.4505
196.915 8.04859 0.467219
155.435 6.50638 0.433913
201.113 8.33962 0.528886
294.407 12.9912 0.70852
196.803 8.75705 0.512699
167.936 7.60562 0.503508
179.242 8.22001 0.507667
165.937 7.87999 0.535816
166.214 7.96967 0.535901
170.785 8.50132 0.560873
193.988 9.43585 0.595599
163.933 8.44197 0.555722
170.939 8.82905 0.584815
166.005 8.63265 0.593269
193.079 10.7558 0.662842
222.196 12.556 0.799855
174.79 9.57889 0.645932
159.114 9.11492 0.680175
172.006 9.84118 0.719061
159.752 9.07007 0.68048
176.261 10.631 0.752557
166.753 10.1505 0.712539
181.237 11.6551 0.856284
197.337 12.4419 0.889405
168.646 10.743 0.814165
138.508 8.86826 0.683182
172.843 11.7585 0.894913
198.718 13.6746 1.05793
157.439 10.6077 0.873968
148.635 10.2347 0.81021
145.656 10.4682 0.835839
156.013 11.4096 1.012
140.974 10.1846 0.869616
149.659 11.2259 0.904057
151.129 11.4662 0.933245
150.054 11.6398 1.00357
172.313 13.5604 1.15956
152.508 12.0577 1.05428
167.741 14.1863 1.24207
156.816 12.764 1.16759
179.299 15.181 1.29612
147.641 12.1722 1.11791
148.998 12.8575 1.23157
145.526 12.6033 1.17273
164.311 14.7414 1.38227
143.4 12.7667 1.2778
151.607 13.601 1.29726
144.972 13.6166 1.36732
130.625 12.0796 1.23493
120.065 11.3879 1.20496
139.036 13.2565 1.36858
211.23 21.4245 2.21501
148.495 13.9576 1.39009
144.589 14.4844 1.55854
131.087 13.3565 1.46786
155.394 16.7364 1.79743
131.204 13.3416 1.41454
128.771 13.5946 1.54405
120.721 13.0503 1.51544
117.882 12.8914 1.50343
157.297 17.6364 1.96152
148.498 16.2391 1.85444
160.234 18.9715 2.28335
158.621 17.8771 2.05045
134.06 15.7592 1.94476
140.839 16.3757 1.94704
139.318 16.6047 2.061
113.981 13.7344 1.73886
154.688 19.2606 2.50792
122.885 14.4412 1.72692
122.369 15.1851 2.00193
117.704 15.1806 2.0163
116.91 14.8772 1.97959
126.376 16.3421 2.17359
140.821 18.9896 2.59356
172.07 22.9701 3.17356
144.207 18.4512 2.42258
130.238 17.2656 2.31282
113.272 15.5681 2.20999
130.671 18.7077 2.62586
118.435 16.3394 2.3299
129.683 18.9089 2.80233
130.637 18.1383 2.59974
109.033 15.8132 2.23507
119.336 17.6626 2.74233
118.125 17.4202 2.61402
133.074 19.4391 2.94617
113.178 17.2901 2.71479
113.978 17.4175 2.68846
112.478 17.5298 2.67643
104.708 16.4361 2.6464
116.843 18.374 2.91282
119.362 19.6352 3.18349
123.111 19.5253 3.10849
108.944 17.7849 3.00679
113.385 18.5617 3.09978
109.754 18.4124 3.10411
109.485 18.388 3.12726
112.478 19.5308 3.47427
180.364 31.4179 5.29128
117.173 19.8088 3.43985
101.944 18.3533 3.27472
109.138 19.4435 3.53771
104.423 19.2649 3.48944
110.321 19.224 3.37562
97.2673 18.3324 3.53604
115.86 21.1135 3.87732
107.423 20.2763 3.85338
98.7222 18.7286 3.572
108.223 21.103 4.03456
112.251 21.3355 4.05805
108.854 21.5443 4.28212
104.53 19.742 3.7523
105.92 21.6584 4.35587
119.061 23.5336 4.54977
96.2842 19.5741 3.95907
97.0929 20.0097 4.16858
103.741 21.3052 4.4278
92.2787 20.0782 4.21897
103.205 20.9354 4.25593
102.235 21.4081 4.60127
99.9671 21.5173 4.55737
91.0748 20.9418 4.7357
119.982 24.754 5.24254
87.7806 19.0992 4.07831
97.2647 21.4122 4.73547
84.3259 19.2916 4.47829
101.816 23.5544 5.2352
91.6984 20.4131 4.57703
96.4859 22.6295 5.22918
100.158 22.9043 5.19752
94.0556 22.4392 5.21108
99.937 23.5509 5.3197
88.448 20.7798 5.0775
89.4178 21.9079 5.18588
92.5709 23.3684 5.7226
102.485 24.3634 5.66847
82.9611 20.4139 4.95753
97.4106 24.2659 6.02149
90.4606 22.5285 5.58352
90.9193 23.3872 5.95092
87.1586 22.1443 5.51521
79.0306 20.8724 5.53019
89.6644 22.9926 5.73652
78.4194 20.5391 5.38992
80.704 21.0419 5.62739
90.5968 24.936 6.69143
99.9318 26.181 6.85618
87.8592 23.4519 6.31921
79.86 21.6207 5.76695
80.5652 22.2748 6.19442
85.9679 24.1057 6.67583
98.1634 27.1492 7.32622
76.4206 21.9172 6.28513
84.6454 22.993 6.18685
80.1618 23.4518 6.72195
92.8204 27.1937 7.79012
81.4961 23.5029 6.66034
67.8955 20.3833 6.2005
88.3557 25.8161 7.70275
86.2023 24.5306 7.0555
84.9332 25.4708 7.57386
80.2256 24.4028 7.39484
83.6377 25.694 7.75856
74.0358 22.8243 6.79273
78.333 24.072 7.41987
74.1464 23.5253 7.46993
78.1389 24.1969 7.35738
75.5264 23.3025 7.29151
74.9747 23.2905 7.30969
72.9975 23.5614 7.52852
90.2153 29.1509 9.13664
75.11 24.4205 7.93129
62.7704 20.5658 6.67819
68.646 22.5647 7.26693
70.2348 23.8446 8.11433
75.7256 24.2232 7.76416
68.2541 23.8676 8.15292
68.7872 22.9575 7.47992
69.629 23.3118 7.91956
68.7836 24.2005 8.39511
68.7848 23.7865 8.20835
75.6502 26.4359 9.35359
77.208 25.8547 8.67956
72.188 25.3656 8.93443
76.4371 27.4057 9.75655
70.7807 25.0295 8.82522
63.1307 22.5361 8.05689
66.9188 25.1931 9.3097
69.8891 25.2391 9.05697
72.0471 26.4988 9.75995
66.6158 24.9177 9.23403
62.26 23.0935 8.84263
61.7085 23.5191 9.01159
73.582 28.2558 10.7736
104.458 39.3317 14.4919
62.7445 24.2408 9.458
66.3155 25.1545 9.46408
57.1286 22.3141 8.64203
57.8117 23.1211 9.23107
76.7865 29.8469 11.3565
60.229 24.0356 9.53134
60.7092 24.488 9.81179
59.3855 23.4218 9.33559
55.9755 22.501 9.28213
68.9706 28.0274 11.36
62.7326 26.1041 11.0165
67.5235 27.5254 11.175
60.8477 25.4042 10.6173
58.1622 23.8551 9.9907
60.3624 24.9718 10.3477
59.5378 24.9132 10.6623
63.3071 27.4821 11.6905
61.0138 26.5368 11.2694
61.1395 26.288 11.346
53.7415 23.3171 9.93828
54.9099 23.87 10.1285
54.2472 23.9767 10.4486
54.3284 24.4788 10.9711
62.5487 27.4382 12.1794
56.4191 25.6074 11.4348
56.7129 25.7766 11.4774
55.8057 25.9849 11.8304
51.2905 23.4972 10.8122
54.1902 24.1426 10.8069
53.9875 24.2681 11.3881
55.8758 25.4077 11.7662
53.5294 24.979 11.5409
54.1785 26.283 12.825
55.0031 25.3931 11.752
51.5983 24.4995 11.3344
52.8731 25.8316 12.4838
51.4804 24.8999 12.0309
53.7838 26.2454 12.7771
54.7287 26.4337 12.7073
52.5289 25.9783 12.9112
55.6415 26.9053 12.8702
51.4365 25.3895 12.6193
54.0845 26.4896 13.0784
55.8455 27.741 13.8777
51.7438 25.7946 12.8089
45.8121 23.4728 12.0899
49.4534 25.1088 12.7981
53.6117 27.4509 13.8692
50.1134 25.4658 12.6624
46.72 24.5286 12.7997
45.524 24.082 12.7804
48.8681 24.9421 12.5426
49.5941 27.033 14.1973
45.0091 24.5353 13.5332
46.7635 24.7145 13.1529
51.7739 27.2536 14.4639
51.396 27.8283 15.0677
45.9625 24.9741 13.675
47.9722 25.6243 13.5021
50.2096 27.3983 14.7587
48.1659 26.3353 14.3631
43.9567 24.2764 13.4075
45.2242 25.0535 13.6858
45.7172 25.9319 14.3357
42.967 24.8295 14.0794
46.0224 26.8169 15.2783
48.3365 28.7066 16.7503
45.5648 25.4688 14.4145
40.9047 23.9686 14.1316
41.0276 23.9109 13.7221
42.7691 24.9812 14.629
48.9593 27.9305 15.9861
40.1015 23.1223 13.6449
46.1843 28.2435 16.9581
43.6329 25.3359 14.7871
41.8211 24.5682 14.7275
42.4349 25.5968 15.3213
39.9769 24.0471 14.3222
42.0523 25.0042 14.9472
42.0205 25.8663 15.9134
40.19 24.2616 14.8618
38.8579 23.6028 14.4904
44.0539 28.1398 17.486
39.8391 24.9906 15.5777
41.9925 25.9991 16.1991
39.464 24.6889 15.463
42.2725 26.6299 16.6226
40.3899 25.9145 16.4198
38.3509 24.9308 16.1884
38.3737 24.8019 16.3004
37.9818 23.7045 15.3218
41.14 27.0032 17.5816
39.9959 25.5616 16.5556
37.0406 23.926 15.7153
38.9307 25.7642 17.574
59.9015 38.6134 23.7659
39.6843 27.5948 19.0897
40.6367 26.6747 17.5905
38.2995 25.2752 16.8253
37.7584 25.6757 17.1387
36.4081 25.1466 17.2903
36.3302 24.8234 16.9319
36.9259 25.7342 17.7382
36.1359 24.1404 16.2061
38.1015 27.0482 19.1189
37.4701 26.3133 18.821
40.017 27.3466 18.5703
37.6465 25.7087 17.944
35.9905 25.0854 17.5769
38.5295 27.5529 19.3168
36.473 25.1841 18.411
37.2611 25.9655 18.1061
36.9482 25.9541 18.2495
35.2501 24.9872 17.774
38.6272 28.7458 20.888
35.3909 25.7166 18.8083
34.3169 24.8158 18.2904
36.8394 26.0519 18.8205
34.8371 25.9142 19.3308
34.778 25.7426 19.6905
39.4691 28.4205 20.6228
37.6585 27.9129 20.8249
35.3033 25.5324 18.7189
36.2237 26.985 19.834
29.4143 22.522 17.293
33.0476 25.2883 19.3673
37.1977 27.9442 20.7824
36.4281 28.0437 21.1908
34.0644 27.4401 21.4944
33.8886 25.7919 19.7145
32.3416 25.7922 20.0625
35.1142 28.4475 22.7883
33.2531 25.7191 20.4284
34.5116 26.7176 20.9715
31.4976 25.317 20.6957
35.0702 26.7359 20.3606
32.8503 27.0294 22.0734
33.3161 26.2442 20.8924
34.2667 27.0738 21.4721
31.4096 25.3081 20.4925
34.2812 27.9785 22.6336
32.4562 26.6453 21.6723
30.9739 25.0035 20.1528
31.8165 26.6341 22.7137
33.7964 27.5868 22.8603
31.5417 26.5558 22.1344
29.3529 24.4724 20.796
32.4698 27.2921 23.1264
32.379 26.5941 22.2216
30.1912 24.7928 20.8269
31.412 25.3856 20.577
30.8887 27.0302 23.1773
28.6076 24.144 20.4739
28.4922 25.3508 22.6616
31.0907 26.5503 22.9509
31.1581 26.2891 22.1611
29.6768 25.5646 22.05
30.4448 26.6567 23.6609
31.091 27.2795 23.8582
28.0149 23.9503 21.4729
30.2642 25.7183 22.2414
29.2008 26.996 25.1277
30.9155 26.4553 23.5613
32.0289 27.6153 24.0336
31.9261 29.166 26.137
31.1344 27.3358 24.2598
29.6347 26.3854 23.3999
28.8825 26.9041 25.3
31.6512 28.5199 25.901
29.8333 26.8065 24.4357
29.4383 27.2806 25.489
28.1204 25.3941 23.4101
29.217 26.7318 24.1725
26.0869 24.5044 23.414
27.427 24.5496 22.3156
25.1413 24.9257 24.3116
27.2813 25.184 23.2124
27.8494 26.1974 25.0956
27.846 26.3686 25.2809
29.0238 27.0322 25.3261
26.6693 25.6769 24.9221
29.3412 27.1251 25.4597
28.7461 27.467 25.8656
28.7955 27.7975 27.182
28.7152 27.6806 26.6418
25.2601 23.9703 23.5167
26.4675 25.9832 25.6152
27.6018 27.5426 27.3713
26.8185 26.5979 26.2725
26.1832 26.1758 26.8194
25.7916 25.651 27.5532
41.6993 40.0437 36.2679
26.7491 26.8955 27.5807
25.7035 26.1826 27.0995
27.581 27.4739 27.5395
25.0674 24.9428 25.2396
25.7861 25.6113 26.1535
25.7119 26.1247 26.7138
25.4004 25.3944 25.8842
27.2399 28.4166 29.2841
24.8416 25.0627 26.4713
26.056 26.4087 27.0545
26.7222 26.7743 27.0014
24.9422 26.445 27.7013
24.2715 25.3405 26.7783
25.4358 26.6355 27.6095
25.969 28.0368 30.1831
26.612 26.7284 27.45
25.9552 27.2156 28.2682
21.5418 23.5045 25.7591
23.032 24.4721 25.8463
25.1694 27.9361 30.4628
23.1819 23.2856 24.254
24.0839 26.7542 29.1831
25.4097 26.9844 28.4376
23.9941 25.6456 27.3975
22.8031 25.6624 28.864
24.5441 26.5318 29.0624
23.2427 24.482 26.6725
21.5784 23.501 25.2943
22.7808 25.8643 29.1685
25.0679 27.928 30.6614
23.9822 27.2304 30.8673
23.2677 25.144 27.5381
21.907 24.6251 28.347
23.8017 26.4173 30.1647
22.9165 25.7514 29.2883
26.4891 29.9253 33.8651
23.7571 26.7583 30.3289
23.6693 26.2666 29.9605
23.5477 26.5588 30.3214
23.1884 27.2061 30.8896
23.5375 27.3401 31.8464
22.2886 24.7822 28.2731
22.7108 26.3219 29.5116
19.064 22.6594 27.1145
22.1653 26.6848 31.4311
21.0306 23.6715 27.6425
21.1687 24.5103 29.0896
21.5689 25.679 31.4324
22.2192 25.5088 30.0089
21.9391 25.5764 29.7223
19.2476 23.8474 29.7431
21.9438 25.5848 30.1138
19.6961 23.8179 29.0834
21.0699 25.3899 29.9569
18.2189 21.9519 27.2796
18.1585 21.2738 26.29
19.9533 23.8926 29.1575
20.1402 24.1889 28.9034
19.3216 24.177 30.429
21.2002 24.8968 29.9512
19.6855 24.6218 30.7883
19.6312 23.5359 28.7724
19.3724 24.1646 30.7724
20.7641 25.7675 32.0109
20.4884 25.1774 31.6054
19.7194 24.0332 29.9652
21.1982 26.8775 33.1371
19.0311 24.1601 31.4469
20.4034 25.4145 32.0765
21.6123 27.7757 35.7188
20.9871 26.7047 34.4416
19.0163 23.6264 30.4387
20.4546 25.0544 31.0336
18.755 24.0956 31.4896
18.4199 23.4131 31.3036
19.211 23.3198 29.2916
18.9297 24.771 31.8416
19.2133 24.6826 31.2621
17.6055 22.9195 30.3871
17.8708 23.2646 30.8052
18.9681 24.5051 31.6537
17.765 23.6051 31.3681
18.7668 25.3543 33.808
17.9349 23.934 32.6055
18.9046 24.565 32.3467
18.4785 23.9748 32.1458
17.4394 23.0315 31.7867
18.0844 24.0803 32.1078
18.8966 24.5393 31.9816
17.596 23.6644 32.55
18.0668 24.1723 32.7717
18.672 24.7437 33.1434
17.7407 24.0659 33.1881
18.8272 26.02 36.0555
18.5315 27.4757 43.9566
30.9179 39.2827 46.2282
17.094 24.3866 35.3591
18.2355 23.6133 31.4256
16.5103 23.7849 34.0954
17.5953 24.0749 33.4068
18.1243 24.9603 34.5802
16.6774 23.7463 34.2084
17.8368 24.004 32.5115
16.471 23.8202 34.496
17.16 23.6941 32.7861
16.0274 22.9996 34.4757
18.0046 24.7773 34.6893
17.2771 24.4615 36.0361
18.8205 25.7764 34.7008
15.3161 21.6309 32.0219
18.291 26.4914 38.0199
16.7188 23.1178 33.0317
16.7804 24.3099 35.9001
17.6082 24.6496 34.871
15.831 23.2286 34.377
16.9466 24.3145 35.4735
16.2726 22.5301 31.645
15.4391 22.63 33.0326
15.8469 23.1489 33.5789
16.0263 25.1012 39.3634
15.9752 22.5909 33.9825
15.7317 22.6202 34.3745
17.4136 25.6304 36.7754
15.5125 22.9807 34.5265
15.9745 23.9011 35.9111
14.8828 21.4556 32.9456
16.1149 24.7132 37.5394
16.7081 24.6633 37.2298
15.0309 22.1737 33.4021
14.5347 21.4113 32.0397
14.8793 24.0687 38.1546
15.7762 23.5492 35.8811
14.7682 22.2345 35.0052
14.8451 22.3232 34.8587
14.3891 21.0231 32.4865
14.9049 23.0422 35.8863
14.4962 22.0242 34.0179
14.7528 22.7881 35.8539
15.4828 24.0731 37.7302
14.318 21.3216 33.5882
13.6878 20.3145 32.6899
15.1043 23.3827 37.0423
15.3594 23.6285 37.8564
16.1829 25.0069 38.9167
15.605 23.6021 36.289
14.1014 21.6184 33.3184
13.9177 22.834 36.8815
14.3239 22.8069 37.2984
15.309 23.5119 36.7351
14.6827 23.2911 36.8098
14.2619 22.8524 35.6548
13.0358 21.4172 36.3836
15.1882 23.5157 35.8037
13.3562 22.5074 38.1983
13.8894 22.6875 38.6228
14.9226 22.7927 36.5475
13.7089 22.1876 36.3112
14.473 23.1678 37.7488
13.9072 22.3518 35.8901
13.563 22.2565 36.2656
13.3763 22.1087 37.0363
13.1144 22.6409 39.2959
13.9478 22.0229 37.2132
13.5179 20.9288 34.7711
13.8126 21.6826 34.5556
12.4568 20.3694 34.4753
13.7355 22.3083 36.1133
13.1868 22.7558 39.5497
13.9444 22.6032 36.7109
12.9304 22.0944 37.9609
13.3017 22.0819 37.3362
12.6441 21.2525 37.2438
14.301 23.419 38.1437
12.3472 21.5527 36.9438
11.7769 20.0235 35.2773
12.7993 22.1001 38.9482
14.198 24.1408 41.9967
13.7783 22.5462 36.9317
11.6233 20.0951 36.5353
12.8182 21.9971 38.1881
13.3593 22.7683 39.4296
13.4139 22.5743 37.9609
12.3488 21.2922 37.9287
12.7434 21.892 39.0248
12.7836 21.8594 38.1838
12.4445 21.2101 36.9165
12.7726 22.2171 38.1652
12.1471 21.4552 37.4056
11.8915 20.7878 37.4566
12.6849 22.878 39.9181
10.7801 20.7234 45.9712
20.1523 33.2964 49.7478
12.0757 21.7019 38.6132
11.6396 20.5853 36.9543
11.8921 21.1835 38.3894
12.901 23.5997 40.6332
11.5717 21.405 40.6995
12.5474 21.6583 39.8743
12.4677 21.7121 38.6943
12.1665 21.9671 39.6584
11.968 21.0019 38.1977
11.7157 21.6117 40.8877
12.0978 21.3528 38.9564
11.4344 19.8069 36.3884
12.4025 23.6472 43.4171
11.4413 20.5632 39.4008
12.9873 22.967 40.0952
10.9765 20.9821 40.6588
11.4167 20.5197 37.3521
11.3716 21.4682 40.8161
11.3285 19.3471 35.9419
11.3907 21.7158 39.7907
10.9363 20.3644 38.878
11.1375 19.8507 36.8475
11.3851 21.6692 41.1109
11.8903 22.1879 41.4212
10.8403 19.1988 34.3539
10.4333 20.5472 39.2439
10.8842 21.3049 42.1296
11.7529 21.4473 39.1044
10.1123 19.8885 39.2517
10.4515 20.3269 40.845
11.4533 21.3903 40.8178
10.774 19.5417 37.0215
10.2538 18.7096 35.0042
9.80505 20.3545 41.3233
10.9985 20.8029 40.1462
9.68657 18.1607 37.0724
11.1024 20.4028 38.0574
9.96726 18.7143 37.0311
9.90541 18.3709 35.5958
10.054 19.0037 35.9949
9.70647 18.7789 36.8426
10.2723 20.8825 40.3
10.4916 20.9148 40.6522
9.57316 18.622 38.9186
10.2896 19.353 38.1863
9.79643 19.1176 37.7299
9.95975 20.733 44.5698
12.2772 22.7873 41.4594
9.44413 19.2892 40.1815
10.1224 18.487 35.9432
9.55642 18.7972 38.1375
10.3241 20.7307 41.0536
10.4686 21.9133 44.5095
9.45714 17.9118 37.7092
10.4182 20.517 40.2304
9.5223 18.5932 38.2378
10.0826 20.1199 40.15
9.39708 19.0216 41.7881
10.9827 21.0047 40.8869
10.44 21.2429 40.9406
9.36786 19.3674 40.366
9.45472 19.4531 41.0076
10.0319 19.5157 38.0677
8.9153 18.4335 39.7764
9.32737 18.6798 38.4784
9.13493 18.9002 40.1662
9.93226 20.6237 43.4825
10.3193 20.9511 41.7391
8.38261 16.7358 35.922
9.19919 18.9678 38.8118
9.21857 20.0208 42.7976
9.50009 18.8085 38.7852
9.33346 19.1416 39.8735
8.87214 18.3018 39.2388
9.44232 19.509 41.723
9.55536 19.1909 38.1087
8.00991 17.5255 40.0717
9.52153 19.4567 41.3845
9.50874 19.0148 39.9351
9.15691 19.409 40.8768
8.83706 18.1057 38.4227
8.47601 18.5013 40.4469
8.80426 18.2823 40.3357
9.53109 20.2622 43.8214
9.12662 18.0969 36.7554
8.56867 18.9649 42.11
9.06224 19.0155 40.4796
9.34542 19.5042 40.7667
8.42209 18.3438 39.3671
8.30931 19.0254 44.0089
9.2883 18.7566 39.9566
8.7318 17.9683 39.1479
9.22741 20.9513 45.6504
8.48032 18.516 43.2685
8.89128 19.0878 50.9933
15.0685 30.7919 53.5993
8.77661 20.102 44.8616
8.48214 17.8159 39.7056
8.28449 18.1852 39.4661
8.09857 18.316 42.5835
8.69117 18.8386 39.7846
7.81913 17.9445 42.2707
8.91304 19.8104 42.9318
8.06154 18.0262 41.8611
8.27234 17.4591 39.6793
8.26177 17.9382 40.271
8.50561 19.1673 43.6584
8.20071 17.6875 39.3214
7.66644 16.7332 38.8762
8.61765 18.8762 41.0788
8.10043 18.2987 40.9999
7.86402 17.1268 39.1533
7.70038 17.634 42.2144
8.33518 17.7584 39.7943
8.41428 18.9785 43.6793
8.62866 18.9188 41.2387
7.65254 16.6746 39.0087
7.87481 18.4573 43.0406
7.98709 16.4399 38.2448
8.61794 20.1431 44.2993
7.7294 17.5083 41.8657
7.8069 17.3622 40.8409
7.83798 17.257 39.2228
8.13538 19.0741 42.3802
7.84095 18.0464 43.4512
8.47062 19.2114 45.0677
8.34804 18.9225 41.9227
7.56925 18.0586 42.0819
7.21844 16.0997 39.2102
7.71925 17.4644 42.1219
7.88654 17.902 41.8738
7.77485 17.4233 38.8118
7.48752 18.0308 41.7841
6.7088 16.2915 41.9074
7.75275 17.4303 39.8914
6.80593 16.1422 41.1353
7.52374 16.6266 38.6872
7.09911 16.5899 39.8377
7.23841 17.1292 41.9212
7.7928 18.4723 44.0741
7.85085 17.3511 39.9264
6.89362 17.0639 42.4681
7.74694 17.9853 43.1301
7.37166 17.7907 44.3553
7.42639 17.2028 42.3254
7.86165 18.4357 43.6418
7.59546 17.6253 41.5947
7.27293 17.0245 41.596
7.19065 16.7989 40.8222
7.03338 16.4971 40.0491
7.02338 17.1514 42.2678
7.28513 17.7955 44.6346
7.52051 16.6054 39.7309
7.1452 17.1448 41.3477
7.12107 17.4203 41.1909
6.59083 15.6819 39.1347
6.75345 15.5961 37.855
