# pn-170911/RbIIR-54-KOKB-1280-1959.psd
# Power spectrum* (dif=0,1,2) (really just |FT|^2)
# NOTE: only the first half! (symmetric)
# weeks: 1280-1959
# 7 clock-days, 0 excluded
# PSD: 1441
564.063 0.10797 0.0537529
17177.3 0.157303 0.0176824
162889 3.44489 0.0190349
7578.53 0.184253 0.0175428
40578.9 2.50421 0.0185901
3830.73 0.327155 0.017372
5208.53 1.06386 0.0190707
1916.89 0.472891 0.0191649
4006.69 1.21027 0.0162756
1539.06 0.637912 0.0165542
3198.94 1.22317 0.0168019
1117.07 0.514011 0.0204574
568.281 0.355199 0.0187041
2266.35 1.8735 0.0232619
1358.56 1.03248 0.0233025
482.505 0.627798 0.0221898
742.408 0.792822 0.0212334
692.417 1.02784 0.0144875
1487.32 2.43535 0.0289769
658.292 0.877936 0.0187561
496.183 0.888944 0.0171934
1464.46 2.85796 0.0300405
779.999 1.86274 0.0202846
467.938 1.02769 0.0168428
844.304 2.4103 0.0331213
770.717 1.78337 0.0195891
916.151 3.05425 0.0364845
1003.57 3.56957 0.0476204
784.861 2.72482 0.0379261
557.576 2.45811 0.0272192
624.969 2.4621 0.023821
453.616 1.90535 0.0377015
545.783 2.91251 0.0357455
650.385 3.3247 0.0365715
198.139 1.01029 0.0194071
797.686 4.31029 0.0211963
520.49 3.41669 0.0305827
1473.62 9.78256 0.103976
815.144 6.01735 0.0711132
643.485 4.41624 0.0559625
1343.72 10.2277 0.0874167
423.414 3.52633 0.0475799
667.22 5.78686 0.0715732
1117.58 9.39121 0.0620801
1124.98 10.8613 0.138715
762.906 7.53204 0.086505
738.787 8.02169 0.0880406
414.061 4.83475 0.0697781
972.488 9.61553 0.144584
530.732 6.01171 0.109257
1010.21 12.6452 0.180733
657.496 8.98434 0.113887
769.481 8.84584 0.14094
525.631 6.85908 0.11105
859.581 11.636 0.186361
849.617 12.0017 0.218011
784.084 11.9998 0.152923
541.789 7.82766 0.0945468
687.777 11.2648 0.233455
1133.45 18.1602 0.282978
707.267 12.7086 0.244139
395.248 6.10893 0.118886
739.512 14.4357 0.282602
735.308 14.449 0.295128
982.321 19.4763 0.418836
398.929 8.13267 0.185613
647.819 13.8679 0.343968
110.048 2.41159 0.0607331
465.043 9.65244 0.205441
1177.07 25.4247 0.60259
662.271 16.3124 0.508614
530.387 11.8501 0.273617
226.375 6.09041 0.178773
375.412 10.4839 0.28424
411.024 10.6718 0.282087
698.17 19.3876 0.600096
381.823 10.9156 0.284607
454.965 11.758 0.376868
534.239 17.2323 0.510153
740.234 22.8789 0.706563
410.202 11.6248 0.302233
228.186 6.92349 0.248857
598.907 16.1627 0.502964
898.504 26.9817 0.878627
1089.66 37.2473 1.20578
924.186 33.3165 1.34693
577.507 19.2965 0.570112
417.32 14.4968 0.57194
934.374 33.1311 1.06247
567.248 20.8233 0.855598
341.861 13.3699 0.602418
877.446 35.8227 1.4403
399.293 15.2997 0.659423
575.441 25.577 1.09274
424.366 16.2509 0.672469
762.438 32.8098 1.48087
529.167 22.9288 1.02227
404.208 17.49 0.744765
843.667 39.4489 1.904
764.337 38.089 1.80452
535.062 23.0353 0.927294
311.26 15.1401 0.821209
490.087 25.6604 1.46825
407.802 20.5904 1.07666
234.881 11.3337 0.529433
757.83 41.4295 2.34035
279.189 15.6663 0.793165
552.922 28.898 1.62642
311.146 16.692 0.996617
567.359 29.8865 1.66717
413.359 22.9138 1.35338
455.767 26.2893 1.35138
225.52 14.6693 0.948064
521.988 29.8685 1.78263
319.728 19.4938 1.2989
372.51 24.813 1.65314
232.517 14.6414 0.788321
306.495 19.2354 1.18685
420.64 27.0507 1.72853
245.545 16.0256 1.08536
567.321 37.9972 2.62488
258.993 18.0902 1.27171
298.301 20.8814 1.51163
812.693 57.3528 4.2084
462.188 34.8778 2.68766
627.093 51.7773 4.4047
536.176 36.7541 2.43624
237.519 16.0542 1.20532
556.83 43.3522 3.2797
492.088 37.2296 2.99569
272.556 23.1985 1.94956
137.102 10.6363 0.863369
165.836 14.799 1.30357
467.052 38.6368 3.39382
333.46 27.151 2.13179
389.88 32.6677 2.88814
432.869 36.4099 3.15565
296.714 26.044 2.43115
244.731 22.7334 2.08738
487.908 41.9319 3.48426
343.072 33.0767 3.27356
458.645 42.7361 3.87543
354.927 33.9107 3.20628
530.683 53.2488 5.30302
434.777 44.1119 4.30758
314.149 36.8832 4.0632
140.923 17.3832 2.15718
482.268 45.2839 4.37865
356.957 36.5534 4.06977
220.168 23.5717 2.6776
390.999 40.1907 4.09224
236 24.1258 2.63625
330.193 35.9855 3.91945
583.395 60.343 6.12673
222.948 24.9066 2.82009
252.04 29.2625 3.35219
212.258 23.9752 2.92681
246.607 27.9639 3.42876
359.862 45.3888 5.73391
320.747 34.6145 3.88011
297.266 34.9565 4.05856
214.574 25.8917 2.92196
137.697 16.5912 2.05831
197.853 27.0996 3.57056
113.224 13.7007 1.63726
314.792 43.1334 5.99539
242.618 26.1206 2.75542
331.727 44.4209 6.06011
199.153 27.2084 3.56731
195.857 25.9965 3.39322
180.456 24.6608 3.59434
361.278 51.7516 6.83523
96.3584 14.7287 2.46064
333.122 47.9613 7.15839
112.556 12.6415 1.53911
543.009 77.0051 10.788
365.15 58.1252 8.67101
158.607 23.7473 3.5885
328.995 46.609 6.3423
197.166 27.4691 3.98747
232.29 35.8535 5.5124
141.183 19.9377 2.86685
365.54 57.6523 9.07997
173.143 28.8761 4.92133
151.481 25.2542 3.96658
163.61 27.7706 5.02294
228.515 33.8328 5.1903
245.179 42.3908 7.35861
177.843 29.7035 4.76531
195.415 29.4053 4.47597
87.5164 17.2884 3.67433
330.896 55.898 9.46032
269.08 45.2003 7.68484
280.176 45.6337 7.16779
222.18 40.2084 7.28777
150.116 27.0319 4.38046
98.589 20.3973 3.95724
152.883 29.9825 6.07597
245.027 42.5803 7.59334
232.138 41.2153 6.911
146.78 31.1522 6.50594
129.946 26.3293 5.65075
233.855 42.4841 7.42914
226.554 42.5805 7.89854
128.518 23.1928 4.04942
197.501 41.2584 8.26435
154.271 30.692 5.72258
181.539 39.1593 8.39565
69.4266 16.186 3.85346
177.925 35.8563 7.14888
149.438 29.1856 5.74984
138.654 29.633 5.94778
194.138 40.9417 8.18343
143.204 31.727 6.66072
132.563 31.3513 7.27062
186.998 39.4989 8.47561
151.005 38.6143 10.0358
215.108 43.6944 8.8268
179.562 37.524 7.85714
75.7778 18.3032 4.24181
77.5024 18.9493 4.82999
138.12 30.8769 6.98322
250.601 55.3775 12.2412
141.646 30.5471 6.86791
115.857 27.4877 6.50614
187.208 49.8898 12.8152
89.4834 21.2077 5.15704
141.214 34.1214 8.56208
195.224 58.0898 17.5503
367.588 74.4057 14.297
91.8929 25.9599 6.85385
204.255 50.0875 11.8582
75.4126 19.3798 5.07017
37.4741 9.2988 2.68715
124.53 28.8261 6.79837
79.5727 21.9354 6.38071
167.523 42.0686 10.2608
88.6819 22.3683 6.35953
86.9479 21.8748 5.29953
111.663 31.5537 8.51923
68.0526 21.7855 6.56656
135.229 29.4495 6.47402
199.547 61.5984 18.5537
196.421 54.7084 15.9834
94.9497 22.3513 5.40885
213.504 57.6054 15.2885
186.463 56.0131 15.6061
110.047 29.9138 8.8071
180.06 51.0189 14.178
89.3379 27.4125 8.84132
81.2313 25.2342 8.66226
165.452 42.7755 10.844
102.883 33.9256 11.094
96.8607 26.5308 7.63797
99.2391 24.2196 5.56429
130.209 46.4705 14.8831
156.726 44.1039 12.8665
103.418 34.9649 11.9281
92.5746 28.876 9.42976
115.116 37.7117 12.912
160.985 45.0943 11.8546
101.34 36.488 12.9021
54.6689 18.1505 6.49435
140.648 38.2865 10.0864
62.4007 19.692 6.22017
74.9018 25.3487 8.38719
63.3439 19.9308 6.79013
194.408 64.588 21.1378
85.6477 25.577 8.00435
57.1814 17.791 5.87506
86.974 25.2197 7.45314
101.122 31.3966 8.70241
98.8586 39.3948 14.2443
47.8671 16.1734 5.66881
95.2455 38.0108 14.6458
77.7165 26.0662 9.16325
89.4442 28.3691 9.7251
120.939 43.9728 16.2597
95.1901 29.9614 9.31671
102.696 37.7262 13.3494
104.913 41.0067 16.4078
59.7459 18.8212 6.24092
88.5035 30.9674 10.4349
85.1499 32.4196 12.1408
33.8187 16.8993 8.79626
104.572 36.8788 13.6999
97.9906 33.9725 12.5415
120.152 40.2002 13.2654
217.713 82.2041 28.8467
105.444 39.5439 14.0661
65.9342 29.7637 12.8504
54.8946 20.705 7.77942
85.2116 31.8989 12.2787
98.9857 44.1236 18.5718
80.1207 31.7687 13.0335
94.3506 32.8988 11.5556
94.029 40.5057 16.5354
48.2282 19.4511 8.32234
59.064 27.187 12.4127
91.0177 35.5764 13.5265
92.679 40.171 16.7164
56.4489 24.3235 11.2266
82.37 32.9634 12.7601
48.0926 19.1149 7.96903
85.3125 38.0004 16.1617
107.214 51.3172 24.5969
115.513 38.892 12.5426
47.7665 22.2651 10.4407
67.2296 31.4728 15.0607
74.3348 29.3143 11.1648
62.312 27.3575 11.6542
77.6431 38.9894 18.3666
48.6664 19.3217 8.33951
75.1133 35.3514 15.8756
37.9534 19.8671 9.81871
34.2236 11.6755 4.62398
70.4366 32.8048 15.3153
75.4767 36.0813 17.7698
95.4085 39.9554 15.9986
69.1673 35.5254 17.8827
81.3546 40.6678 21.2743
95.6234 43.279 20.7664
86.5068 36.8478 15.9614
78.5171 34.4046 14.4372
28.2566 18.6629 12.0747
80.0427 36.724 16.7769
39.4011 18.6272 9.55365
74.378 38.4007 19.6861
59.0467 24.3091 9.52244
54.4865 28.1529 14.2721
60.8828 26.9115 11.4125
73.9775 41.272 21.4287
57.6317 27.0463 13.0785
71.9146 36.7254 17.1732
56.9706 29.8799 15.4048
43.9903 21.7095 10.567
64.2745 40.7611 24.8132
76.3581 32.4534 13.9606
34.4203 21.7329 13.2026
39.0373 17.7923 9.29516
64.5611 35.3127 19.7133
57.97 31.2284 16.951
72.6378 37.6961 19.3784
44.8851 18.2225 7.93134
56.06 29.8935 15.3764
43.6614 21.7726 11.3439
60.4974 37.4053 21.8801
54.7813 30.472 16.7413
37.869 20.6522 11.2345
26.7284 11.8177 6.34333
60.0981 35.6911 19.8903
53.5927 31.9846 18.1118
40.9759 19.0572 9.22925
82.6316 48.1332 26.557
66.3344 36.5829 20.2523
45.1968 34.2168 24.7353
82.5055 37.9869 17.1815
62.2385 36.6496 21.6121
30.4504 16.579 9.51867
45.6857 30.1292 19.7587
80.8776 39.329 17.8373
41.7913 25.3647 14.4554
41.1569 31.7539 22.6236
51.731 28.0603 15.5864
36.316 21.1312 13.1234
39.3125 21.0989 13.271
100.12 55.3572 28.4619
50.9689 30.599 17.3044
79.3398 58.1238 38.1866
44.3266 27.4873 18.0196
19.7228 8.22987 4.07224
39.2505 31.3727 22.8069
24.8925 11.233 6.15335
27.8993 19.3639 13.9742
35.267 20.1256 12.1002
33.3173 22.1851 14.549
17.6482 12.6627 10.9132
34.4377 21.6795 15.5373
68.883 45.7872 30.8768
51.8566 22.8593 8.99852
39.9411 28.9116 19.6375
31.35 18.4608 10.3127
16.3051 12.0816 9.30978
34.8183 25.3159 19.3445
63.0846 41.3232 27.7978
65.065 39.2496 21.7068
52.6897 34.3123 21.2427
27.9735 18.9932 12.3813
21.7538 17.2001 13.2435
31.4025 22.9284 16.4541
36.4355 21.5584 12.6315
31.757 23.9627 17.5678
38.6567 29.509 22.6458
35.893 20.2411 11.2785
21.9469 20.8796 19.2786
69.6964 48.8225 34.4767
25.6045 13.0782 8.08059
38.4619 25.5654 16.6684
36.4793 24.6844 16.2879
44.335 31.5792 20.0887
26.8323 22.3695 17.4791
32.5517 24.6101 18.1938
33.859 31.9872 29.6377
80.1285 55.1257 38.1851
29.855 16.2918 11.1157
66.474 46.727 29.9291
22.9886 22.2547 20.8722
32.0493 22.99 17.642
33.5094 23.4566 15.9482
27.0526 24.5113 21.3842
36.889 30.6737 26.1591
54.5055 36.0161 25.5366
39.6434 26.3577 16.9586
27.2788 23.5389 20.6056
26.3789 17.3571 12.619
20.8035 15.4854 13.1797
42.2859 28.9247 17.7255
16.6884 10.973 7.28907
19.0829 15.7208 12.9615
57.388 48.5838 36.8761
34.7103 28.0247 24.3891
56.8876 39.4022 23.8068
27.062 29.1343 27.9994
70.3593 59.1061 47.9253
36.6917 23.1045 16.4625
12.05 12.2095 14.3387
39.1282 25.8279 15.5134
15.8379 12.9668 11.1046
29.7248 24.1851 19.6368
30.3992 24.2343 19.8624
29.1887 19.8037 12.7381
30.93 27.4062 21.1977
24.1362 24.8987 22.545
18.92 16.2479 16.0096
34.7559 28.2776 22.3041
41.8969 42.443 39.5685
37.8548 22.874 13.6696
18.9965 22.8539 24.9724
26.0381 16.9551 12.4849
18.1082 16.3204 15.1666
12.5644 11.5219 12.5061
26.7358 20.4859 17.2369
44.2743 42.2364 38.466
38.9698 29.1224 22.1548
23.7566 19.3356 15.7439
33.6922 29.6522 25.5249
37.6624 37.1487 33.2294
22.7144 19.8964 19.9886
18.1082 11.3072 8.40365
23.6712 24.5123 25.0563
25.559 17.2851 14.2777
38.4483 33.4708 26.2515
18.5715 18.2419 18.732
35.8622 26.4628 16.7162
37.145 40.5166 37.6081
35.9926 41.7732 44.0171
29.2888 25.7126 26.9724
32.4243 22.9064 15.311
17.0987 19.2232 21.2073
28.3591 23.3538 22.6565
49.3899 40.2518 29.0382
20.0999 21.624 20.9201
23.8196 24.7004 26.0635
22.1145 17.0691 12.0277
13.1413 15.3736 17.0072
32.6472 34.5897 32.0909
32.3924 39.1907 45.9708
29.211 19.0922 17.5462
35.107 26.691 21.3254
43.5698 49.6007 56.0691
54.7931 36.3662 22.9319
55.3286 55.641 46.704
20.3956 22.2284 23.986
24.8133 25.7433 25.4349
10.0454 9.09438 9.67751
15.081 14.4816 14.4944
27.3241 26.665 21.6891
13.1662 19.0691 24.2459
27.0321 29.2889 32.7879
28.4356 22.9223 22.0662
40.4432 35.6648 28.4851
35.9208 36.8898 34.0654
30.8572 38.1761 43.1105
29.0056 26.6371 25.9027
22.4068 21.3074 20.5881
24.1076 27.0101 30.5256
38.8057 38.4163 35.1436
28.2018 28.5431 24.5548
13.9801 21.223 28.2894
17.1714 16.3725 17.7905
19.6278 22.1434 24.5356
23.9633 27.7743 31.5238
19.2576 21.1206 26.986
28.1651 22.7752 19.2537
10.8626 12.0789 16.9436
29.538 28.103 24.6705
19.1434 22.2267 26.9941
28.8244 26.4193 23.4959
19.2562 19.937 18.2402
6.25908 9.5302 15.7172
19.9595 18.893 18.0781
12.7495 11.8383 10.5156
12.4692 14.8278 16.0726
13.6099 21.7267 32.2856
30.0747 24.5688 19.9043
17.2659 18.767 20.2566
16.4061 15.8586 14.3345
17.9722 25.7963 34.6648
33.1494 35.4647 39.0525
31.043 31.1171 28.2698
18.0315 24.2669 31.1579
24.4279 22.7253 22.341
37.8293 47.2105 49.7111
16.5003 20.8392 27.7958
18.7503 16.815 16.8793
23.5171 29.538 33.4668
18.4338 21.2217 23.8462
28.5884 40.8021 50.7696
6.48366 5.2814 10.1407
11.5528 15.4778 24.8428
23.1231 19.6332 16.3148
18.3314 23.0255 24.5699
21.194 32.6825 45.8218
21.6124 16.7359 15.077
18.5545 19.8868 22.2621
26.5625 31.1214 30.4709
6.3469 13.7175 27.3392
31.5573 31.9808 30.6193
19.7969 29.183 39.8366
30.7406 36.5487 40.8223
11.1639 8.87679 10.3757
20.0553 28.0324 36.2627
22.2951 25.0815 26.75
5.59363 8.90388 16.7766
11.3564 10.8046 14.5926
23.9988 28.7676 33.3457
20.3679 24.4813 27.4407
9.46053 12.536 19.6416
17.952 19.3534 20.0843
11.6968 14.1885 19.7031
29.2139 41.0471 53.5713
23.2034 26.8522 33.1654
14 13.3088 17.0571
24.565 28.8882 32.1736
18.7039 19.9037 17.5424
16.2928 29.409 42.6747
9.66212 12.1688 22.5385
25.3318 27.9551 26.8884
11.5242 19.8009 32.9516
27.9947 32.3344 35.1015
8.62057 12.3696 19.7394
12.1035 14.3701 18.2869
13.9957 20.554 28.9066
14.2975 24.0541 42.7504
25.0005 23.7911 25.3261
20.5343 26.2189 33.2344
29.2334 36.3948 41.7222
16.5929 20.7165 23.5845
13.1084 21.3844 32.5087
18.5841 26.4248 36.7886
14.8955 17.0114 19.3317
5.60783 9.91156 20.3115
16.6751 22.9423 34.8377
17.3011 16.9841 17.3924
18.6791 27.2413 34.3267
16.2253 27.3875 48.3936
31.2948 32.7042 33.3259
22.2728 27.1002 26.7731
14.5149 26.1319 38.4456
15.4937 20.5857 30.8849
41.2628 66.7091 96.6623
29.5612 27.1046 22.0085
17.2311 36.7549 63.0566
32.3588 39.9858 50.8875
19.0534 28.6124 42.0735
17.8748 24.32 40.0459
18.244 20.8587 26.1333
13.4204 17.3404 27.1818
20.4876 23.2521 21.7266
6.39687 9.70527 14.2422
11.3582 17.8935 26.426
18.5365 32.4534 52.4299
21.524 29.3221 45.0184
24.2189 28.744 32.7001
9.70772 12.9118 19.1729
19.0898 33.2314 52.4323
21.4583 25.8385 31.7813
13.8561 19.5025 29.0434
16.4412 26.3571 40.487
15.4828 21.5353 33.0509
22.651 35.9825 53.8146
11.3108 10.6143 16.4878
10.145 11.2063 17.2403
18.4396 24.6177 30.2696
13.0741 17.9274 20.5777
9.95677 23.5177 48.4706
18.3903 20.9806 29.4529
19.554 27.2952 35.7412
13.1006 19.7383 28.7101
19.1918 35.0916 59.7865
23.4451 30.8289 45.6015
15.0115 13.9478 17.5586
17.5491 25.2882 30.7972
14.9404 21.5803 27.6467
11.9485 23.2544 43.1579
20.3592 29.0988 43.1265
16.0001 20.8893 31.497
13.4746 15.4173 18.7163
16.6062 24.2249 26.5937
5.26629 9.70441 17.162
10.2319 17.2906 25.9052
4.34119 7.14637 18.608
22.4236 34.9151 41.1046
7.83681 18.4716 37.6041
12.2118 20.4254 38.2983
19.6227 34.5264 62.3878
21.7254 25.011 34.2931
18.1406 27.6964 43.1287
13.1829 14.8511 20.6818
14.3084 22.6202 33.5594
14.7216 18.8044 22.0408
7.52912 12.6921 21.7666
14.2338 22.3608 36.7139
19.9269 30.1431 37.2311
8.13315 15.7766 29.5401
10.3322 13.5828 19.7181
12.5882 24.0191 39.1074
10.2624 12.1891 16.4772
9.28067 15.6123 23.6839
8.02321 12.6724 20.815
8.92733 18.7905 40.798
21.6231 29.3395 38.3598
14.487 21.0442 29.1253
11.8901 19.7417 26.8149
9.0061 20.9466 41.2876
12.6385 20.6951 40.0329
22.1645 32.4721 39.8325
9.20049 18.4169 31.4077
8.03715 23.222 62.1548
22.8894 23.8158 26.597
9.5704 12.9102 19.3809
16.344 30.4142 41.497
5.90904 10.979 25.3166
14.7312 24.612 36.5756
13.7072 25.3487 40.2355
7.78755 11.9144 19.6181
4.46356 9.11652 23.3499
13.0217 24.4261 47.214
11.407 12.6814 25.3636
22.5964 35.9077 48.9719
11.9601 18.0541 29.16
14.1993 27.6228 47.9197
11.0663 13.0845 17.2119
10.0705 19.5236 34.1742
12.5118 22.3755 39.6267
12.6224 19.9977 30.4012
5.14039 10.6382 34.2878
23.1155 35.7982 48.3327
10.5405 16.6423 26.8494
13.2614 24.7487 42.3769
12.1978 19.6392 32.7566
10.0396 18.7624 44.4195
33.0441 60.8873 89.6018
13.0636 20.7547 37.9838
17.1225 31.7217 51.5079
10.9676 22.2654 46.7172
13.9606 20.5713 30.7094
14.849 30.9901 52.2009
11.0008 21.2577 45.8903
14.4847 21.6945 27.6909
3.61303 9.56791 25.0742
6.44954 9.47483 19.1825
7.40546 10.3357 16.4572
7.20574 13.1878 17.9598
4.03379 11.589 29.993
11.0702 21.1833 42.5706
13.3514 20.967 33.7074
13.316 26.2257 42.8919
6.04383 8.81901 16.3097
7.43817 15.4056 30.8387
10.4855 19.7341 34.5784
7.29405 14.3668 28.1065
11.0775 26.4666 53.1824
6.68464 8.67133 25.1069
11.392 16.6634 23.1557
4.93553 11.444 31.8739
11.8335 19.8454 36.9692
14.5358 24.125 32.0601
9.0587 26.6654 67.2789
15.6493 19.9938 29.1668
6.01146 11.8129 30.8096
11.078 12.5593 12.0713
7.80762 21.6624 54.4878
24.4969 45.8038 73.9744
15.0583 30.0535 59.1578
16.9644 27.1371 37.6165
5.94938 9.77803 15.9791
10.4667 28.4743 58.0225
8.62774 13.7718 26.6328
6.2198 12.845 30.2549
10.8737 23.8016 57.9442
18.4888 25.5319 28.1706
7.52224 18.9533 38.9966
13.0812 27.3503 45.0869
5.04385 13.5842 39.9355
11.54 19.0462 34.3065
6.51729 12.734 33.2364
14.6213 32.0992 73.6934
19.8767 32.1428 56.9413
16.5678 29.9154 47.5585
10.2769 22.3587 49.3797
13.5329 23.0256 38.9847
10.9062 21.4441 32.3076
2.88343 6.46643 20.0624
8.27917 19.0999 43.0394
10.9207 20.729 34.4789
5.55716 11.7007 33.8635
15.3192 31.4301 59.8445
12.5779 21.061 34.3919
7.61177 19.2337 44.4626
8.95265 16.0542 37.7121
13.6109 24.9857 40.3016
7.11712 12.8762 24.5506
5.50171 8.70189 15.4266
5.5333 9.78456 14.2589
4.99059 13.0223 29.6072
8.8472 18.3852 30.6416
6.78152 16.7397 34.1367
8.54913 25.1357 58.0472
6.1683 9.80598 27.3303
7.87459 13.3382 25.8758
6.33254 12.5844 30.4514
11.8764 24.1631 42.0798
12.7566 32.7752 67.8809
7.7294 15.729 41.5108
7.25271 9.92507 21.3477
8.84656 18.8888 39.2414
12.009 25.5958 45.7933
7.6145 18.8215 46.1317
6.94359 9.97657 23.0217
7.18835 12.5344 22.5778
5.39757 13.2495 33.0929
8.59434 15.1419 27.4938
7.57313 16.9751 27.5128
2.74825 8.10144 33.3352
12.6484 26.3971 48.2459
10.6355 26.3505 62.9808
9.39776 12.1166 19.6302
6.79471 17.2072 38.7907
6.92143 12.1756 27.3761
5.60154 8.07069 12.5666
4.54739 14.0638 40.7473
14.3215 32.6059 69.9908
10.7397 15.1561 21.8921
3.45195 9.40919 32.0862
9.89297 14.5122 21.4501
7.99724 19.9816 39.6938
6.7547 13.6843 31.1382
6.38018 12.6019 31.4622
13.3813 31.5675 63.7359
11.0427 20.1516 38.1819
9.06921 18.9136 27.4401
3.665 13.5008 37.7546
6.28762 14.6482 42.6414
12.0644 24.587 44.18
6.72882 15.4342 32.6099
5.29948 12.4802 31.1721
7.25359 21.3284 72.3677
17.9112 26.4478 30.7474
6.69468 17.9484 33.0935
3.4899 8.86124 23.4002
6.51116 18.1616 42.5923
6.01102 13.8523 39.118
8.44409 15.7678 29.4928
5.82903 13.4854 37.9848
12.3779 30.5657 58.1112
10.3504 28.6944 69.1052
6.97553 8.73071 19.499
4.96328 10.3632 28.1459
9.64703 22.2332 38.7351
5.05439 13.026 31.2277
4.87284 10.6817 29.2046
7.56175 16.868 33.8682
4.46883 11.3452 36.6096
8.75289 20.5914 50.1686
8.71471 14.2696 29.096
9.4517 23.5643 41.0534
6.69105 23.5651 65.1752
6.62145 9.67749 29.899
7.02095 12.6188 22.6846
4.52685 9.81418 21.6436
7.0369 24.9404 68.2632
8.06715 14.6402 43.7386
9.60149 16.4708 33.2064
8.42991 20.7053 48.0115
8.21192 17.5454 37.6878
7.85084 19.2515 46.0466
6.70557 17.5739 54.8747
10.2965 16.8789 29.5754
5.36287 11.675 29.2229
7.47365 21.1343 54.9389
8.3696 16.2975 44.0156
8.09371 14.6711 46.5528
17.9944 38.5756 53.3517
6.80177 24.1736 70.605
12.8687 30.7833 70.5289
12.845 32.8482 78.7255
10.5623 20.182 47.3474
6.72299 10.3278 24.9418
10.0716 28.9391 66.394
8.30304 14.8233 37.6096
10.3221 27.6589 66.0191
8.65319 11.9463 22.3402
9.78821 24.6775 36.201
3.37144 13.4411 39.3416
7.15258 21.0296 56.1262
6.74834 13.478 33.5107
5.9275 12.8188 38.4847
8.7802 19.1116 40.2639
9.6024 27.1607 59.5643
7.95919 17.2884 35.4971
7.72127 27.4685 80.6956
10.631 15.39 25.2285
4.22001 11.4569 36.2556
11.3238 30.9744 63.211
6.74932 11.1074 20.2907
6.84175 30.726 102.913
16.3309 28.9413 48.7067
6.111 12.7518 21.0154
4.75476 18.5515 53.9526
