# pn-170911/RbIIR-53-WTZR-1280-1959.psd
# Power spectrum* (dif=0,1,2) (really just |FT|^2)
# NOTE: only the first half! (symmetric)
# weeks: 1280-1959
# 14 clock-days, 5 excluded
# PSD: 1441
2800.94 0.0701852 0.0467806
27582.3 0.596071 0.0979582
178612 2.98726 0.131457
19825 0.817123 0.154089
49763.5 4.06471 0.113545
7437.87 0.592574 0.111957
5989.07 0.773235 0.115327
2682.88 0.476504 0.119012
2745.21 0.518639 0.13821
1977.39 0.532803 0.121261
2098.56 0.715402 0.0985826
1162.36 0.465223 0.142361
979.365 0.720359 0.12034
1628.23 0.954206 0.13405
584.48 0.469598 0.129205
722.075 0.384829 0.144086
840.155 0.857218 0.138444
1274.93 1.28161 0.140023
975.879 1.53846 0.0882915
962.444 1.22394 0.122533
860.036 1.28946 0.128892
565.1 1.03557 0.120103
595.263 1.17552 0.13235
675.032 1.73415 0.141441
885.873 2.36169 0.14392
589.395 2.29718 0.170682
1074.11 3.26538 0.0782264
770.839 2.4911 0.0912582
1191.48 4.35643 0.154776
836.97 2.94146 0.121665
442.513 1.78542 0.135144
1420.54 6.66016 0.124758
799.663 4.11109 0.123817
830.085 3.9317 0.205938
692.884 3.42743 0.141672
714.427 3.93391 0.134322
657.848 3.73761 0.188024
897.209 4.7697 0.121493
870.346 5.69096 0.218463
985.233 6.83255 0.239112
780.681 6.60921 0.169987
870.711 7.48071 0.25523
605.572 5.37156 0.188699
1083.39 8.80496 0.183643
1026.45 9.74776 0.189486
791.044 6.91184 0.136006
678.095 7.34769 0.184701
1135.47 11.705 0.242515
781.89 7.84596 0.17927
569.652 7.378 0.209329
992.381 11.2775 0.295499
568.696 7.46082 0.294743
746.176 8.97214 0.256631
810.468 10.1042 0.142525
749.401 10.8817 0.415433
579.099 7.9314 0.242689
367.811 6.03542 0.145283
445.972 7.57177 0.316413
508.409 7.56069 0.333487
897.031 14.572 0.313986
1096.86 18.2073 0.431161
1016.65 16.9354 0.398553
667.524 12.6487 0.483101
579.337 10.6828 0.254158
590.644 11.5906 0.364235
686.862 12.7904 0.280623
367.47 7.96805 0.321796
705.787 15.643 0.485503
419.075 9.3215 0.327294
794.949 17.2962 0.40576
708.647 16.345 0.502251
669.155 16.42 0.521558
594.888 15.0524 0.567899
497.158 12.9009 0.455759
561.207 15.2014 0.499151
410.958 10.6373 0.403634
706.075 19.1339 0.573447
755.85 21.5483 0.583556
779.596 22.5354 0.713382
408.396 13.2968 0.451625
620.147 19.1391 0.702687
443.962 13.8112 0.577825
495.564 14.4243 0.628471
408.906 12.5972 0.468321
256.019 8.28926 0.436808
236.501 8.54575 0.417173
405.034 13.0373 0.460792
501.211 17.8613 0.970073
564.952 18.9977 0.671382
300.618 11.2821 0.528237
280.325 10.5124 0.500934
422.964 18.8431 0.874199
704.992 25.8288 1.14657
495.483 20.2471 0.805225
425.679 17.1023 0.762798
379.174 15.2327 0.71162
500.784 23.5799 1.14727
343.794 14.8477 0.525055
450.443 19.8572 1.17236
392.112 19.9029 1.19142
395.252 18.2602 0.870447
471.063 21.0652 1.09806
318.862 15.9058 1.08201
228.554 10.8366 0.643128
335.574 18.0534 1.00378
268.25 14.3322 0.779813
398.109 22.1557 1.47309
387.55 18.8654 0.87855
303.664 17.6459 1.03315
292.99 16.8037 0.849669
351.221 18.5608 1.0385
403.432 22.3837 1.51294
322.115 17.5557 1.26627
196.253 11.2646 0.728613
147.709 9.22933 0.511187
211.075 14.3536 1.14359
289.484 18.1986 1.34348
280.116 17.4333 1.21735
265.572 17.3197 1.23968
174.026 11.8038 0.806014
222.656 14.6908 1.12278
128.704 9.23297 0.609847
166.737 12.386 0.979996
266.175 17.4743 1.49589
178.903 12.8029 1.09725
260.282 18.4461 1.32938
278.03 20.8659 1.75365
219.192 17.9231 1.53666
251.451 18.9001 1.7568
173.124 13.0558 1.20879
217.54 18.6954 1.54037
248.814 17.9181 1.65292
130.569 9.61394 1.12889
295.563 24.2707 2.42966
279.215 23.3123 2.02483
222.521 19.0419 1.63386
160.329 14.5476 1.25975
192.307 16.8803 1.77241
87.4875 8.05728 0.750499
187.545 17.4921 1.82261
116.252 10.5632 1.12012
177.749 17.0867 2.05637
207.089 20.5311 2.42205
198.515 18.1275 1.94277
206.058 21.0524 1.8615
245.032 24.1786 2.76148
171.44 16.5874 2.11744
119.698 11.8773 1.37631
209.016 22.3017 2.53965
208.763 21.2443 2.17883
110.996 11.2918 1.05343
111.35 11.379 1.45871
214.663 21.7277 2.35317
148.556 17.9715 2.33034
187.508 20.485 2.6054
166.1 17.5421 2.01124
135.392 15.1649 1.88255
90.463 12.4837 1.74704
159.339 18.7986 2.17954
136.124 16.2712 2.23304
220.644 24.9083 2.94961
177.119 21.3056 2.66094
191.948 24.1634 2.82515
185.279 26.2235 3.86992
233.535 28.6591 3.79777
172.062 19.8593 2.45739
113.916 16.239 2.20126
185.126 23.3225 2.84427
129.085 16.5548 2.1484
123.479 17.2035 2.53474
114.102 14.6484 2.34219
150.881 20.6444 2.70291
80.9534 9.89974 1.3119
79.4773 9.52254 1.15731
205.914 30.9575 4.18912
172.301 24.8512 3.74531
113.219 17.3553 2.62968
103.906 14.9899 2.31
170.356 24.9447 3.84012
70.0939 9.63976 1.70779
164.523 23.4876 3.67622
103.836 14.8394 2.31162
138.536 22.2755 3.78309
107.043 17.2756 2.8214
89.7486 15.682 2.28658
169.371 25.881 3.37
153.188 25.6273 4.56178
88.3276 14.1747 2.62783
115.81 19.9373 3.6413
118.107 19.4527 3.35404
133.006 19.3824 3.25971
84.0838 15.5676 2.97739
112.442 18.6935 3.0681
90.4548 15.9726 2.9558
101.723 19.6309 2.98538
86.2612 15.6079 2.70752
150.843 24.4755 3.91526
84.0636 17.3545 3.66953
110.807 18.922 3.31834
93.5895 17.1163 3.26499
138.114 26.9541 5.08737
88.9598 15.8662 3.12364
106.789 22.8695 4.65326
83.4692 15.3178 2.63836
97.2158 20.8624 3.99567
100.155 20.7971 4.56067
123.449 22.5005 4.34329
113.877 21.4208 4.1017
94.1466 22.0868 4.78165
165.699 34.885 6.98272
101.682 17.8062 3.10677
108.755 21.8455 4.73208
139.385 25.1082 4.4384
166.551 34.0223 7.31728
109.636 23.8736 5.36833
132.585 29.2098 6.08765
150 28.4249 5.21877
169.633 36.142 8.6996
127.699 27.9026 6.13892
91.1933 19.7714 4.12157
108.951 23.6947 5.82365
73.7517 15.7431 3.2365
105.627 22.7517 4.81751
93.9877 23.161 5.93345
93.3406 21.2105 5.10862
79.0495 19.3701 5.53608
126.393 26.6963 5.69298
117.509 25.8572 6.11665
93.8045 23.8247 5.86992
110.053 26.8934 6.58168
114.433 27.766 7.43592
122.518 29.4271 7.67461
137.955 35.5862 8.62844
61.8763 17.1834 4.66246
121.361 28.0536 6.52109
94.6911 24.4805 6.68399
69.3161 16.5716 3.66061
74.3975 21.2962 5.35047
157.001 43.041 11.7511
78.6437 20.4839 5.12269
96.8394 25.7294 7.01214
74.2876 18.3775 4.40252
57.7723 17.7464 5.0503
82.2841 23.8112 6.42874
93.7238 23.8101 6.86699
107.975 31.6093 8.81644
110.295 28.1977 7.54458
93.252 27.162 7.23586
74.7096 21.6894 6.15036
67.7344 21.7355 6.45012
60.4141 17.675 5.1849
76.738 23.1684 6.79049
62.4453 19.464 7.01512
97.0839 27.5892 7.52257
74.1346 19.5503 5.62488
82.1327 27.8984 9.33159
71.7137 22.3461 7.1073
117.687 38.3444 13.0257
70.3615 18.7697 4.80425
75.0209 25.4739 8.4355
86.4527 25.0056 8.02325
95.1252 27.1688 8.39231
63.0103 21.1102 7.76688
159.96 48.0798 13.1357
69.7114 23.098 7.9531
93.7557 34.1576 10.7887
94.0985 32.1349 10.3965
67.7174 23.6821 8.07008
69.0179 23.3545 8.5329
75.9531 25.9024 9.90994
131.35 36.931 10.8899
72.632 26.0946 8.67545
51.4395 17.1299 5.87801
81.6979 24.7286 8.04972
96.5856 33.5151 11.0693
44.6296 15.6583 5.92821
66.4612 22.9787 7.72554
84.3913 29.8558 10.8773
58.0294 20.3173 7.87417
64.3018 22.2368 7.92476
92.3006 30.6334 10.5652
67.4492 23.7336 8.93499
89.0243 31.0837 9.64049
68.2854 27.3945 11.0441
75.2478 28.0685 11.5521
62.3196 23.9424 8.92826
92.3832 36.5369 14.8371
53.7831 18.496 7.20699
120.45 43.9315 15.0263
74.5444 31.1885 12.2548
43.8957 21.1004 9.57941
81.9679 29.6195 10.5606
41.2359 13.2932 5.52558
78.8192 28.208 9.68788
55.6047 23.0885 9.53526
65.9264 28.6035 13.1853
30.1315 12.8387 6.82754
68.2123 25.4067 9.80221
96.8968 39.6194 15.8212
48.9058 18.155 7.4753
46.0846 18.63 6.82893
64.7623 27.5695 12.166
72.9091 30.3694 12.6318
42.0629 17.6816 7.16083
59.806 25.2612 10.6251
58.4438 26.0078 12.1827
60.3561 23.3479 9.41207
58.5544 22.193 8.56624
61.7542 25.4467 10.2505
49.2683 22.3239 10.064
49.4332 21.029 9.25175
83.424 38.9575 17.3587
70.1512 31.2667 13.266
65.1445 30.1969 14.8935
59.417 25.2677 11.0429
63.1097 33.1964 16.7579
68.9142 29.4956 12.3051
80.5836 35.6633 15.2981
62.5923 27.7096 13.6438
46.4323 24.4064 13.3006
57.1374 25.8824 13.1075
52.0762 23.2092 10.5924
54.8047 25.7495 12.2982
64.8326 30.5334 13.2109
51.9422 30.4175 15.8162
49.6227 22.6429 10.7247
67.4174 30.7266 14.0493
30.8713 16.7404 9.02023
64.306 35.2979 18.8871
70.8453 28.8824 12.784
65.025 30.0382 14.0837
70.3374 34.5679 16.9009
37.8875 15.4208 6.22243
40.8373 21.4779 11.2655
73.6067 38.1419 19.353
58.0174 25.4527 12.5012
78.8529 39.0908 17.981
37.6293 19.4652 10.4927
72.9721 37.6656 19.0601
44.8871 23.8188 12.8934
52.7882 27.9119 15.3356
59.4673 29.1292 14.5003
63.0764 35.2304 18.8246
87.6808 42.1426 20.7665
56.5601 28.8656 15.5182
61.4238 34.6671 19.369
49.9877 24.0288 10.6975
53.3136 31.6688 18.5053
55.7499 29.9795 15.0466
43.6514 25.4983 16.2942
44.8895 24.4143 13.8597
83.2436 43.4189 23.5034
34.8683 19.3891 11.4846
43.8097 27.8283 17.7722
32.696 17.919 9.5504
55.8502 34.7419 19.8389
52.6606 26.6843 14.235
50.3334 30.6957 19.1672
39.5851 19.753 10.9235
44.6404 27.8714 16.8536
27.2082 16.7456 11.8212
52.6482 29.9387 17.8
40.138 24.0694 14.3594
50.2324 29.3655 16.7782
48.3127 28.5942 17.6384
71.9526 44.0484 25.485
56.6567 28.7582 16.0424
50.1229 35.0465 24.306
62.1818 35.7448 19.3468
52.7474 33.6458 20.7087
44.7175 27.6596 18.445
44.6447 25.6458 14.4083
45.9632 33.4591 23.5784
53.9057 30.2666 18.2578
36.8368 23.007 13.8887
44.8426 28.6092 17.5541
29.7486 20.1542 14.6571
54.6424 32.0839 19.3194
45.5865 25.1246 13.5191
46.3394 35.1518 25.4281
48.5725 31.4589 20.5471
46.8726 25.5187 16.4797
63.1138 40.9709 27.4655
50.0403 29.5611 19.3902
50.407 31.3075 20.1005
68.7259 40.9054 23.522
53.1158 39.107 28.0889
39.8035 25.5284 19.0453
62.8473 40.7033 25.3595
59.5305 35.8609 20.7717
43.4436 32.4042 24.5354
51.4623 40.8769 30.443
58.8523 38.1614 24.1053
40.2316 31.3142 25.5546
39.895 20.4093 10.7591
33.0959 24.1489 17.4
26.6722 15.9578 10.1267
30.5944 19.7926 13.476
30.29 22.3124 17.3542
47.0348 33.0395 23.627
56.5216 40.4685 29.3472
66.7464 45.2061 30.3428
52.8517 39.9005 29.5013
28.3082 17.998 14.064
39.8084 28.3776 20.0842
39.3699 25.8869 17.1227
36.284 28.884 20.5788
34.2687 27.0111 22.7928
38.0189 27.2486 20.1382
38.042 29.0782 21.0404
38.0879 28.614 20.4618
33.2709 28.8448 24.9342
36.3309 27.1251 20.7823
26.7978 23.2514 21.273
44.2163 32.3898 25.3477
44.4527 31.8958 23.5546
39.4509 22.2498 14.6896
67.0902 51.3059 33.4984
25.4502 20.1276 18.2136
21.1152 14.7075 10.8497
24.2115 20.4797 16.4351
16.0995 13.6508 13.5448
43.7778 30.3028 20.5965
24.1348 22.7218 20.3628
26.3793 22.0247 18.0561
44.7352 34.9962 28.2288
29.9071 24.5562 20.4199
29.3557 18.8037 14.2097
31.1814 25.8203 21.674
17.084 14.7628 12.9805
15.6974 13.589 14.3389
26.1135 15.8476 11.0536
46.7106 34.6742 27.07
32.4503 27.1652 22.4364
42.7948 32.9605 24.026
26.042 23.3024 21.0511
42.8124 36.2988 30.4644
24.0198 22.9929 20.794
20.008 17.1429 17.7765
23.6026 19.0725 14.8738
31.9011 25.7231 20.1963
33.5987 28.5887 25.2447
28.9381 22.11 16.2024
35.5131 34.5281 29.0597
21.7803 20.7453 19.768
39.7852 30.843 22.6396
20.3471 21.8822 22.5017
33.5127 28.6025 29.5514
44.1516 33.5988 24.7449
32.7409 33.5562 34.6049
42.3456 35.7215 30.1396
30.2159 27.4028 26.2471
29.317 24.8272 24.3549
34.9347 22.3716 16.6165
32.2471 27.7923 22.6819
21.7848 19.7509 17.6883
27.2495 26.1506 24.0338
25.8449 23.53 19.9285
27.0552 26.4391 25.9941
21.435 16.4197 13.3198
24.9871 24.8333 23.4909
32.2709 36.3117 37.8561
30.2807 24.712 21.8066
23.8974 18.8301 15.0267
26.5709 26.9063 26.2129
18.7375 19.6844 20.8821
34.1854 30.6946 27.7282
23.3786 20.1391 18.5705
22.304 21.9223 21.8639
22.6986 21.7061 23.3872
49.759 42.747 35.7286
30.9926 32.261 30.795
19.1027 18.2708 19.3685
32.2533 29.4023 24.0084
26.3284 30.6988 32.6792
29.7484 28.4026 27.4332
36.5388 36.184 36.3766
33.1866 24.2504 21.7863
28.0058 27.8275 28.0971
30.4972 28.2837 26.4522
41.1591 46.6564 49.3003
34.4792 30.4737 27.6584
23.6034 22.5793 25.4785
31.7531 26.4322 18.8873
31.5832 37.7784 39.7372
28.5798 30.1962 32.4948
30.5093 27.9772 25.6776
19.0487 20.1427 21.9397
31.9842 30.3214 27.8758
25.568 25.3829 25.2498
33.6098 39.2837 38.9467
22.8443 20.3677 18.7723
21.7665 28.3479 34.5372
32.1942 29.9426 29.1503
27.4142 29.081 31.7755
25.3558 25.3617 24.524
36.1226 44.431 47.6502
32.465 33.7534 40.4342
26.8525 22.6635 22.8785
34.7487 36.5699 34.6983
33.5885 41.5133 46.4472
25.3502 22.7575 22.1699
33.0083 44.4379 53.8065
37.5643 33.3909 32.195
25.244 25.307 24.9524
22.774 24.5744 27.2808
31.6009 34.3237 33.3121
39.3062 46.2418 48.1853
29.2995 34.8275 37.4213
27.8612 36.0526 45.256
28.9558 29.9569 32.2942
20.8277 23.9728 30.1543
29.3099 31.9822 33.7259
23.988 31.4587 40.2367
28.8893 33.4062 40.5286
28.2536 32.6233 36.9801
20.1827 22.0614 27.6704
24.5846 28.8019 34.9424
28.7166 27.8922 32.8124
44.1102 52.0944 52.6773
22.885 25.8658 31.3836
18.4724 21.3002 27.3639
27.8854 31.6499 37.7845
32.6346 38.5877 44.3866
30.0528 31.776 35.5158
19.9156 23.5699 28.5774
20.4311 26.0201 29.9281
25.1229 27.8554 30.1823
23.8726 32.2075 41.4045
26.4343 30.7672 34.2861
24.8324 35.7105 47.5139
18.6205 15.9373 18.7515
20.3512 22.0551 26.2492
24.7559 28.422 30.0012
14.0879 25.3599 40.7197
26.8309 31.1071 37.4717
27.0577 27.2502 25.5729
12.8215 16.4526 22.6021
25.0624 28.9028 32.7834
19.2167 21.4209 21.4671
23.9821 39.0676 53.1114
22.07 28.7849 43.3409
26.9007 24.9316 26.787
17.5403 20.6764 28.9579
18.6369 18.7922 23.1432
15.5038 19.2786 27.7565
24.4543 27.7469 34.4208
29.761 35.4881 37.9023
20.3017 23.9381 29.7367
17.8118 21.4238 27.863
23.9729 29.4223 38.9578
27.1376 31.8371 40.4778
32.92 38.3785 42.2956
24.7374 33.6374 36.7888
14.6513 25.7028 43.9224
21.6375 28.0051 42.7711
24.3635 25.6407 28.4022
23.1134 33.1979 44.4883
30.8815 36.3862 41.9435
15.4424 15.7115 22.036
20.4634 20.0506 20.9507
28.5179 45.3137 60.8035
20.0673 23.3357 36.8688
31.4121 36.4794 40.2897
18.4261 27.9831 41.5424
28.6763 35.5453 40.654
15.6074 20.5638 25.5884
10.9939 18.0722 29.7428
17.1029 21.7724 26.8328
13.9376 20.1968 32.7766
17.3282 26.354 33.4469
20.1897 28.874 42.4147
25.8375 35.1111 51.2304
31.1768 39.2959 45.6474
20.6916 35.8136 57.6282
28.0566 38.0694 59.662
44.7667 48.4216 50.9393
19.5671 32.7361 47.406
16.178 25.3029 41.0849
24.1295 34.3572 51.5559
19.3451 22.6516 36.0485
23.0608 29.0166 38.4259
18.2264 23.2442 34.5215
20.8621 23.688 25.1032
11.7673 15.3813 21.191
20.1957 28.9887 35.6253
18.5707 29.7756 44.7489
15.2797 24.5748 38.4197
15.9443 24.0689 40.2921
20.1926 27.528 38.8523
18.8935 21.4009 24.8075
13.9002 19.3282 28.1965
22.8063 35.6717 56.7794
22.7733 29.3472 38.0709
15.5149 22.4421 36.3542
14.9164 16.6937 20.0303
16.2802 25.5098 34.991
13.1081 21.8853 41.3772
31.8344 38.0577 48.4389
18.895 27.4086 41.2111
23.5457 33.1769 43.1696
19.1291 33.2284 54.1303
23.1564 29.9255 45.7179
23.6027 32.8249 40.7664
20.0088 37.0424 58.962
18.0932 20.8238 27.8866
16.7818 24.5471 39.6065
14.7243 20.4126 33.69
17.5613 24.9628 35.8396
17.5823 31.9139 51.697
16.8854 26.5926 50.0301
21.7076 26.2427 33.33
22.2488 35.5129 55.792
17.1293 22.2724 35.1059
25.0831 39.5223 54.7614
14.3149 20.3125 32.5672
22.4288 40.2494 67.1393
17.5596 23.4573 42.3935
24.8137 32.2961 41.578
15.9753 24.6715 36.8772
20.3684 34.1327 48.3246
12.2903 21.617 39.504
11.4675 16.1069 31.4564
22.1435 34.672 42.6323
11.3172 28.5767 56.4332
14.9708 19.9165 34.3368
19.2318 33.8263 58.5275
23.8605 32.955 45.6934
18.0028 32.474 56.3415
16.8448 23.8567 40.64
18.3478 22.5568 32.0595
20.1212 35.7541 54.233
11.8599 18.9047 29.4851
10.6084 20.8553 48.546
19.2811 24.2636 31.2274
14.2042 26.5492 44.2384
14.4121 24.1185 40.1226
11.9861 22.0432 45.6995
23.3556 31.4619 43.654
20.6581 34.7949 51.5543
13.1688 17.6333 23.489
9.07029 16.9472 28.7352
17.1747 31.4647 51.7046
16.5037 32.1883 55.1373
15.7813 26.1378 46.9103
14.5598 24.9764 52.43
19.3535 23.3028 30.0083
11.8983 22.2959 41.6482
11.1248 17.8463 36.1887
19.5753 25.1957 36.2302
13.3407 20.4779 37.8089
17.1513 27.5165 42.7724
17.8098 29.4678 42.2075
15.3809 30.0701 49.8214
15.8015 29.484 53.4004
14.5203 23.2034 42.0339
20.5528 30.033 40.5463
20.1225 51.5046 97.5921
11.0425 10.9964 23.9627
10.4045 14.3252 30.5827
15.5176 23.2169 33.8511
12.3888 26.7212 47.726
11.2988 17.6259 32.8432
12.3258 20.8016 40.9631
19.1561 30.1081 45.8942
12.5481 18.6302 30.2307
15.2815 29.7034 48.8734
10.8286 22.8327 51.9702
17.9584 22.0157 31.2834
17.0264 38.0735 69.9291
15.7367 26.1 51.164
12.3591 20.4568 47.7539
15.9798 19.0876 29.2462
21.6938 42.8604 70.6223
15.1477 24.0408 44.4038
12.5306 18.5152 22.4188
9.85575 26.6205 64.278
18.8374 25.5048 39.079
10.841 22.5616 48.4408
14.7895 23.4455 36.6915
10.94 19.1876 41.924
15.0889 23.1202 40.6767
19.6171 33.9118 51.0169
13.6143 23.0375 38.8531
10.8834 23.7075 45.7186
12.099 20.3245 42.2731
15.1233 33.4148 59.6359
12.734 23.6351 50.7427
20.0797 34.8558 61.2616
18.0378 30.0688 54.1236
14.1209 21.2663 36.2819
17.9044 34.6464 65.3405
13.0828 25.7744 52.4098
19.1633 30.5292 52.1964
13.2534 19.0211 36.345
10.1122 19.5139 36.3486
13.3286 24.7971 41.0029
11.9517 23.2086 50.2423
11.5234 18.2016 29.8715
14.0903 26.7824 39.736
11.8221 29.3762 58.2767
11.4145 21.6695 35.211
5.24135 11.1058 27.9851
7.53761 15.9344 44.3067
14.2152 23.9851 47.2064
14.5276 25.7224 51.1037
12.8367 23.0743 41.201
9.98074 20.3053 51.016
18.3153 35.5886 58.9887
13.9703 30.522 61.2302
9.92046 15.8901 33.6021
11.3478 19.5862 34.6224
13.8191 29.149 52.6367
7.04866 14.3167 42.2251
13.0394 19.8899 30.2971
10.597 26.5015 61.777
13.696 23.4304 43.6748
9.34707 24.1324 64.9942
17.2334 18.6116 33.8953
17.6251 33.2258 61.3287
12.9869 16.3503 29.2605
16.1358 35.9559 69.2329
11.7568 26.3192 73.9444
25.2462 36.8465 54.9025
21.5145 44.2378 76.3451
11.6201 19.4051 37.1646
7.33537 15.4754 41.6968
15.604 27.1415 53.4716
18.0199 39.9301 79.9802
15.3431 22.8361 39.1361
11.5735 22.131 44.164
11.2592 18.4466 30.7534
8.72783 21.5043 45.0903
11.1888 16.3342 29.2481
8.92509 20.6438 42.8256
10.3847 21.9131 47.7611
8.02179 19.3106 51.106
14.3704 28.6395 53.0604
11.3041 25.173 51.1266
11.456 22.5175 56.2957
19.6133 38.2316 71.8134
13.4524 27.5426 66.6155
12.392 20.9867 32.1194
6.003 14.934 37.3066
10.7105 22.851 48.9936
12.2224 23.1228 41.2604
8.12204 19.2218 43.6302
15.9154 34.5435 59.9828
8.07401 21.2603 59.1145
15.0534 26.0655 49.9555
13.7815 34.3902 65.1164
7.5952 15.6501 39.7434
7.2334 12.1428 24.4709
7.69073 22.9608 63.9905
12.8384 20.6685 30.2588
5.70036 19.8125 56.3425
11.159 20.3818 47.3681
15.1059 25.3809 50.9539
14.0039 30.9928 62.8136
11.2144 22.9069 39.4787
9.66459 28.4154 79.2323
16.0073 26.1802 44.7612
7.68467 16.5175 36.386
9.77251 25.9117 65.0904
10.0614 18.6547 48.2595
12.1037 22.8037 41.2255
10.2151 23.2675 47.777
9.18398 21.5653 47.8799
10.6901 26.5093 62.6385
10.593 18.7992 36.9306
7.23815 17.3144 40.9327
10.4464 23.2146 38.3216
8.42932 30.2923 88.2369
16.5497 36.3763 80.2989
13.1905 29.444 71.1157
10.9168 19.4237 51.0742
13.2779 22.5295 45.8861
9.59916 21.318 52.15
11.6982 20.605 38.1014
8.67738 18.9056 42.1686
10.3101 21.9525 53.4458
14.208 31.5961 61.0231
7.73865 20.2967 56.7155
8.16789 13.3104 23.9604
8.76803 28.4564 77.7606
14.8708 25.6246 49.5503
10.0359 23.3944 53.7538
7.87262 16.3672 36.4116
9.16674 26.8827 62.1847
7.51073 13.407 43.5082
14.1006 35.055 85.7664
14.7738 21.9731 32.5507
5.29661 11.577 29.9075
9.26861 24.7102 68.7656
14.3698 26.3718 42.9216
8.20881 20.2725 38.4816
7.45886 24.7167 71.2747
13.5911 23.0379 40.4273
5.28138 12.0622 34.5553
5.48064 7.82459 23.3415
8.99339 22.3341 53.9445
8.25288 12.9746 24.1633
8.7101 25.7248 58.9807
8.57483 19.0811 50.0313
10.5876 19.9582 43.9548
10.7051 25.5186 41.9216
7.32966 30.7384 91.6342
13.4558 29.7905 67.9753
9.75753 26.7558 67.7698
7.14587 15.9453 60.069
13.486 26.5267 68.1533
10.9252 24.7361 59.2764
9.18555 15.5254 49.2715
15.3516 31.4824 59.1241
8.79497 20.9929 44.2954
10.8669 27.5253 53.0788
7.02163 16.9942 36.3069
4.26806 12.1205 37.9828
7.43533 15.025 37.24
8.50534 16.7544 38.3912
8.85411 19.4368 39.8283
5.33736 14.4194 40.2724
6.34876 17.1601 48.0654
10.6011 21.1684 48.1161
9.11371 22.3172 52.2626
9.6799 28.1629 83.698
12.0689 19.8902 43.9947
10.3002 23.0716 46.9941
10.0673 24.8889 54.6637
7.56134 19.1885 54.0473
9.13214 21.3049 55.3907
