# pn-170911/RbIIR-52-KOKB-1280-1959.psd
# Power spectrum* (dif=0,1,2) (really just |FT|^2)
# NOTE: only the first half! (symmetric)
# weeks: 1280-1959
# 3 clock-days, 0 excluded
# PSD: 1441
60.031 0.116773 0.0105967
35224.2 0.560721 0.0171108
49992.6 0.52895 0.0169139
12331.9 0.285222 0.0170363
43143.7 2.30415 0.0181287
6870.65 0.703684 0.0158075
5802.8 0.773807 0.0155086
2164.64 0.480456 0.0178799
9135.15 3.36489 0.015237
625.179 0.254362 0.017296
1359.52 0.415527 0.0147853
1448.92 0.511013 0.0200584
1422.27 1.09601 0.0172502
999.874 0.509492 0.0185353
1069.89 1.1105 0.0203735
669.264 1.0863 0.0223974
957.145 1.35006 0.024212
633.847 0.656849 0.0142458
60.4897 0.239867 0.0150619
884.697 1.35363 0.0143296
281.438 0.384894 0.0132441
655.72 1.07761 0.025817
186.617 0.369219 0.0182212
549.336 1.13335 0.0186698
229.147 0.372267 0.0195423
147.675 0.255179 0.0199827
498.926 1.77407 0.0349429
377.248 1.76163 0.0339437
186.911 0.726928 0.0235665
310.26 1.44341 0.0200759
230.675 0.868137 0.0089242
690.052 2.69054 0.0313815
421.802 2.70714 0.0454699
191.467 0.962268 0.0303384
189.678 1.64089 0.0158969
1306.52 6.48882 0.0839234
180.884 0.969028 0.0286679
535.976 3.4637 0.00914306
67.9581 0.478079 0.0245309
213.242 1.84406 0.0240357
148.095 0.781639 0.031687
95.0432 0.850788 0.0304673
93.7947 0.561507 0.0138017
354.187 2.73562 0.0544596
375.736 3.59452 0.0261383
154.511 1.05113 0.043834
123.551 1.40983 0.00986514
214.427 1.94251 0.053374
173.489 1.41546 0.0310789
221.002 2.6083 0.0783965
49.9981 0.243906 0.0216238
152.991 1.18927 0.0166735
151.602 1.79112 0.0476374
80.7458 0.887931 0.0356805
231.316 3.30901 0.0473722
283.002 4.512 0.0691195
242.92 4.02698 0.116165
39.4095 0.837692 0.0345651
229.725 4.0502 0.0403837
87.6763 1.82478 0.051298
302.125 5.20574 0.140574
52.2621 0.538869 0.0441672
45.0067 1.33231 0.0594046
87.4798 1.51439 0.0190083
151.38 2.04351 0.0648483
161.913 3.08445 0.0511003
444.258 7.84488 0.193147
163.667 2.89458 0.0720914
109.472 3.28531 0.0855556
114.693 2.34152 0.101739
115.447 2.43877 0.100704
222.975 5.0974 0.115472
231.327 5.26018 0.110841
142.086 4.22846 0.159442
37.4913 1.14525 0.0644535
194.272 5.05593 0.114599
387.101 8.74487 0.245522
101.675 2.87958 0.0682627
345.425 9.74445 0.327977
120.52 4.57585 0.2028
248.01 7.77771 0.198823
226.006 7.36549 0.205324
166.164 5.44184 0.246717
154.138 6.24457 0.225283
179.741 4.88889 0.109514
161.232 5.88925 0.131694
60.5164 1.60728 0.101893
135.824 6.09319 0.263909
260.009 7.82162 0.307661
146.623 5.78738 0.258843
29.0022 1.6428 0.0950763
49.6354 1.4714 0.0611301
261.583 9.46302 0.304928
143.653 6.39868 0.205618
178.225 7.56379 0.369829
74.3726 3.72881 0.229061
468.897 21.3598 1.07458
175.882 7.79702 0.48292
43.2407 1.99143 0.131417
147.399 7.28533 0.369388
116.808 5.45472 0.321149
211.457 10.8337 0.453839
41.4228 2.06285 0.115418
266.484 12.3911 0.628335
139.479 7.4681 0.500487
101.201 5.79912 0.399036
17.0932 0.970662 0.0537873
155.192 9.55466 0.585799
66.4814 4.18502 0.264435
100.084 5.84775 0.292558
227.076 13.6835 0.984879
24.8766 2.43672 0.169917
49.5865 2.05222 0.0848979
228.216 14.8008 0.879671
65.8479 3.19845 0.24064
72.8735 4.00237 0.284569
102.557 8.35321 0.613404
122.827 7.03574 0.505299
108.354 6.7248 0.493561
86.489 4.63159 0.392352
72.8463 5.18106 0.527105
138.217 9.07672 0.562438
113.79 7.94331 0.668023
183.346 13.2539 0.910718
211.425 15.6298 1.26743
112.996 10.6334 1.05574
92.2024 5.28493 0.31181
60.1381 5.48828 0.542151
55.4622 5.58389 0.666453
101.499 7.15457 0.502001
92.2443 5.74505 0.409456
181.383 13.4999 1.12796
130.368 10.3469 0.846677
85.0771 6.62274 0.380383
127.071 12.4517 1.16351
55.0229 6.16935 0.553223
71.6264 7.64721 0.886348
208.881 14.7918 1.04815
104.563 7.24573 0.579134
215.798 17.4021 1.65311
73.7322 7.28952 0.731925
81.3034 8.38162 0.758622
165.724 14.1806 1.08479
260.569 24.6648 2.4929
39.0578 3.90947 0.32956
25.4337 2.34673 0.218525
190.509 18.8281 1.99031
140.032 14.2995 1.42536
20.4498 3.13499 0.513802
46.1958 4.31475 0.456312
202.27 18.751 1.57945
178.86 17.3029 1.82479
80.9581 8.94492 1.11099
198.755 20.1101 2.11294
68.561 5.89488 0.684932
59.9423 6.04647 0.665668
47.7312 4.4306 0.512143
130.744 16.0592 2.04126
65.8694 7.6444 0.757483
152.617 16.6119 2.18013
80.396 9.91655 1.28657
94.2156 13.0324 1.6398
43.4501 7.90017 1.21547
43.4834 5.20106 0.738251
107.768 11.8379 1.36798
144.98 16.1074 2.00518
47.5278 5.36455 0.717839
37.8336 4.72365 0.738427
114.133 14.7288 1.97248
40.2309 5.08544 0.903951
169.053 24.9161 3.59146
102.792 12.1217 1.73065
17.3217 2.66886 0.45793
129.47 20.9976 3.15938
64.2471 7.01483 0.722736
25.1399 3.67695 0.618703
116.989 17.5808 2.69586
171.359 23.4952 3.41498
66.0108 9.5405 1.64556
24.186 4.44946 0.773543
81.5377 11.2894 1.49676
165 26.557 4.43013
159.822 25.464 4.02973
31.4467 4.31114 0.895809
139.382 21.1007 3.80391
137.197 24.8849 4.64331
43.602 4.69963 0.476192
53.1694 9.242 1.69611
107.019 16.2467 2.69045
50.8121 9.76598 1.55153
39.2199 5.4254 0.745609
58.3447 10.7792 2.08256
46.8867 9.73147 2.06096
140.019 25.8226 5.16986
66.1493 7.98127 0.811978
270.235 46.5515 8.61686
42.9971 7.6146 1.49429
29.2017 7.12346 1.8079
63.0138 11.8668 2.43344
62.2754 11.8972 2.28214
69.2503 11.8484 2.13241
102.426 19.3311 3.38343
119.932 26.839 5.74816
115.535 21.3003 3.50034
49.8166 11.2889 2.55556
65.8065 10.2506 1.43919
5.06662 0.848324 0.209571
81.674 15.7451 3.50147
110.179 22.5334 4.34402
80.9664 18.4989 4.22058
66.682 12.2471 2.03505
38.834 8.53973 1.91948
60.1443 14.0873 2.92353
90.437 19.4476 4.15967
46.4765 8.26834 1.40894
22.3456 7.79882 2.16326
87.0984 15.5189 3.12427
19.7326 4.16342 0.846845
27.0438 5.87534 1.26935
28.7983 7.79239 1.76143
78.291 16.9238 4.01557
87.3475 16.1309 3.32254
21.3496 5.35642 1.56734
134.351 32.2007 7.16177
68.0224 14.8863 4.01083
56.0371 11.719 2.44903
73.9343 20.907 6.2529
85.2561 16.6786 3.44444
99.8952 24.8259 5.1036
79.109 20.2398 5.31929
94.2019 25.3616 6.39921
82.8136 20.1793 5.06938
15.8613 5.57284 1.98939
80.8046 19.1681 4.15532
28.4154 6.9382 2.15232
114.551 26.001 6.22169
19.8089 7.40016 3.26512
157.121 34.4838 6.99573
78.7096 24.62 7.22967
36.3479 9.75102 3.00228
47.5814 9.93197 2.31264
21.6533 7.69152 3.17673
126.633 31.9383 7.7572
122.818 32.5488 7.77869
60.5829 21.4804 6.56418
68.3614 19.3531 5.0397
57.621 14.4178 4.09715
81.5562 20.6878 5.52117
38.8266 10.5346 2.74132
10.6078 3.8529 1.1841
59.1393 17.7997 5.39032
17.0098 7.38407 2.69046
58.9371 18.1416 5.60775
28.7614 7.87034 2.39506
44.5328 13.9171 4.52431
17.7943 6.13916 2.63868
82.0356 25.0395 6.80514
38.0835 11.7186 4.06875
98.7471 34.1908 10.9023
43.7025 14.3013 5.46741
44.4748 10.549 2.46877
29.7052 9.85135 3.49299
70.2517 22.0857 7.29202
29.9276 8.87106 2.67913
10.6507 4.32879 1.57515
22.4624 6.50619 1.98461
55.2224 18.277 6.36295
106.122 38.8331 12.4116
23.3223 9.52961 4.84458
129.135 39.4576 11.5067
53.0673 22.5111 9.44636
100.12 26.4564 6.61687
34.9701 12.5535 4.37784
24.9254 9.34139 3.5116
108.356 32.2746 10.472
69.1074 27.1897 10.2027
142.846 58.2671 24.1493
105.979 30.2672 8.55497
64.1152 22.8031 7.0097
48.6152 22.0879 9.80183
75.6673 20.6568 5.88577
49.4058 21.3441 9.92668
101.383 36.1277 12.5518
33.2645 14.685 8.10571
84.6902 23.2992 5.37917
110.669 43.9878 17.6321
38.054 11.8283 4.06986
51.9608 18.1764 6.70833
126.595 42.245 13.3949
61.3242 23.0413 8.4026
70.6567 27.0272 10.5198
19.5056 7.50276 3.5674
94.3068 43.9916 18.7968
75.2715 21.9487 6.84401
41.3449 15.378 6.08198
35.5488 13.5359 5.66711
49.9554 22.8173 10.8214
40.4658 15.4597 6.97091
50.345 19.2984 6.58557
26.0827 10.1328 4.23713
47.2946 15.0353 4.24397
51.7233 23.4276 9.7455
22.5385 7.97603 2.6281
39.2569 16.6999 6.22812
40.3205 21.9704 10.9309
84.9492 33.2258 13.8817
26.9756 9.94336 4.44058
30.7028 10.8339 3.40055
36.9872 13.0473 4.2934
49.6154 21.557 8.34706
16.116 8.34132 4.21254
71.9369 35.2809 17.3875
142.449 66.2075 29.8864
93.0586 40.2153 18.6828
22.0853 8.47316 3.95762
41.41 23.6214 14.0874
71.17 25.4646 7.78053
111.536 58.522 26.595
25.4505 9.85849 6.10891
54.699 22.3256 7.57445
12.3891 6.69227 3.18087
49.0284 23.9992 11.2278
29.4134 13.3771 6.71448
35.041 17.9731 9.81137
14.0777 3.96788 1.05598
37.7763 17.9862 8.01118
94.1159 42.2078 17.2286
46.7073 29.2394 16.513
51.8548 25.7536 11.7346
8.23473 4.52858 2.81092
71.1839 37.7508 18.7644
53.8968 23.1277 11.0928
27.216 11.4387 5.09068
33.9816 19.2338 11.533
19.5825 8.83244 4.76132
48.3926 24.3396 10.9446
53.7538 28.1736 15.097
21.935 9.29977 3.41438
23.9296 15.9279 9.47171
49.0099 25.9734 12.6046
12.3485 5.58962 3.5567
33.0643 17.439 8.75198
23.047 18.1181 13.2147
45.5128 19.0188 8.76437
44.7496 20.6024 10.0002
66.7649 34.6471 18.7815
39.5672 22.8054 12.4633
11.3454 8.70601 5.89363
13.9402 8.31607 5.75269
54.4194 31.2529 18.2578
23.1243 7.69778 3.62438
38.3063 16.3373 5.71407
19.2548 12.4362 8.1319
33.1528 16.2842 6.5681
34.6024 20.7022 10.4244
29.1074 22.0155 14.6291
27.0134 15.4677 10.1153
44.8981 26.6109 14.807
33.3327 21.6779 13.0066
20.2455 8.24368 3.95718
28.707 18.346 11.018
21.2838 11.3455 7.4265
31.4347 16.448 8.91444
56.467 33.6581 20.9584
19.7449 7.62005 2.52276
20.4432 13.3346 7.90806
5.27743 4.51925 4.36911
25.4889 13.9882 7.33662
13.535 9.13042 6.87484
27.2293 18.7152 11.5155
34.3273 23.2097 14.415
39.6756 28.5419 22.0687
62.7431 39.0619 26.3796
67.7776 34.7078 15.3882
30.3383 22.1811 14.2756
44.7133 29.336 19.492
34.3105 17.7719 10.0488
4.01076 5.70207 6.58873
49.1704 26.515 14.2445
37.216 25.2879 16.338
12.7469 7.29119 5.43939
16.0018 12.2878 9.77393
36.0008 19.8036 10.3266
20.3619 16.2888 13.0206
37.0853 22.1946 11.6673
6.54088 9.06387 9.02817
13.763 6.34431 3.46101
13.2015 9.30687 6.9051
49.2552 38.8164 28.1776
51.3558 35.1899 23.4246
42.7144 22.6778 12.6137
26.8699 23.9305 23.2794
42.0282 19.5547 7.46039
29.4452 19.6475 11.8417
29.5702 23.2676 18.5837
47.0714 29.2305 16.8604
21.3378 17.2582 12.8231
18.6961 13.5197 10.3289
23.1882 11.22 5.38449
10.1674 7.10426 5.78709
62.9916 45.6979 31.6961
27.3213 20.1558 13.0466
18.5526 19.0924 19.7566
35.9986 20.8524 12.7125
13.7568 8.29297 4.24102
23.8539 22.3245 20.3131
33.5809 22.4171 14.3827
26.249 20.0923 16.4959
8.26317 5.80113 5.96438
22.1013 13.3516 7.27008
18.7268 12.9507 5.90472
22.0897 24.8614 21.1318
22.2431 17.7454 15.7367
36.4343 21.9421 14.2263
28.4108 28.8233 25.6644
37.0646 26.6619 19.83
15.1854 5.03485 1.5416
23.433 13.7449 7.14926
22.8212 19.315 15.3233
44.1228 43.3991 42.9285
51.4134 30.4167 16.896
52.2831 39.8852 27.3024
8.85699 7.5347 6.53311
24.7479 25.7536 26.6619
31.2478 16.163 6.27835
48.4131 42.7367 31.492
21.1229 24.9918 28.5589
28.7132 14.8476 6.18023
16.5467 18.8994 19.0489
3.95317 3.59288 7.69576
20.3017 15.06 14.3054
75.6499 53.179 31.0274
12.937 13.3144 11.538
18.3919 20.5169 22.637
55.6114 43.6689 30.1528
13.9561 8.89719 5.8909
36.4057 32.1027 23.2074
25.6138 32.6325 31.8839
17.5626 19.1424 19.7447
4.76424 9.16594 17.652
26.2952 13.3477 9.18699
33.6217 32.703 36.2479
144.747 117.582 89.7549
49.8047 37.0967 25.0091
14.9054 10.0423 5.98135
18.4066 24.7195 29.1132
27.7239 20.2047 14.359
9.42935 5.34486 3.48367
7.73199 3.9668 3.5359
24.8022 23.0809 20.8599
69.5666 59.8959 48.5173
34.053 28.2675 20.3564
9.29793 12.5625 12.2328
16.568 16.473 15.3311
32.2639 33.8166 29.6398
6.20223 6.48487 8.09601
5.52108 9.35498 12.9214
5.72366 7.67475 14.6295
39.3191 28.3492 17.8192
6.30604 10.0096 11.8462
14.8385 11.6432 11.2498
18.2861 17.7585 14.8681
6.48851 9.5502 15.3098
42.3364 33.9872 24.7327
9.63491 9.64007 9.18199
17.9316 17.6778 14.5538
12.1145 13.2651 10.533
16.9422 28.3238 33.8362
16.3615 13.2942 16.7017
20.6616 16.6072 14.0113
19.9955 20.296 20.778
23.6607 19.8847 17.2563
18.1787 15.4821 12.0527
18.269 20.0551 22.4788
21.9694 21.8859 21.6038
28.449 25.4033 22.3531
16.2269 22.049 25.1689
11.8724 12.4807 16.2637
11.6411 8.79919 11.6236
30.901 28.0623 21.8961
25.0791 27.7068 27.0652
16.8843 16.9835 17.5468
30.4706 30.4695 29.777
41.1074 64.1398 93.0272
98.4306 79.1661 60.2584
31.0986 24.3679 22.414
29.313 22.054 15.0444
39.6967 46.6563 48.1518
5.25264 6.45524 10.8207
7.83634 4.43182 4.43905
28.9056 31.3041 32.3179
11.9655 9.7201 8.74126
15.0245 15.0404 16.0835
10.4855 9.29747 10.1294
26.0727 28.4993 31.2063
24.5526 26.8449 32.9664
46.3253 46.2017 40.9813
15.1217 12.4354 11.0634
16.8439 23.3845 29.1699
5.18109 2.47911 4.77549
19.4078 17.4573 14.0189
26.644 28.4315 22.7692
12.2457 30.3913 50.1773
33.4415 27.503 27.9919
15.846 10.898 6.05052
4.04905 6.12132 9.07174
11.5861 16.6083 22.6573
17.3152 14.2022 12.4966
17.4364 22.1138 33.5019
62.5989 64.6458 56.8394
12.5263 21.4073 30.9432
9.52129 6.98038 6.01802
10.7008 12.2384 12.8634
5.91931 14.1625 26.6704
24.5953 27.1373 30.3646
21.7786 24.0354 23.2464
15.3832 22.2184 28.5078
12.5848 15.4665 26.4145
14.4098 9.21151 9.63603
24.638 23.7684 21.4929
17.6342 18.2238 21.0526
45.1622 61.4194 69.8916
16.3752 12.4457 11.5281
8.7969 15.8828 25.4003
17.6132 12.7862 13.8556
28.2318 32.1193 30.9146
4.58928 9.20202 16.5339
13.4583 20.7732 38.6449
41.6962 32.132 19.0501
14.9194 18.2579 19.4092
23.1776 36.5687 51.7001
20.9399 20.0235 22.2923
19.6565 26.4215 35.8754
37.3995 47.8325 54.7168
24.5126 17.5596 10.5869
15.1557 23.8183 32.0399
17.8076 22.6559 24.2268
2.26241 3.09789 8.31316
13.8152 16.707 24.9287
34.5991 36.3582 35.6312
6.05844 9.10161 14.5671
8.89175 7.07476 3.88308
9.6201 12.7157 14.7129
11.7989 16.9994 20.0697
10.8514 19.0474 28.6523
12.1144 11.5442 12.1792
28.5004 44.3793 59.7923
10.6974 13.7513 22.6661
8.39706 11.3844 26.6096
27.8427 27.8003 24.753
8.8288 12.4785 24.4396
35.0927 38.4435 39.2811
29.3325 39.4692 45.4387
7.18683 13.4023 29.9575
34.4231 40.9089 43.5539
8.59423 9.32951 11.1268
4.91201 6.73161 9.8146
12.6877 20.6317 29.237
12.6096 29.3682 62.315
41.0672 36.9579 29.348
26.2233 37.4865 42.7926
15.6294 23.4414 31.1533
8.63298 10.8099 22.3141
23.9066 25.7315 21.6383
6.02755 15.1756 27.5747
17.4466 23.3558 34.0392
7.82402 7.06915 9.45595
11.9301 15.7648 18.9543
7.79764 11.8071 22.8764
23.5241 30.1878 30.8612
9.83591 15.4525 24.0128
12.3493 19.2606 34.9163
24.7932 30.3476 27.8264
1.9367 7.58901 17.858
12.5448 20.3071 36.926
21.4082 18.4899 18.9817
21.0747 36.9965 58.8924
19.2748 14.2288 8.35103
6.17351 5.65208 5.44857
24.7082 44.1734 63.3922
15.6144 17.0161 20.3301
12.0671 25.4668 42.0489
11.9615 8.48864 10.5212
11.6561 17.3202 24.9931
11.7582 10.447 7.30963
11.4817 24.3386 46.4955
30.1234 36.3199 36.2645
13.1115 25.6301 36.5617
4.55566 4.02495 6.96633
7.35977 10.999 14.2328
5.35186 6.28921 8.62991
8.68633 14.5317 20.8689
13.2472 19.127 26.9665
3.88679 7.03663 14.1595
10.0226 14.8667 19.0851
8.38378 19.3183 36.4275
11.6238 9.54784 5.64188
9.34512 25.2677 48.2025
15.4175 22.3377 41.3386
23.2232 28.1556 39.5207
15.4827 15.3926 15.0228
23.6471 44.8535 64.5412
6.92809 11.4173 26.4123
13.6874 19.5814 32.7777
6.14315 4.20206 8.7197
14.5654 28.7794 50.053
10.3781 7.94687 14.1606
22.4872 49.0914 98.5243
37.6764 28.949 14.2129
20.0271 29.1076 28.9456
20.4487 36.8361 45.9985
7.14302 13.0171 18.3404
5.05793 22.0074 62.4916
28.2793 31.1467 29.4542
17.6917 38.8884 68.781
19.3762 32.9799 55.4239
7.04123 10.3657 36.3891
27.2458 24.3419 15.3875
6.5094 12.0148 26.0693
19.9123 28.898 41.2028
18.054 23.69 22.5933
9.01706 20.1833 31.962
13.7305 24.7422 44.7095
22.7744 31.4244 38.801
11.307 29.4417 64.4537
19.8359 29.088 49.1713
17.9969 21.4651 24.2238
5.50469 4.77018 2.06916
3.79652 7.54779 12.1926
18.2271 39.5172 62.8379
6.00798 5.99623 15.1906
13.5519 17.8362 23.0014
6.19054 15.2776 29.3651
6.5386 13.521 36.3798
15.132 15.9418 27.0183
16.4493 21.6604 20.8633
4.79293 6.20627 11.7598
28.881 61.8057 93.603
7.99236 10.0932 21.0802
4.92798 7.98398 19.4357
9.91945 14.0572 20.6652
8.6942 15.5529 31.7863
8.24366 6.73774 9.07826
11.5343 17.5203 23.5468
8.11133 13.7709 23.5941
13.5638 23.4011 36.5447
5.73355 10.2995 25.9116
11.4801 25.4153 69.0454
32.6496 44.2035 51.798
19.4914 33.0782 46.6956
11.8398 21.8577 37.6334
17.1104 42.626 92.701
22.072 18.0864 12.4192
8.17817 15.055 21.2892
11.0447 19.7247 23.0691
3.7174 9.68545 19.3954
10.9952 22.8844 31.3309
2.15993 16.0956 55.0002
15.0815 16.0192 13.7847
3.09257 14.5071 40.8471
12.7979 23.0846 53.1025
23.393 38.1331 65.8176
22.4294 38.0271 73.9669
24.8797 35.3077 57.6753
24.2959 31.3088 28.1177
18.9536 38.6826 50.4961
7.92663 25.1413 58.7999
13.5191 19.9608 30.3717
6.03665 17.276 40.9376
9.44577 21.3548 49.7017
15.6679 25.4425 52.7241
10.2649 6.29607 7.40265
10.4903 19.5908 33.1154
9.42899 13.0143 18.3424
13.9152 30.072 60.0204
9.79876 12.5548 22.2503
11.3858 17.172 19.9323
9.23618 16.6746 22.5957
6.02513 16.2897 38.8762
14.5471 27.2389 42.347
8.44427 18.1755 40.4798
8.45845 8.93416 9.16079
15.2575 43.3015 97.672
21.527 29.1851 32.8043
8.44705 19.3529 33.4811
4.96721 4.81221 6.48598
2.02274 4.60678 9.21349
11.0565 35.1203 82.5036
19.4451 41.4729 91.9307
12.2253 4.80375 8.17117
15.7939 26.515 33.1606
8.57459 22.6443 45.0703
10.0475 17.3517 39.138
19.5817 30.4719 39.7209
16.3819 42.91 89.8018
12.321 21.8487 49.8418
12.594 19.0078 39.7889
15.4158 22.1545 28.8041
4.27263 7.5808 18.843
10.1865 20.3134 44.4975
15.652 23.6411 29.3298
4.86668 12.3352 36.0019
14.8732 22.4434 19.7226
8.03585 27.4749 60.9993
13.4307 26.6376 42.0462
3.65675 8.0536 29.7174
11.625 17.291 28.3061
14.5797 35.6381 68.0578
9.27203 16.0761 50.8448
22.3657 36.8373 46.1813
11.7853 25.1609 42.0363
4.097 7.51969 15.2319
1.77793 6.58046 25.8347
14.4233 27.9551 46.6452
10.8921 24.219 44.8156
4.54627 5.81817 17.2966
10.4593 21.5831 30.5525
4.6407 14.2621 37.4922
6.5695 7.0447 9.49056
4.30677 14.5349 40.5679
7.13027 10.3612 20.19
9.4255 20.5856 47.651
13.4093 20.5334 24.7558
7.92565 24.6851 53.8135
9.36381 12.7765 13.401
6.32365 15.7166 23.8964
5.47904 21.2643 51.3673
7.2028 12.3951 33.4447
10.0221 22.5232 53.2105
11.5517 14.6481 13.6816
7.17676 23.1669 46.7055
5.73045 9.31516 17.7946
4.06042 14.959 44.3547
8.35626 11.4055 18.1034
4.47152 7.52025 8.47183
1.83105 8.06132 17.6617
2.22094 7.44499 21.1062
4.24728 6.15651 8.20885
1.62467 9.4712 28.0359
3.8285 11.7824 44.4262
9.55951 12.1236 25.4502
4.57217 10.1477 48.2547
15.825 23.124 31.9829
5.80084 6.66067 29.3629
18.6184 28.3733 30.8823
13.5689 35.6162 63.3914
10.2571 20.2634 29.8412
8.49149 26.9083 54.2432
9.5654 22.1611 37.4487
1.66394 9.13495 44.3526
15.881 35.0137 59.4293
4.65704 6.65323 28.6226
18.8353 49.8331 93.0834
7.88319 10.5903 22.3328
4.79283 18.3496 55.4877
8.55901 11.5375 33.0278
6.8125 4.19248 10.9036
10.948 20.6479 30.1378
5.2701 10.374 22.9332
6.7669 14.2043 16.9395
4.0252 21.4165 70.5332
12.8733 21.1747 45.3733
9.19221 16.2067 23.601
3.38607 13.6216 41.5601
5.52131 6.97066 29.1161
11.575 19.2006 27.725
6.85167 11.9285 23.6992
7.43783 18.0987 38.9713
12.8824 26.9233 41.1745
2.0242 6.57872 19.0631
7.13572 27.6441 82.0849
14.8739 26.8719 55.8014
12.8242 30.0846 53.9747
3.20459 4.90706 20.2959
9.6559 24.2724 50.1256
1.86122 3.85451 31.9572
10.4063 20.9116 35.8894
7.78412 17.7306 39.2701
6.45726 10.6952 14.9545
1.54342 12.3072 62.1829
15.5951 18.1079 16.2189
4.82104 12.1051 18.6078
1.8363 7.04363 16.8013
1.48064 6.89626 42.9686
14.9668 22.6825 21.0523
15.3442 62.6211 164.816
19.5247 42.6005 101.691
9.79809 13.0735 39.9774
6.98314 7.09149 25.6465
10.8909 22.1146 67.7566
25.2673 49.1707 55.692
5.08069 18.8392 42.2437
2.44354 6.81198 19.6268
0.961333 7.95156 42.8025
6.20397 9.8277 31.4166
5.50498 10.1579 38.8092
14.1285 28.2654 55.9867
8.21995 12.4632 32.1187
17.3803 41.063 58.7585
3.79826 7.90191 18.7724
3.21223 11.9387 47.6196
10.3239 13.984 9.86402
5.18045 14.1974 24.2327
10.1944 34.5294 67.2874
2.08839 4.28021 19.8457
4.53749 11.9711 28.6349
7.12318 22.9414 57.9816
4.38939 15.301 62.5386
8.78727 9.15401 13.7777
2.59578 6.03021 29.579
9.66224 24.7165 48.498
5.10063 9.26595 25.9302
9.13383 26.9676 59.5455
8.96433 19.7993 41.9504
9.78185 23.2009 35.6473
0.617401 6.2738 33.0489
6.8236 12.1451 21.654
1.95836 10.1241 54.9918
12.5293 20.3138 27.8661
2.78465 6.99324 19.4311
1.67084 9.55022 65.024
11.8295 14.0446 28.7005
10.1365 17.0825 22.9638
8.98288 17.1901 9.30053
3.72717 14.9611 25.6968
4.80704 15.5658 26.6145
