# pn-170911/RbIIR-45-USN3-1280-1959.psd
# Power spectrum* (dif=0,1,2) (really just |FT|^2)
# NOTE: only the first half! (symmetric)
# weeks: 1280-1959
# 3359 clock-days, 229 excluded
# PSD: 1441
603.787 0.217142 0.0489025
23901 0.480533 0.0981437
111061 2.43326 0.0961313
18778.2 0.778701 0.0933117
61086 4.8219 0.0951311
7119.91 0.776724 0.0968321
9045.87 1.43932 0.0955663
3893.31 0.821862 0.0948652
11163.5 3.36453 0.0940947
2561.67 0.893912 0.096421
10220.4 4.90572 0.0933204
2040.78 1.09696 0.0953004
6384.66 4.36798 0.09697
1618.4 1.24491 0.093522
6160.62 5.74727 0.097277
1391.96 1.40672 0.0981692
4807.24 5.79152 0.0994109
1269.68 1.668 0.0943175
5367.78 8.22128 0.105814
1201.86 1.98995 0.0956403
4552.62 8.67843 0.11037
1171.42 2.40452 0.0977452
4479.16 10.3023 0.116957
1103.1 2.69879 0.10126
3732.59 10.2691 0.120601
1075.65 3.07656 0.103289
4080.37 13.1138 0.130935
1039.62 3.52361 0.105697
3496.66 13.0077 0.139278
1022.17 3.96652 0.111298
2872.39 12.2223 0.14407
986.85 4.41799 0.115051
2823.92 13.7635 0.157265
988.085 5.06766 0.118654
2789.95 15.2619 0.171101
989.512 5.63741 0.129602
2884.29 17.7947 0.194991
955.225 6.11776 0.130707
2266.6 15.6145 0.201298
953.29 6.74891 0.139957
2136.79 16.2835 0.216695
897.435 6.95687 0.15025
2154.35 18.0517 0.246996
916.618 7.91674 0.162625
2160.64 19.863 0.272081
862.272 8.16771 0.172537
2169.75 21.758 0.317598
860.207 8.89643 0.187519
1835.54 19.9706 0.304446
836.883 9.44052 0.204517
1847.51 21.9565 0.353028
811.432 9.81641 0.212332
1801.66 23.0944 0.391597
811.062 10.5949 0.232807
1651.32 22.8683 0.404802
783.677 11.0747 0.253769
1576.01 23.5526 0.44831
771.77 11.6771 0.274546
1533.45 24.553 0.483886
743.851 12.0276 0.284449
1426.21 24.4117 0.507393
752.53 12.9733 0.317576
1322.27 24.2376 0.528327
709.465 13.042 0.330103
1259.76 24.4125 0.56128
698.055 13.7369 0.363576
1256.11 25.9934 0.615149
674.99 14.1042 0.38456
1203.35 26.3841 0.662736
681.993 15.1147 0.428395
1128.19 26.317 0.692074
662.334 15.5787 0.449927
1067.07 26.2271 0.731053
629.748 15.6604 0.484793
1058.28 27.5042 0.800228
614.823 16.1655 0.524948
971.43 26.5847 0.816035
598.506 16.5552 0.539766
929.884 26.8514 0.862219
598.012 17.4388 0.604289
888.293 27.0258 0.900788
575.267 17.6712 0.639903
867.736 27.7695 0.98423
558.991 17.9298 0.660745
848.41 28.4952 1.03679
555.897 18.6336 0.728699
813.329 28.4484 1.08307
534.032 18.8632 0.750175
761.659 28.03 1.12382
527.583 19.4686 0.807675
741.09 28.4186 1.16271
515.366 19.8763 0.858469
692.28 27.8416 1.19235
480.553 19.403 0.869685
693.404 29.1528 1.30311
495.082 20.7619 0.962222
677.394 29.7506 1.37518
470.087 20.527 0.983301
636.563 29.0613 1.39511
457.833 20.7771 1.0314
629.024 29.8578 1.48533
443.067 21.1082 1.08139
592.246 29.1845 1.52554
448.075 22.1133 1.18378
565.538 29.0804 1.58343
425.033 21.8969 1.23573
549.307 29.4607 1.66653
426.331 22.6002 1.29589
536.049 29.5996 1.70908
417.699 23.0101 1.37791
518.419 29.7107 1.78453
392.677 22.39 1.37306
499.838 29.8362 1.86343
394.062 23.2826 1.47561
492.896 30.37 1.94974
380.006 23.2986 1.53157
478.919 30.5319 2.01892
358.444 22.7479 1.55857
453.032 29.8718 2.04524
358.416 23.7007 1.65599
450.438 30.8114 2.18466
358.158 24.3358 1.77372
434.836 30.737 2.22068
356.396 25.078 1.84586
418.209 30.6094 2.2709
323.587 23.4574 1.79465
421.152 31.8036 2.4724
333.886 24.9351 1.95267
386.724 30.049 2.39337
328.668 25.2957 2.05617
396.122 31.8685 2.61929
324.974 25.9105 2.15404
382.588 31.6647 2.66703
303.815 24.9307 2.14195
361.347 30.7001 2.67158
309.423 26.1285 2.30142
350.217 30.6044 2.72421
287.752 24.9741 2.28334
345.92 31.1947 2.88609
280.764 25.227 2.34373
345.347 32.1287 3.03128
279.848 25.7868 2.48421
324.832 31.0224 3.04486
273.581 25.8912 2.55663
324.078 31.6094 3.1465
264.336 25.9966 2.63807
309.877 31.2557 3.22314
266.323 26.5267 2.75119
301.651 31.3497 3.32213
262.987 27.0407 2.87858
293.662 31.2988 3.37064
254.533 26.9412 2.95469
283.359 31.1986 3.47902
253.3 27.4622 3.06637
279.009 31.4317 3.56309
246.737 27.5123 3.1453
279.652 32.3878 3.80885
239.769 27.3543 3.18937
267.676 31.6201 3.76266
242.329 28.4303 3.41152
263.714 31.8744 3.92165
239.698 28.7373 3.5341
258.016 31.9601 4.01509
228.909 28.317 3.56927
249.381 31.5891 4.05321
222.274 28.0642 3.61403
244.675 31.8813 4.20717
230.478 29.6212 3.88594
237.897 31.5058 4.22259
220.17 28.9935 3.9047
230.629 31.5418 4.37062
212.007 28.6473 3.93382
221.803 30.8833 4.39265
209.686 28.8895 4.04214
217.591 31.3031 4.52356
196.723 27.9558 4.05808
218.074 31.7473 4.68827
204.503 29.4749 4.31411
211.549 31.7278 4.81052
195.92 29.1649 4.41401
205.683 31.3617 4.81301
194.577 29.5588 4.55422
203.733 31.6822 4.98125
194.289 30.2111 4.78632
204.755 32.5668 5.21891
191.412 30.4573 4.91722
199.56 32.3776 5.27709
185.716 30.2943 4.9647
199.323 33.1895 5.5731
178.924 29.6696 4.99615
193.844 32.6551 5.5587
181.336 30.8556 5.32974
205.073 35.5154 6.15167
174.825 30.0091 5.24929
181.825 32.1966 5.75239
173.736 30.5247 5.41723
181.746 32.5132 5.86727
177.034 31.756 5.76173
169.698 31.3887 5.8368
164.986 30.2253 5.64152
167.206 31.2826 5.89405
163.819 30.5351 5.76653
174.099 33.3456 6.41006
160.674 30.575 5.89445
168.636 32.7594 6.44366
161.017 31.3015 6.15886
164.034 32.6351 6.55459
162.829 32.1281 6.45416
166.18 33.6856 6.92811
163.235 32.6256 6.60371
161.603 33.3398 6.90165
154.123 31.8525 6.67605
157.57 33.2453 7.0588
151.297 31.3506 6.5938
153.66 32.9537 7.13013
153.469 32.7024 7.02286
150.402 32.8812 7.21845
145.467 31.3768 6.86561
149.266 33.3263 7.48604
136.209 30.044 6.70232
146.606 33.4955 7.67136
146.537 32.9092 7.42996
142.244 32.8419 7.70181
145.612 33.1642 7.60613
143.513 33.5473 7.93437
138.77 32.4433 7.67182
145.188 34.2558 8.19428
139.099 32.8407 7.80289
137.354 33.5634 8.23283
136.672 32.9128 7.99287
134.319 33.0872 8.16085
133.473 32.9606 8.16406
133.646 33.6988 8.57267
131.482 32.8031 8.26948
131.754 33.6552 8.61774
129.612 32.7492 8.36307
129.821 33.6264 8.74879
127.545 33.0624 8.60177
129.35 34.2288 9.09297
129.458 34.0065 9.0039
128.866 34.4605 9.25652
120.593 32.337 8.7493
120.224 32.7246 8.95948
123.428 33.7425 9.31149
121.08 33.6179 9.35319
121.603 33.2363 9.22831
121.82 34.1192 9.6261
121.663 33.9555 9.60684
121.93 34.6395 9.93108
118.199 33.4168 9.55364
115.398 33.6476 9.80981
117.297 34.0214 9.8828
114.206 33.8557 10.083
114.843 33.9056 10.117
113.314 33.5519 10.0612
113.591 33.7803 10.1461
112.315 33.9693 10.3982
109.531 33.1787 10.1284
113.743 35.1528 10.8587
110.603 34.1274 10.6031
108.327 34.0004 10.7889
112.287 34.9195 10.8545
106.51 33.8051 10.8211
105.704 33.6681 10.8571
109.006 35.197 11.3696
104.156 33.7206 11.0267
106.252 34.727 11.441
106.528 34.6069 11.3738
106.21 35.3899 11.8054
101.698 33.6083 11.2668
102.005 34.2525 11.6477
104.199 34.6974 11.6704
102.659 34.7723 11.8696
101.522 34.7044 11.9711
101.549 34.9511 12.0918
101.429 35.2793 12.2901
98.0022 34.5451 12.2826
98.6218 34.5913 12.2907
98.5026 34.855 12.441
97.9987 34.6856 12.3517
98.3111 35.6211 12.92
96.7411 34.7873 12.695
96.6026 35.2995 13.0306
96.9415 35.2892 12.9891
97.8563 36.2886 13.5382
93.8088 34.7278 13.0749
94.516 35.4775 13.5021
92.5544 34.7695 13.2822
111.12 41.967 15.8135
94.5797 35.7918 13.7199
92.1368 35.6077 13.8472
91.0407 35.0976 13.6334
86.9199 33.9664 13.4569
91.3427 35.6966 14.0438
88.6789 35.2691 14.1829
89.3526 35.1903 13.8784
87.7436 35.4285 14.3776
88.3738 35.536 14.2175
86.0797 34.8829 14.2533
84.9617 34.5685 14.224
85.5809 35.5105 14.8581
84.24 34.3425 14.1938
83.8117 34.9101 14.6569
84.7546 35.4771 15.0049
84.4936 35.5742 15.0504
85.3827 35.9434 15.2379
81.5052 34.9971 15.069
83.2396 35.3983 15.1962
81.1685 35.2945 15.4494
83.9228 36.3318 15.8356
80.7159 35.5117 15.765
81.6352 35.867 15.9506
79.0031 34.8785 15.5673
79.3973 35.0426 15.5993
79.6384 35.5955 16.0769
78.2813 35.0951 15.8845
78.5237 35.886 16.438
76.4739 35.0551 16.2387
79.6171 36.5979 16.9313
79.2034 36.3654 16.7861
75.2618 35.3685 16.6315
76.9719 35.8309 16.9014
75.5648 35.8504 17.1859
75.432 35.616 16.9885
73.948 35.4345 17.0142
76.7363 36.3795 17.4481
75.3537 36.1038 17.5226
74.6871 36.0407 17.4159
74.2409 36.8069 18.2252
73.9928 36.1352 17.7697
72.1935 35.6503 17.8489
73.5519 36.274 18.0365
71.0593 35.5348 17.9132
71.0199 35.6351 18.1177
74.5384 37.3163 18.8805
71.9382 36.4823 18.5889
71.5295 36.7295 19.0353
71.3643 36.3236 18.5938
68.9126 35.715 18.6299
68.5524 35.9296 18.9586
67.6828 34.965 18.363
69.8433 36.8671 19.5398
68.3085 35.9334 19.1108
69.9014 36.928 19.5372
67.7415 36.3451 19.6319
67.0621 36.3426 19.6997
66.7118 35.8183 19.5146
68.7005 37.4308 20.4771
64.7318 35.4981 19.7033
66.4846 36.1221 19.806
65.1003 35.8421 20.0293
64.0667 35.3519 19.7306
64.5441 35.9517 20.1583
65.8898 37.0109 20.8536
64.4058 36.4984 20.9236
65.7727 37.1796 21.1427
64.5376 36.6979 21.0475
64.5834 36.8446 21.0395
62.2691 35.8218 20.8951
64.7289 37.4876 21.86
63.4821 36.8971 21.5916
61.1418 35.528 20.8622
61.435 35.9847 21.3777
59.1281 34.8329 20.6581
62.8792 37.3798 22.2667
59.8529 35.7357 21.5838
60.4732 35.9769 21.7194
59.9846 36.4754 22.3442
59.8716 36.3141 22.2715
60.568 36.5384 22.168
56.4974 34.7441 21.648
60.9851 37.6716 23.2122
58.4665 36.2484 22.7603
59.5809 37.037 23.1315
56.9064 35.6134 22.6684
59.4873 37.2237 23.5074
58.9057 37.2261 23.8289
59.0145 37.2918 23.754
56.1143 35.4178 22.8051
58.9131 37.4619 23.9423
57.3323 37.1773 24.2962
55.8355 36.1686 23.6796
56.2093 36.3519 23.7335
55.6074 36.8364 24.8909
73.4313 47.39 29.9887
56.5085 37.7379 25.3853
57.1947 38.2051 25.7884
55.5055 36.5026 24.3863
56.1345 37.7101 25.3112
54.6315 36.9917 25.0303
53.0313 35.7966 24.5551
53.7856 36.6457 25.32
56.1359 37.7658 25.5431
52.8814 36.5963 25.2858
52.0774 36.173 25.3585
52.4566 36.2881 25.2678
51.0612 35.3869 24.8634
51.0358 35.1927 24.6156
51.7636 36.5164 25.8922
51.8825 36.7535 26.2686
51.5415 36.4131 26.0238
51.9427 36.6808 25.9299
50.921 36.8329 26.5456
49.948 35.8475 26.1383
51.043 36.9555 26.9571
50.5409 36.4295 26.4745
48.5191 35.5533 26.2742
50.9207 37.3677 27.5351
49.1596 35.9197 26.5151
48.3415 36.1521 27.0717
48.1619 35.411 26.366
48.0794 35.9263 26.9646
46.9695 35.149 26.5788
48.1597 36.2494 27.4853
49.2949 37.2061 28.1884
46.1242 35.0869 26.9664
48.2755 36.6827 28.058
46.782 36.2794 28.4318
48.6211 36.9634 28.4604
47.8628 36.8123 28.2827
45.7306 35.6811 28.0913
46.44 36.4034 28.5968
46.615 36.9413 29.5832
47.2698 36.9995 29.2508
46.594 36.9575 29.569
46.0195 36.8843 29.8357
46.1335 36.4418 29.1446
45.4851 36.2812 29.0707
45.1712 36.4105 29.6133
44.9492 36.2785 29.5523
45.0232 36.419 29.5086
42.9041 34.6599 28.3348
43.6587 36.0589 29.9261
43.9242 36.2779 30.26
45.0022 36.9911 30.8053
45.0274 37.1545 31.0083
44.0598 36.2057 30.1246
44.6741 37.55 31.4913
42.5749 35.7264 30.4531
43.0859 37.1641 32.0868
43.1209 35.907 30.5413
42.3599 35.6502 30.3201
43.2325 36.9971 31.7734
41.4245 35.2382 30.3297
42.0786 36.3894 31.5171
41.3746 35.695 31.1194
41.6831 36.4061 32.0239
41.9088 36.238 31.6422
41.5455 36.2991 32.0029
40.6445 35.6675 31.6619
40.4234 35.4045 31.5235
40.91 36.3066 32.2413
41.2469 36.848 33.0927
41.2141 36.5641 32.7296
41.0376 36.9085 33.3003
40.6805 36.6712 33.1442
39.3917 35.2952 32.1091
39.9839 36.1175 33.116
39.8198 36.0543 33.0023
39.7365 36.487 33.6838
39.4193 35.9903 33.2296
41.0402 38.1363 35.4799
38.9975 35.8888 33.4505
38.8561 36.0113 33.6163
39.1264 36.7026 34.4832
40.0291 37.3242 34.9376
38.4936 36.2685 34.3554
37.8616 35.4061 33.5165
36.7412 35.248 34.2907
38.7114 36.7202 35.1634
38.9265 36.7592 35.0075
38.4717 37.0543 35.9667
38.2099 36.3332 34.8807
38.1167 37.2238 36.1781
36.6843 35.9937 35.7701
39.6489 38.5988 37.5902
37.5088 36.3049 35.6676
37.5012 36.94 36.5331
36.55 36.6567 37.2917
37.3726 36.8236 37.3649
45.5982 44.7297 43.0176
36.2841 35.9499 36.299
35.4869 35.4562 35.8662
36.4563 36.4724 36.8887
35.8685 35.8243 36.3221
36.3161 36.7522 37.2739
34.7856 35.0973 36.1054
35.5237 36.0082 36.8401
35.1926 35.9151 36.9061
35.7156 36.6504 37.7012
34.3812 35.6787 37.5246
35.6955 36.7666 38.197
34.0614 35.2968 37.1209
34.8284 36.3721 38.2028
33.9786 34.9796 36.7125
35.284 37.462 39.5452
34.399 35.9899 38.4008
35.9258 37.8753 39.7138
33.501 35.3579 37.9122
33.2601 35.4891 38.2231
33.9169 36.3495 39.1478
33.91 35.8833 38.4653
33.6467 35.9589 38.7997
33.6879 36.2973 38.9741
32.9745 35.9792 39.5007
33.7146 36.6683 40.0007
32.2401 34.792 38.3005
32.6789 35.9472 39.7596
32.8008 35.4507 38.6847
31.9544 35.6975 40.0451
32.3239 35.5457 39.3677
31.725 35.5761 40.2179
31.9297 35.3955 39.5916
32.4739 36.6334 41.5674
32.6034 36.4444 41.155
31.6056 35.1894 39.6555
31.0691 35.0534 40.0383
31.1689 35.0632 39.7855
30.3864 34.6199 39.75
30.4287 34.7436 40.1631
31.2194 35.8496 41.7002
31.3927 35.9019 41.2364
30.5609 35.0369 40.4895
30.6418 35.7433 41.8284
31.5033 36.2808 41.7654
30.2383 36.0508 42.9331
29.7054 34.5537 40.8599
29.7882 34.8842 41.4958
29.6076 34.9059 41.832
30.864 36.0544 42.2187
30.6742 36.2449 43.1365
29.6771 35.0282 41.9345
29.0805 34.6733 41.8449
29.4342 35.2198 42.3808
29.2471 34.9905 42.3777
28.4081 34.6329 42.8668
29.572 35.0751 42.407
30.3315 37.1339 45.3715
29.5379 35.7101 43.7024
28.3193 34.2168 41.7207
27.6915 34.3243 42.887
28.6641 34.6912 43.0009
28.3164 34.7026 43.2425
28.9495 35.8259 44.6439
28.516 34.8399 43.2008
27.6055 34.4848 43.5279
28.4737 35.5695 44.7833
28.4703 35.1623 43.7402
27.6272 34.8899 44.1905
27.2214 34.1319 43.4578
27.9784 35.3269 44.3071
26.7065 34.3403 44.7659
28.4392 36.1657 46.2295
27.1608 34.6517 44.7026
27.0095 33.9354 43.6399
26.7348 34.3062 44.4488
27.5314 35.7984 46.9415
27.1996 34.7894 45.2431
27.6843 35.6843 46.7063
27.757 35.8767 46.7125
26.3306 34.1711 44.9554
26.5038 34.6519 45.8923
27.3727 35.2643 46.1139
27.0305 35.5167 46.8225
26.9033 35.9234 48.1561
26.4524 34.477 45.67
26.0878 34.9792 47.2762
26.5009 35.4233 47.9812
26.9525 35.4661 46.8281
25.1378 34.0124 46.507
25.5987 34.3697 46.8247
25.5878 34.2963 46.831
25.3586 33.8805 46.3554
25.2463 34.6051 47.8162
26.0418 35.7026 49.5805
25.7213 35.032 50.0313
31.9682 42.8719 55.3309
24.9511 34.9187 49.3738
25.5191 34.6302 47.8518
25.405 35.0117 48.6842
25.4484 35.0064 48.4205
24.9571 34.8853 48.9199
24.0956 33.2248 46.7369
23.6232 33.1523 47.2205
24.4828 34.3113 48.8187
24.9349 34.8583 49.0437
25.0115 34.5113 47.8786
24.2868 35.0667 50.5424
24.5921 34.8586 50.0636
24.6515 34.9938 50.017
23.6895 33.4594 48.0682
23.6419 34.2157 49.5345
23.6726 33.7757 48.6667
23.2578 33.5125 49.0619
23.7374 34.1003 49.3798
22.2623 31.7731 46.8954
23.3595 33.6508 48.7117
23.3484 34.4939 50.8542
22.6762 33.1048 49.335
22.978 33.2538 49.4436
23.3275 33.5979 48.9569
22.4783 33.1137 49.0997
22.2915 33.3483 50.1941
21.9273 32.3871 49.0589
23.0194 33.6701 50.0759
22.6738 34.056 51.4603
22.9875 33.6915 50.1692
21.8738 33.1295 50.7711
21.7008 31.8196 48.104
21.8444 32.6854 49.4436
21.7664 32.6822 49.4932
21.9586 33.3428 50.8518
21.8588 32.887 50.1805
22.3398 34.2904 52.6382
21.9264 32.9222 50.1286
20.9478 32.3845 50.3874
21.5479 33.1877 51.759
21.572 32.7811 50.5187
21.1067 32.6792 50.8706
21.1332 32.9054 51.8319
20.6721 31.5824 49.7185
21.2128 32.8101 51.3795
21.114 32.8989 51.8402
21.0045 32.707 51.4295
21.0352 32.9549 52.1096
20.9248 32.7221 51.5716
20.4914 32.311 51.4572
20.7177 32.9137 52.3256
20.7163 33.0863 53.2113
20.5385 32.7372 53.1698
20.0466 31.666 51.5506
20.6206 32.6923 52.8739
20.466 32.1623 51.326
19.8071 32.1171 52.7425
20.1729 32.3818 52.6181
20.3929 32.9047 53.597
19.9252 32.4171 53.5584
19.7154 31.2858 51.1506
20.1038 32.7971 53.5071
19.7538 32.4431 53.5622
19.7253 32.262 53.5018
20.2652 32.9566 54.2501
19.3454 31.7038 53.4049
19.9651 32.3481 52.9131
19.5963 32.1672 53.0889
19.6882 32.9511 55.1624
19.1606 31.5418 52.5649
18.7043 31.2619 52.8093
19.1199 32.0999 54.271
18.8635 31.3252 53.0793
18.7356 31.6367 54.4561
18.9164 31.2597 52.8421
18.7606 31.6021 53.9831
18.7663 31.5092 53.6543
18.9689 32.0403 54.3895
18.4551 31.5249 55.0702
18.6774 31.3683 54.0995
19.1997 32.9968 56.5259
18.5439 31.5983 54.3787
18.263 31.5762 55.2356
18.2844 31.1577 54.2788
18.3604 31.6367 55.1492
18.1433 30.9644 54.5523
18.676 32.0158 55.9893
18.3584 31.4179 54.9482
18.4903 32.2435 56.3683
18.487 32.0356 55.9999
18.3987 32.2663 56.7484
17.8798 31.8476 57.5718
18.0789 30.9602 54.4099
17.2407 30.5352 55.0029
17.0318 30.7913 59.7839
22.0292 37.3404 60.6001
17.5903 31.679 56.7527
16.7582 29.719 54.4205
17.4343 30.9015 55.9698
17.4314 30.8105 55.5061
17.3355 30.6156 54.5615
16.8474 30.6406 56.0282
17.1127 30.344 54.6808
16.9753 31.2815 57.3736
16.6023 29.8364 55.0443
17.0672 31.0043 56.7815
16.6656 30.1699 56.4157
17.2967 31.2566 57.3452
17.3194 31.5434 57.8033
16.88 30.7166 56.9225
16.7075 30.5464 56.8101
16.5496 30.1482 56.2145
16.8302 31.0957 58.2357
16.9036 31.1297 57.7593
16.1368 29.7409 56.3383
16.3936 30.0179 56.1616
16.3624 30.4583 57.7782
16.3402 29.8627 56.2666
16.0359 29.6724 55.8468
15.9012 29.5575 56.1764
16.0528 29.8064 56.3742
16.1247 30.6312 58.2651
15.9288 29.837 57.3972
16.2143 30.761 58.6525
15.5809 28.9776 55.9413
15.7283 29.7041 57.6119
16.0988 30.1315 57.3502
15.6563 30.0343 58.1856
15.6477 29.4017 56.5634
15.4911 29.8205 58.3412
15.3912 28.6845 55.2157
15.2099 29.3821 57.5276
15.356 29.3808 57.821
15.4729 29.0894 56.1089
15.3104 29.8525 57.9705
15.1774 29.6048 58.4681
15.3545 29.7608 58.4933
14.9059 29.2524 58.8422
15.5479 29.8161 58.1452
14.9799 29.3015 58.647
14.9377 28.6992 56.1186
14.6344 28.597 56.9699
14.8262 29.1674 58.5997
15.1682 29.3466 57.4726
14.7363 29.4412 59.4544
15.1553 29.698 58.2569
14.3818 28.8319 57.7657
14.161 28.5921 59.3027
14.7451 28.709 58.1401
14.6052 28.743 57.3659
14.4298 29.09 59.2078
14.4123 28.632 58.8095
14.5234 28.5665 57.3593
14.1885 28.3405 57.4508
14.4354 29.7325 60.4002
13.8657 28.4119 60.4246
14.8205 29.4992 60.0327
14.3043 28.7572 59.4052
14.3038 28.4993 57.5147
13.9442 28.7048 58.7511
13.6679 27.9926 57.8432
13.727 28.3444 59.3586
13.8263 28.2792 59.5708
14.0257 28.4535 59.1199
13.8353 28.5944 60.3127
14.185 29.0264 59.773
13.5629 28.1428 60.0919
14.047 28.5885 59.0082
13.8144 29.1749 60.8629
13.3876 28.0315 60.1639
14.1933 29.4791 61.4148
13.1284 27.1607 58.3897
13.1856 27.5433 59.2823
13.5821 28.3324 59.6966
13.0352 27.2318 58.903
13.45 27.7656 58.5302
13.3127 28.1747 60.1327
13.0204 27.3105 59.3343
13.5719 28.4051 60.4816
13.4002 28.6544 61.818
13.4197 28.3269 60.5067
12.9314 27.5859 59.7896
12.8602 27.1431 59.4744
13.269 28.32 60.4341
12.9032 27.806 60.9993
12.8227 27.3539 59.9891
13.0036 27.7711 59.4149
12.2956 26.8274 59.2178
12.4743 26.741 58.2231
12.5854 27.9436 61.813
12.3192 27.079 65.6318
15.7638 33.0936 66.5954
12.5197 27.3425 61.5735
13.1702 28.9866 62.9724
12.3889 26.9336 61.4037
12.6813 27.0485 59.7976
12.2936 26.7764 60.5328
12.819 28.0082 60.8317
12.0495 26.3556 59.1777
12.157 26.6372 58.4773
11.885 26.6714 60.0246
12.3595 27.847 62.6818
12.2698 26.6682 59.7291
11.9183 26.7049 61.77
12.6309 27.7044 61.8921
12.0072 26.4858 60.1013
11.994 26.3419 59.5335
11.8164 26.7009 61.4356
12.2143 26.9808 60.111
11.8126 26.775 61.0079
12.0528 27.3567 61.579
11.5983 26.1838 61.5178
12.286 27.6903 61.7286
11.3805 26.0522 60.4758
11.3963 25.5948 59.8127
11.5477 25.8844 58.9671
11.3344 26.0271 60.0594
11.1553 26.0433 62.0917
11.7152 26.2782 61.7813
12.0112 26.9922 60.6458
11.0795 25.4777 59.7349
11.4381 26.4041 61.1023
11.1634 25.9543 61.0932
11.2945 25.7743 60.3985
11.3837 26.3532 61.5283
11.2568 26.2621 61.5865
11.2069 25.859 60.7094
10.7914 24.9902 59.6305
10.959 25.3825 59.8284
10.7896 25.2283 60.4975
11.1229 25.7254 60.3265
10.9447 25.7155 60.6759
10.8881 26.1237 63.1662
10.9804 25.2181 59.8511
10.7323 25.2639 60.807
10.6719 24.8369 59.5881
10.7246 24.8332 58.6737
10.5999 26.0804 63.5261
10.7284 25.2647 61.6472
10.7323 25.054 60.8607
10.8595 25.4062 60.1315
10.4262 24.8021 59.9779
10.7001 25.9901 62.7802
10.4186 24.4066 59.3143
10.403 25.134 61.5584
10.5913 25.6402 62.4192
10.5284 24.8702 60.4058
10.1159 24.4727 61.5585
10.6317 25.3274 62.0894
10.4305 25.0733 61.7948
10.5168 25.3892 63.4807
10.5502 24.7963 60.4022
10.4759 25.1168 61.1295
10.2871 24.8753 60.854
