# pn-170911/RbIIA-24-RbIIF-1280-1959.psd
# Power spectrum* (dif=0,1,2) (really just |FT|^2)
# NOTE: only the first half! (symmetric)
# weeks: 1280-1959
# 1 clock-days, 0 excluded
# PSD: 1441
19582.5 0.284192 0.037682
1.32753e+06 8.04781 0.0617966
1.88012e+07 538.773 0.094595
1.24627e+06 29.7824 0.0823133
1.01699e+06 31.2357 0.043213
340132 56.8324 0.0350614
11973.3 29.7419 0.0588405
107723 61.522 0.0397525
132747 3.60293 0.076049
47842.4 0.454627 0.0599182
406287 238.285 0.0248524
54209.6 53.2819 0.0241621
54320.7 7.32943 0.10126
82439 68.0675 0.227019
34543.7 6.78267 0.0289724
142768 105.224 0.338799
17040.6 20.8913 0.155273
63194.8 51.8969 0.268367
10086 66.8322 0.217532
18472.9 61.6952 0.289213
4715.2 40.9177 0.0794966
11551.5 18.8162 0.0129563
4702 43.5448 0.0840124
14265.7 4.39613 0.12318
24289.3 17.8865 0.204431
7656.49 5.71505 0.0171057
31128.5 60.7107 0.481121
9698.42 10.4657 0.0046023
12780.5 56.4733 0.0622251
21401.2 146.135 0.907062
30.7258 24.5198 0.164923
17035.6 20.9749 0.0481308
715.734 47.3636 0.298842
27487.6 51.311 0.432938
14613.2 74.8346 0.156985
98.3989 25.9324 0.228082
5192.31 59.9907 0.664099
12951.3 44.8191 0.0873625
3867.45 6.9792 0.209774
22865.1 60.6272 0.47023
2492.69 0.610569 0.0701951
58490.4 356.328 3.67748
2435.11 32.3228 0.140155
28905.5 126.06 1.39952
27804 132.785 1.57186
124.222 14.7602 0.214085
44395.3 293.327 3.63036
15079.9 68.6226 0.61425
88.5853 26.7713 0.307414
28997.2 191.797 1.92371
4191.03 17.7962 0.073651
632.869 10.7998 0.0619982
642.732 4.61833 0.0582728
7842.25 100.372 1.97659
8569.02 39.5853 0.473109
1794.8 0.344634 0.0962086
10093.4 119.716 2.59139
3872.88 9.15827 0.258368
4698.51 48.3537 0.380015
2100.38 106.694 1.9659
2122.77 1.98292 0.188238
5171.12 23.5086 0.619494
1369.11 39.1483 0.394397
1322.49 22.471 0.19316
4292.38 18.6843 0.346522
2323.34 20.2542 0.819214
6285.84 45.3562 0.985891
2216.93 25.0075 0.228319
526.166 59.5274 1.43844
1697.25 28.8207 0.299869
1736.26 14.3071 0.12811
1510.82 116.398 3.00471
2394.17 12.3275 0.120377
2438.46 37.9962 1.5037
5319.63 44.5913 1.2259
2294.49 8.48353 0.32293
5295.06 55.6522 1.90158
1217.26 13.6928 0.845659
3435.81 27.6311 0.858342
3311.2 60.3636 1.23437
2011.66 18.2025 0.953872
1793.9 37.4634 1.93281
3850.56 63.8307 1.52915
142.309 6.89967 0.274952
421.776 11.206 0.675906
357.292 4.24152 0.0421176
1295.23 35.5074 1.92193
117.288 30.0276 1.44227
2630.25 26.4644 1.21508
257.409 52.5755 1.68553
309.72 8.94388 0.819966
7150.85 211.647 6.84739
2057.12 58.019 3.20631
1663.52 19.4508 1.57714
2693.41 164.929 5.1976
2208.78 69.8008 2.11762
909.427 115.765 5.36572
2828.38 145.937 5.17115
2726.04 50.4614 1.81728
284.616 6.76221 0.670599
3374.97 161.564 6.00517
1639 43.7868 1.59517
603.356 6.27628 0.135321
178.836 4.93344 0.102634
1616.56 111.744 4.39912
7046.48 418.123 21.1657
555.773 6.90373 0.333777
2856.82 70.4975 4.23701
9.12861 31.2093 1.68119
2675.56 57.348 3.64648
87.2682 5.73397 0.3001
864.632 25.388 1.27692
2950.52 141.886 9.4817
362.73 88.6583 5.17353
458.982 14.7466 1.52625
1946.25 44.4213 3.63689
145.837 29.4172 1.1489
104.032 52.168 3.13822
274.555 5.7602 0.197361
623.333 11.8798 0.36999
2208.11 91.8463 6.12193
1241.54 168.186 11.4029
236.92 13.8851 1.59235
1746.15 39.0582 2.63914
70.1127 6.29908 0.419672
298.516 7.33642 0.882181
1352.79 41.7106 4.26677
783.273 25.6891 1.30706
498.367 3.80666 0.555585
1205.59 124.564 11.3959
364.471 71.3259 4.64898
1266.14 42.7937 2.57926
787.332 95.8432 6.79048
315.579 43.3838 3.94385
499.876 2.74541 0.364862
158.197 63.6448 6.18468
1911.48 92.1001 6.99284
786.221 26.0833 2.85761
565.327 57.0568 6.3243
90.6976 2.35342 0.45457
658.225 160.607 14.7305
1180.41 49.2228 3.15901
308.575 67.3628 5.03993
17.001 38.1287 3.55761
305.047 22.2005 1.46649
331.706 98.5221 9.59653
461.694 22.1918 2.73246
11.6043 43.6336 5.2693
1120.45 78.6392 7.30336
1765.64 80.0041 8.35171
465.243 36.3116 4.8735
130.166 36.7378 5.35926
417.849 3.2727 0.216028
885.826 38.5912 3.44409
772.119 124.287 11.3641
168.614 84.7215 9.8854
1252.29 48.4133 5.70588
9.33042 18.155 1.52482
55.5759 15.0923 1.59259
726.2 215.356 26.3223
682.244 11.389 0.952857
547.278 53.152 7.38904
289.735 100.294 14.6224
103.631 24.3326 2.83758
66.0876 28.8649 3.98478
131.911 20.368 3.25136
1926.25 118.588 13.5792
509.015 56.4025 8.56063
354.4 39.6844 4.6054
1478.83 111.701 16.0226
379.416 59.9677 12.2275
373.607 40.2741 3.02405
490.223 20.3245 1.51497
425.781 19.1209 2.07688
208.749 86.3947 10.4691
130.326 56.5261 8.65124
740.293 23.0214 2.8269
666.095 63.2016 8.25962
342.828 13.9737 2.7099
19.7607 40.8479 5.73933
504.444 52.5708 6.77906
240.98 7.75699 1.46065
306.381 47.8303 7.43305
16.5664 13.4765 2.21056
185.55 23.8339 5.1923
187.643 121.255 21.5976
335.369 69.1716 11.4414
1377.77 86.1842 11.8417
186.802 14.0352 1.34618
51.1957 9.74924 1.56422
488.472 23.6939 3.33479
16.541 37.0881 6.01234
141.749 1.25217 0.246832
527.924 29.2418 5.12619
200.419 118.501 20.6313
19.2238 20.9246 5.70358
460.87 36.5303 5.14316
644.264 28.6045 4.14512
61.1403 13.215 2.39986
245.352 10.9262 1.83198
729.164 42.1551 7.34358
154.027 1.70566 0.0519365
307.97 27.1908 4.6231
357.563 26.3932 6.11571
422.466 37.1232 5.89761
18.1367 39.1045 7.63387
144.303 3.53444 1.40544
593.035 30.5867 4.93234
217.585 19.513 3.54504
715.823 57.8419 12.8466
95.103 8.01258 0.989946
18.0928 26.5372 5.94621
375.588 22.5751 3.74944
41.9686 3.3536 0.805463
308.916 79.6804 15.2106
40.3736 16.8576 4.61041
202.001 4.18173 1.03244
123.911 0.333106 0.392602
617.383 51.4021 11.3709
73.6396 87.2431 21.3719
701.616 43.7877 7.00123
798.532 84.7047 21.1223
228.15 14.8267 4.39342
13.6706 6.40982 0.577452
36.2468 36.0824 7.95083
46.2263 3.26208 0.504879
364.832 150.784 42.296
79.4754 10.6739 4.16243
934.674 190.631 38.5455
635.841 108.144 29.8435
611.504 98.386 22.1638
691.555 68.4946 15.7811
22.3834 34.2286 9.81867
763.488 75.8304 18.3286
334.864 94.1651 23.481
283.743 12.7441 3.23864
258.345 82.0493 20.9785
134.159 0.243308 0.257355
242.55 13.6457 4.26104
168.463 4.63188 2.15407
253.029 13.5101 3.57745
24.7243 14.7774 5.11364
165.859 2.46214 0.111504
487.725 52.2014 17.0725
522.366 212.746 52.402
98.9571 3.7359 1.95518
43.3548 6.49891 3.22903
284.095 9.96274 1.76159
634.548 96.593 26.8021
239.29 14.8102 5.9496
95.356 0.649629 0.195091
178.977 27.7306 6.04155
698.95 101.556 32.4902
54.8555 28.7041 7.88688
49.7528 37.9714 9.62681
210.396 36.3196 12.4311
430.599 48.621 17.7617
130.068 27.5678 5.6176
16.7551 46.4012 15.3642
400.201 49.8427 13.3211
0.610057 21.3885 6.43233
195.329 7.45182 2.38149
105.744 67.8731 22.4136
267.771 14.4538 2.96146
120.175 1.23244 0.320384
85.0961 1.34588 1.01336
352.755 32.1428 8.96298
226.897 23.4028 9.2511
47.6331 18.1376 6.81422
144.639 37.4769 11.5662
77.6058 7.00127 2.04309
139.977 6.47605 2.04831
135.976 4.4868 1.97825
42.1681 2.95831 1.20876
132.926 6.54597 3.79238
33.6224 21.9777 6.82093
393.049 54.0439 18.0963
55.6851 3.83545 2.16112
13.752 9.44538 3.7008
149.088 99.4501 38.4393
420.075 46.9585 12.6753
137.641 6.18687 2.40417
90.014 1.61931 1.01583
58.738 15.1804 8.84647
263.093 76.0932 23.0766
141.39 3.91426 0.69813
354.103 87.8249 32.6828
434.522 81.9237 38.1056
2.32382 9.82695 2.40702
30.5503 3.28338 1.36777
129.604 9.74046 4.57002
259.299 83.8871 42.5708
18.6112 55.4205 24.1838
94.3099 5.15122 0.0370776
189.318 52.1015 16.2663
24.2276 31.4363 11.5337
43.8074 10.3715 7.86474
25.2888 19.4842 6.99674
128.928 61.1483 22.4747
192.784 37.9628 16.8033
275.283 41.2751 15.9584
211.577 38.6352 13.2752
91.555 1.92827 0.507201
341.556 56.2035 25.6276
28.288 16.1661 6.77329
111.899 29.9651 10.9026
165.802 17.4032 8.58694
69.1931 25.3985 14.3549
73.7895 8.70855 9.2781
107.216 3.71571 3.09246
100.552 5.35664 1.7831
354.15 135.21 49.3864
30.8043 1.25569 0.274874
148.897 76.5578 37.6058
28.9091 17.0233 5.4678
102.53 3.90116 1.81121
58.8282 19.4356 7.18789
21.0896 2.44225 0.434425
24.2555 22.9093 8.93417
28.2472 70.9692 41.7802
201.225 27.6275 7.59525
36.153 3.687 2.93105
127.185 11.914 5.01598
31.0005 27.3391 14.6215
68.5857 2.44786 1.47046
230.72 37.6835 21.19
87.1134 23.1655 5.61594
134.956 32.824 15.7994
22.3547 3.93564 2.69794
52.7381 0.23796 0.154628
48.391 32.5433 14.4197
53.6016 7.53467 5.49502
128.36 14.5774 9.35142
39.8606 10.7956 5.93465
300.593 60.0761 30.8075
56.4883 3.22626 2.67676
8.62074 16.5459 5.6777
22.1788 4.81825 2.74355
35.676 2.54118 3.0962
275.377 51.45 25.2832
94.3885 30.0733 22.9969
32.7081 79.7031 40.7196
60.9188 1.17423 4.30391
70.1966 23.1077 8.97257
61.7623 21.5359 17.8884
134.767 19.7121 5.58797
112.682 8.31001 4.40957
55.9525 8.57289 8.79886
10.2392 12.5525 14.9963
240.885 45.275 12.0569
142.543 17.3552 6.21327
168.872 30.1431 16.4283
168.505 52.4239 37.1028
17.917 19.9188 10.05
24.8782 49.5331 21.2744
128.735 93.4593 61.1357
269.417 101.348 49.0597
6.99207 13.0611 10.7376
37.4592 7.74928 0.784217
21.8651 57.1537 31.5388
40.5883 6.54005 9.33992
228.949 40.0362 21.5626
56.8079 18.096 7.06426
1.4004 19.6478 8.3277
32.9629 4.01436 1.46197
7.58164 21.9265 16.1095
88.8953 47.4032 22.6957
41.9841 0.481823 0.626111
101.194 73.792 44.4404
53.9628 4.14492 5.57161
16.5304 9.13003 10.9832
100.276 9.45646 2.39268
73.366 16.9996 11.7498
9.2346 10.2106 8.89352
68.3597 56.659 42.1785
139.989 7.79705 0.667548
85.4109 2.50902 0.544257
140.734 16.4885 7.24956
70.1104 9.80614 7.41128
29.1776 3.97195 2.41988
98.3435 8.76569 5.422
15.3688 10.0242 7.44549
8.08319 21.0364 20.3974
143.147 14.9864 9.26352
122.986 25.2966 9.15291
73.404 5.15883 1.81339
170.74 42.7061 29.9965
0.444471 18.6138 11.4211
21.1666 11.1588 16.2814
250.355 48.8863 20.9913
74.38 10.4981 9.40801
155.378 69.966 44.9332
76.3779 7.94053 11.3372
91.4526 26.2395 14.4766
325.294 101.734 62.3792
47.7994 10.9232 12.9891
17.8515 1.6959 0.892699
86.6674 11.0314 10.6044
70.4435 8.58083 4.29372
21.9421 7.13683 5.02789
190.968 46.4107 29.6287
47.3251 6.92972 10.4431
57.4601 8.31837 4.11356
51.1948 7.90106 4.66147
55.903 26.2678 19.6413
35.1918 2.02411 2.47821
1.14742 16.9003 12.0143
107.958 25.1134 16.6017
54.8661 3.41834 3.32699
16.846 11.7529 10.4476
132.991 22.7715 12.3412
115.52 35.1758 36.7983
14.0016 0.133375 2.99646
8.59867 14.1436 4.60498
36.8607 0.732482 2.4575
6.03789 9.82839 5.74616
119.475 50.9481 36.2945
11.75 68.9948 51.5833
82.1823 4.0879 0.981169
169.927 65.2727 51.2565
7.2649 8.16556 11.1002
141.245 30.6489 18.6097
65.6333 20.0112 25.0164
34.2205 27.0648 14.545
15.2062 11.438 14.3983
103.294 17.1154 10.8222
38.4471 8.72204 5.81772
75.9866 16.1415 18.9159
36.3332 9.7808 15.8311
10.6773 14.0699 5.05846
0.533801 31.9853 22.6433
79.5565 17.0684 21.1573
35.028 23.8254 10.7092
33.1163 0.919523 1.1235
13.0167 14.3925 10.0815
55.4877 6.91498 8.26671
43.6814 5.88963 7.64043
8.13676 4.42582 3.31578
13.0103 8.98653 3.20143
1.59393 22.4007 11.2827
1.42795 41.3071 33.8493
27.3294 10.7599 12.5866
45.041 0.397332 0.95304
27.3473 4.03103 3.94011
55.9418 3.70722 3.12877
14.651 4.4701 5.68481
31.5399 29.7042 26.4438
54.3988 22.2607 18.606
17.9801 4.51205 6.23097
48.4479 0.908872 0.15517
54.0444 21.1217 14.9322
26.4124 0.897599 1.37127
23.2796 11.7551 17.3827
106.244 14.8407 6.42239
118.161 44.4947 42.1832
4.34953 21.711 17.2566
27.4674 12.6914 24.058
137.661 41.3328 31.0987
28.4972 10.6839 17.6152
5.40766 47.0089 38.2182
38.7231 1.95105 8.36823
74.1706 6.74784 3.03756
44.485 18.1863 12.4012
67.7212 7.75065 4.94587
46.9704 5.60346 7.23448
15.3666 2.5659 1.02938
42.926 3.49286 4.46356
3.33869 10.0361 7.85125
24.7299 15.3089 20.9772
108.633 20.4789 14.1545
84.4139 30.3413 30.6783
1.74194 9.82858 6.19351
20.9857 1.94977 4.30804
55.2758 5.5132 4.58873
30.1895 21.9905 29.2795
109.663 20.2892 7.8731
107.468 28.7184 19.2709
86.492 28.4491 29.1358
66.4751 29.4204 36.2976
23.334 8.7465 14.8698
70.6559 42.2796 79.2229
14.885 5.52695 8.0574
8.90755 44.3692 24.1151
16.8828 1.7277 0.257975
5.42231 8.33431 6.70066
37.1357 3.19454 4.08818
22.1227 51.8687 42.5794
25.0433 27.7873 44.8968
119.932 45.566 26.3912
75.3109 26.1665 31.3908
35.3592 7.64892 9.93439
9.60002 1.24279 1.26663
17.037 0.748389 5.7249
13.1722 39.2941 34.7568
53.6603 9.89173 10.8086
30.7548 2.9695 1.12538
28.5777 1.40517 3.26713
20.6633 11.4703 9.11557
31.1995 3.02405 8.31918
4.04212 3.93262 0.11069
4.48033 21.3898 16.1973
14.2977 2.55469 1.81752
14.9405 2.54954 2.13112
6.48784 7.40599 6.24797
14.8683 6.45857 8.67123
29.2863 0.523469 1.91053
10.8046 6.75771 10.8868
64.8265 9.83243 10.3605
20.4618 5.62467 1.61016
17.2816 7.26014 4.9416
32.6602 11.9 16.2114
5.06911 15.742 18.9967
53.5819 5.14545 3.94835
34.19 3.53929 4.34661
6.66617 11.6625 9.1706
23.6064 13.6055 20.5366
60.4683 11.0121 14.7912
15.4881 2.68995 1.84576
35.0364 3.23048 7.43586
32.611 1.16488 2.35921
81.3654 60.7926 64.1898
14.6068 0.690616 0.166462
12.8773 0.820928 0.728777
30.1095 17.5427 24.2602
23.702 2.04613 4.64417
0.290339 16.9612 11.6234
14.8315 3.44972 1.8767
3.67717 26.2889 44.5037
106.258 45.058 45.7002
0.793507 15.3699 17.8429
25.2861 1.39047 1.07944
29.7748 2.26411 1.63028
5.96926 18.1388 23.2789
37.4109 1.95846 0.689145
6.53125 12.8385 23.2361
68.7873 14.8801 16.2015
40.5322 8.45841 7.30077
6.77571 5.08733 6.44423
32.0414 1.85649 2.33641
34.389 1.46049 2.88557
54.3866 27.7199 28.8594
35.7895 12.8827 32.7329
57.9713 25.9135 40.7234
17.9903 46.1076 39.0057
3.53012 33.227 34.2751
22.9341 17.4573 28.4175
42.3863 1.15304 2.89239
73.7765 28.6166 45.9674
11.2705 38.2455 32.9739
14.7035 5.08176 7.32773
21.5627 0.75098 3.46918
42.9716 5.65174 6.18428
8.32051 7.07841 8.63095
13.589 1.74991 3.25164
13.0912 5.16065 15.6355
28.4775 49.7261 66.9095
41.7737 7.35247 15.1766
48.3739 1.42927 0.923571
60.814 11.9945 12.0725
25.1315 5.8934 3.07658
42.2507 18.6397 23.1503
42.1377 10.4944 27.5929
53.7584 22.9544 13.021
38.6054 4.68616 2.01182
32.4841 16.2245 20.7982
42.5141 4.73777 3.32788
61.074 33.2018 55.0621
35.7943 4.0784 4.17372
47.0992 16.9482 14.6723
30.5957 7.76972 19.1225
15.7829 18.0501 23.5596
37.619 20.0957 29.455
40.861 17.5046 21.9546
6.14444 10.1659 15.2052
70.9052 25.1534 29.5456
13.4713 1.75189 4.82078
19.1495 5.64953 17.1866
18.5201 1.54837 1.11321
12.752 0.730405 1.31116
60.8827 32.2599 64.21
0.487237 17.8666 8.70688
16.1436 0.473302 2.37895
6.69633 19.6013 44.2688
23.6238 15.4624 15.0322
61.0419 29.6426 27.8399
4.76646 9.30498 19.3599
63.8847 17.5449 14.387
29.7292 13.4241 34.4193
24.2165 14.7426 5.49314
35.4094 10.3318 6.72225
32.2907 11.2097 13.062
24.4563 8.67189 15.3646
19.7333 12.8936 34.1954
0.686535 7.64816 5.9068
2.44364 13.8818 25.3881
27.4201 4.0926 1.82762
5.07802 17.3346 22.8896
45.1338 12.1745 11.9851
32.4664 10.9009 25.1653
10.061 0.117622 3.69188
3.83591 3.82991 2.39039
11.0174 1.14878 8.8115
17.9831 20.0916 14.3657
22.9823 6.18396 6.79137
16.5958 5.06507 12.2228
15.5766 2.60338 1.81731
7.83185 2.82255 3.82004
32.6011 7.01524 18.2187
2.52599 14.4663 11.0517
6.85553 5.53439 6.26961
12.8825 3.44828 5.46235
13.6622 1.62368 4.70809
18.9341 3.79735 10.2894
30.8119 16.2009 31.2832
49.7959 11.3746 5.73216
35.4809 12.0999 25.762
16.3013 7.63354 7.12482
16.5928 8.64375 27.6527
3.69995 17.9681 14.0334
19.4685 7.51955 18.1633
13.1724 14.5428 10.7173
0.998479 23.7829 35.0883
13.2955 15.2743 23.2343
16.5909 3.45979 14.1341
24.464 6.12526 28.1115
67.61 18.3741 7.26739
40.8605 22.863 37.4603
23.0343 5.77238 28.6496
24.808 11.2711 5.58277
12.4386 17.8787 21.2627
10.6601 1.76162 2.35271
19.4641 0.369995 1.36237
11.7566 1.10361 0.677954
16.3314 6.11343 9.6635
19.7315 1.7219 3.95629
33.9137 6.71295 10.0836
13.0449 7.17027 9.28507
22.8013 3.41257 9.8311
3.55861 5.99243 7.26638
35.6929 11.0991 24.9051
9.35423 22.8699 28.024
5.04505 9.68267 33.2297
18.499 18.9011 10.3102
14.6909 23.4296 38.9023
25.5287 1.28307 5.76258
17.9744 0.201413 0.66319
19.525 0.579489 2.14445
15.7746 1.87769 4.56789
27.2793 32.6279 80.3245
22.9118 36.507 37.5632
20.1663 0.972702 10.0961
40.2516 6.82828 10.5058
27.8014 8.54598 5.68422
12.1414 1.45202 0.0919299
15.9887 10.3305 13.7209
29.3806 7.27622 14.5331
3.12369 19.5886 42.7678
26.7853 5.43085 6.94636
34.7995 5.98286 4.80637
18.2047 0.698632 3.42645
29.6005 13.8191 23.6304
28.0319 9.64052 17.5618
3.43955 5.66061 5.86928
16.853 0.279959 1.43821
34.6545 14.741 28.9916
7.60314 2.25292 17.0229
7.87738 3.83586 2.05159
11.3635 2.2371 1.26695
12.1706 7.45078 6.55581
17.7944 1.17286 2.13674
32.1246 19.4537 20.0614
9.99952 7.43055 15.0324
9.87395 2.16539 4.93355
20.0479 3.68966 5.40444
14.1985 0.532384 0.578456
8.44229 14.7306 41.1323
56.8692 36.2125 79.3752
23.6572 11.6196 17.4578
55.6364 17.8554 7.54003
52.369 43.7204 92.3611
0.41716 7.29878 8.43501
28.2147 9.23586 31.9407
19.3494 25.2574 33.8213
5.27914 2.10801 2.43707
7.50546 4.02533 9.14913
31.8491 7.11127 10.9085
10.3632 1.30251 6.8356
5.15479 6.0147 8.77509
30.4661 10.817 22.2089
8.25679 0.180311 1.54239
11.2923 1.01097 1.11318
7.8982 5.68076 4.83836
19.4051 7.15851 21.8561
1.4897 9.70469 12.6712
12.7911 11.4603 22.872
19.5029 15.9159 36.0895
32.0177 4.0532 0.655206
25.6321 7.55024 16.6459
6.35199 7.36122 14.8808
11.4674 4.80466 4.10256
8.4671 2.05849 4.51218
18.9725 1.08698 4.10002
14.838 10.4208 19.7465
14.7531 1.28674 0.257191
7.51156 4.13441 10.2506
21.5008 2.80556 15.1542
26.1243 7.52773 1.29778
34.8992 33.7455 55.0342
7.30559 7.28007 33.9875
48.3369 26.7038 61.1015
18.7489 5.06623 13.7287
12.7254 5.15792 14.4418
1.78815 4.85812 2.60318
8.45466 23.4881 44.7733
42.8795 18.3848 38.8107
8.12261 9.59609 13.531
1.83216 12.2869 25.818
23.8867 4.19077 6.65261
3.73889 7.07039 9.04833
12.0288 7.11079 25.9657
23.28 3.06088 24.1939
14.4166 10.9541 11.2566
24.5352 7.34152 8.73749
27.1135 4.30684 2.97667
16.9739 4.83223 21.6628
23.7221 12.6703 13.2274
15.0565 5.83357 27.5116
14.907 12.11 9.00073
14.3015 3.03874 22.081
19.8535 17.7917 12.6887
4.34413 17.6061 31.6987
21.7483 0.556374 0.624782
20.9339 2.59083 2.97493
14.8249 1.73419 7.34923
7.77723 1.09881 0.156865
11.9593 2.43915 0.0402869
17.2935 15.3184 22.8089
18.3015 6.74362 27.4259
10.3143 5.95088 6.60265
14.0639 1.5515 12.5371
5.3421 8.76163 5.22894
7.35203 4.48525 7.77259
8.83734 1.59263 2.48757
9.01014 3.85678 17.7581
30.1929 3.76572 1.0344
35.9378 21.109 38.675
7.36871 1.36207 9.92047
8.25345 0.828033 13.5312
2.36712 1.7723 0.837604
2.26183 6.86937 6.09139
11.4934 1.07568 1.90967
12.4618 1.55648 8.85542
2.0628 10.3113 14.127
17.9834 9.28587 33.685
15.4742 2.29847 4.40235
7.40821 15.6955 13.9906
14.0067 1.28475 0.0744404
8.89583 4.77904 3.61123
12.9112 4.96409 3.4424
10.4542 12.3868 28.1893
19.656 0.609067 1.09838
17.3227 2.68777 3.56537
15.7407 5.15263 17.4448
5.18495 2.14785 2.53955
12.8374 16.1272 39.4851
13.2726 1.40178 1.11558
15.0554 0.933087 4.31376
7.11077 0.967853 0.45771
8.48191 2.63695 10.93
16.5656 2.68783 1.59044
14.348 5.01731 19.9406
17.0429 5.21263 4.34297
27.1244 14.1888 31.1861
8.07875 2.30498 5.484
14.1281 5.10915 30.7907
0.73786 13.5063 7.05261
7.32977 5.95054 12.9355
8.33317 2.89486 3.95259
11.8087 1.5964 8.30836
11.5818 6.71502 7.50907
14.491 1.08893 2.66905
5.47079 21.6966 53.7104
15.0011 5.60839 20.1327
25.4799 1.26756 1.13916
25.0964 5.28041 2.78499
20.1375 9.08666 28.0473
4.86695 5.14199 6.63507
7.75235 0.616904 2.27145
7.54115 0.94673 2.3993
13.2969 0.916832 1.71521
14.594 2.32856 11.0296
2.79091 4.52973 8.76069
10.438 3.78914 2.73907
12.7272 2.55825 3.27168
24.9495 20.7412 38.722
2.45317 11.12 32.1592
25.7576 6.61724 12.0613
10.5103 3.632 28.7986
0.770283 19.3259 36.9581
10.6748 4.68622 2.93522
4.33266 17.9503 56.6649
28.393 4.97718 7.2314
23.2088 15.8911 34.6657
4.61435 2.20484 6.53767
10.2592 1.43053 10.3204
10.285 0.300715 2.52791
18.8737 12.1425 55.0847
6.979 3.43605 3.77748
10.993 0.26451 7.42792
9.61972 9.64659 10.7035
2.06466 10.5274 13.3692
6.46233 7.0807 11.7995
7.62872 16.4714 63.127
33.9952 9.58699 25.1941
21.5093 5.87917 1.97465
12.1836 0.452491 4.9017
9.6152 0.547083 4.8277
16.7279 7.45505 2.15555
11.381 20.4377 52.3816
12.0636 3.88306 2.96319
7.21482 2.44575 6.07025
14.9682 1.82949 5.38024
7.27793 2.03284 2.24468
3.6726 9.49832 23.3796
12.4211 7.92662 34.0649
22.9872 0.168667 16.0159
31.7668 30.8663 93.0947
44.0414 34.1621 43.4913
