# pn-170911/RbIIR-60-WTZR-1280-1959.psd
# Power spectrum* (dif=0,1,2) (really just |FT|^2)
# NOTE: only the first half! (symmetric)
# weeks: 1280-1959
# 19 clock-days, 0 excluded
# PSD: 1441
200.358 0.0539266 0.0227964
11278.9 0.387191 0.0229017
46267.1 0.888275 0.0160624
11913.3 0.410187 0.0192586
12407 0.710627 0.0200332
4102.85 0.365443 0.0153969
3000.99 0.482325 0.0227419
2668.1 0.442631 0.0141672
1581.21 0.432039 0.022489
1647.05 0.487476 0.0169488
1313.57 0.469811 0.018842
983.43 0.382766 0.02087
1015.03 0.609344 0.0160686
753.206 0.444033 0.0230998
676.728 0.589064 0.0149482
778.516 0.529736 0.0218298
673.983 0.678472 0.0188064
675.986 0.737304 0.0198472
473.309 0.626365 0.0250967
362.857 0.651597 0.0171479
324.111 0.411538 0.0229256
359.038 0.667835 0.0155531
279.285 0.54555 0.0215537
297.404 0.46809 0.0190681
289.012 0.824945 0.0205044
306.677 0.768195 0.0289215
230.389 0.506888 0.0164705
235.513 0.733981 0.0254888
357.939 1.16297 0.0235501
199.09 0.802152 0.0267947
188.077 0.8049 0.0235737
189.95 0.686854 0.022189
226.851 0.864081 0.0243273
204.864 0.865238 0.0174867
290.727 1.429 0.0334044
310.442 1.39166 0.0241846
201.966 1.15069 0.0221208
223.324 1.18369 0.0248497
155.111 0.887209 0.0216949
247.238 1.42019 0.0375513
219.242 1.43645 0.0296619
130.088 0.909173 0.0271404
143 1.25275 0.0290133
189.689 1.52241 0.0305279
147.66 1.12489 0.0283022
145.994 1.34938 0.0234497
152.396 1.58025 0.032467
159.931 1.52852 0.031684
201.135 2.00789 0.0488901
205.893 2.07998 0.0439468
152.552 1.60834 0.0368979
215.153 2.25804 0.0499554
109.223 1.32956 0.0388142
188.476 2.43595 0.0582808
167.903 1.95115 0.0355626
120.595 1.82778 0.051399
169.354 2.14333 0.0546818
142.769 2.03664 0.0451442
165.855 2.37878 0.0746622
114.057 1.87195 0.0362145
102.933 1.76256 0.0647787
102.158 1.58836 0.0381669
117.497 2.26823 0.054614
72.2476 1.65744 0.0522363
135.637 2.67719 0.0824176
132.679 2.38063 0.0718206
90.8771 1.78301 0.0490219
67.3989 1.45813 0.0562435
166.831 3.30271 0.107067
150.382 3.45933 0.103302
230.993 5.18528 0.12837
179.582 4.14041 0.101493
145.506 3.44672 0.104202
293.485 8.03587 0.221642
234.638 6.35591 0.177601
133.39 4.06247 0.1357
108.453 3.09155 0.093313
467.065 12.5645 0.40426
302.944 8.21356 0.228365
161.279 4.41271 0.166236
160.298 4.37235 0.133035
130.859 4.26217 0.173951
152.282 4.22599 0.133565
130.85 4.03428 0.144031
123.961 4.46656 0.184899
98.5245 3.18207 0.164666
92.3011 3.33137 0.130413
129.247 4.41898 0.193352
121.858 4.72143 0.192937
100.352 3.32543 0.147029
173.999 7.06185 0.298538
119.037 4.45317 0.146108
94.9198 3.31465 0.147373
116.779 4.77451 0.198954
119.767 5.26029 0.21522
143.327 5.48338 0.295645
96.1709 4.05613 0.196526
62.9812 2.73675 0.154848
122.031 4.77529 0.274731
105.164 4.95592 0.268502
107.184 5.10625 0.272627
146.858 6.94912 0.400486
101.401 4.48143 0.235972
96.9739 4.73213 0.25995
113.241 5.66644 0.316215
117.109 6.28176 0.341202
102.47 5.14966 0.29151
88.3573 4.43089 0.251717
68.7605 3.68274 0.195817
100.771 5.97326 0.332545
114.383 6.01734 0.329977
111.519 6.324 0.388074
125.634 7.56828 0.535532
126.936 7.68482 0.426695
61.6063 3.7905 0.257129
103.38 6.47724 0.422545
82.4915 5.05514 0.306959
78.8365 4.84088 0.353817
84.9698 5.15352 0.350559
117.755 7.43476 0.550641
101.47 7.61677 0.513057
110.694 7.45996 0.508808
79.1642 5.72576 0.447658
101.215 7.74293 0.587146
107.263 7.4285 0.478961
91.1186 6.73777 0.50798
98.3885 7.30685 0.60309
103.232 7.98415 0.633226
81.454 6.66478 0.564941
106.345 7.90024 0.655314
112.835 9.38738 0.772442
105.407 8.95024 0.743558
58.3842 4.63312 0.394901
63.6754 4.80003 0.408353
83.7011 6.83199 0.613397
81.7788 7.13114 0.615629
128.041 11.2738 0.978307
64.26 6.27033 0.594104
98.7601 9.04663 0.854034
68.5439 6.28847 0.589712
79.1611 7.36155 0.650412
74.8328 6.70409 0.676076
74.7152 7.1761 0.655164
70.218 7.25128 0.65137
71.9217 6.95074 0.666323
81.6186 8.50947 0.962242
75.9686 7.63663 0.788117
119.54 11.9287 1.23545
66.9303 7.79178 0.844674
96.4332 9.71836 1.09838
97.9365 10.5663 1.13079
83.09 9.10231 1.03492
78.5778 8.19141 0.844211
59.8541 6.14715 0.747408
86.2115 10.6166 1.17499
114.423 12.7627 1.4308
93.1096 9.9324 1.14114
69.1806 7.82057 0.956205
48.6226 5.52501 0.678055
90.9517 10.5156 1.16505
57.6876 6.89046 0.881178
75.3787 8.97461 1.05752
97.9973 12.2671 1.49409
100.822 12.9008 1.59777
76.8755 9.72859 1.32475
126.539 15.3986 1.9244
53.1662 6.65633 0.786827
66.6314 9.23437 1.26577
78.9141 11.1056 1.35913
67.5216 9.72998 1.25687
117.936 16.5358 2.21582
58.0789 8.51049 1.27616
75.5966 9.94147 1.37707
55.0615 7.62224 0.980721
52.6824 8.19954 1.25694
72.0683 10.1561 1.49853
74.6825 10.3062 1.60314
69.1224 10.0021 1.38669
95.0546 13.6352 1.87104
63.1226 10.2799 1.62951
76.2238 12.1718 1.89635
75.3824 11.2515 1.77466
78.0851 11.785 1.8795
74.1475 11.6743 1.71753
75.5443 11.5458 1.85609
41.3765 7.07789 1.23668
81.3287 12.432 1.97176
72.3695 12.8411 2.04719
68.2682 12.5616 2.14803
62.1516 10.1191 1.83884
61.5041 9.07917 1.51254
61.9617 10.0798 1.60604
59.624 10.8996 2.09072
48.754 8.62941 1.44286
84.3124 16.1392 2.87453
67.8283 11.2156 2.05825
80.6114 14.6655 2.59754
103.597 16.8119 2.86589
86.8392 15.9574 3.03802
87.1737 15.0365 2.686
60.3478 12.3604 2.39557
63.748 12.0468 2.21107
67.8079 13.0883 2.70574
82.2607 14.2239 2.61349
77.4903 14.8812 2.8415
56.5665 12.4838 2.5933
69.809 14.0528 2.7169
60.3708 11.9922 2.34886
65.2483 13.3192 2.67709
79.8307 16.0041 3.37974
69.0592 14.8054 3.17806
63.6422 11.5575 2.20348
64.5055 13.0303 2.75315
57.5988 12.4173 2.69756
65.4532 13.9269 2.95369
56.9701 11.2511 2.35348
43.9177 10.066 2.42631
41.52 8.28984 1.60689
52.7615 12.8715 2.9973
66.8571 13.6764 2.99134
62.2009 14.0424 3.11334
55.4093 12.3924 2.87562
52.2908 12.9861 3.25759
88.4061 18.8459 4.22342
54.9265 12.5781 2.67046
67.1135 18.6212 4.73962
81.0497 18.3518 4.31994
62.8921 15.1918 3.7943
47.7373 10.0231 2.3542
50.7786 11.9705 2.93312
39.9023 9.30495 2.28708
49.9156 11.1754 2.72252
70.143 19.5253 5.1779
97.483 23.2856 5.81047
65.0823 17.0631 4.38416
68.6565 16.464 3.87815
57.5084 16.2193 4.68059
86.1773 20.4381 5.08149
48.2128 12.9099 3.54989
70.4392 19.1855 5.35287
50.7929 13.8126 3.6865
49.634 12.9851 3.48801
57.7279 14.6281 3.79921
37.8251 11.0839 3.20287
46.1182 12.9754 3.58716
42.8355 12.2682 3.55644
52.7983 15.494 4.48732
71.3653 19.4398 5.40783
84.4319 24.4204 7.15916
65.9777 18.4513 5.23635
51.8135 13.9644 3.92759
53.3435 13.9785 3.88175
47.9811 16.0493 5.17403
47.5086 14.6013 4.30818
40.5902 11.2289 3.00801
36.7953 11.4103 3.78934
92.8354 28.9701 8.28339
65.2449 20.5267 6.26019
32.8313 10.1003 3.40336
51.3784 14.959 4.42229
51.9075 16.8446 5.28069
61.5323 19.7322 6.27091
47.2619 14.0441 4.05603
32.4503 11.422 4.11634
60.4273 17.5113 4.99242
60.5533 21.085 7.26797
61.1198 18.7425 5.7837
48.166 16.4342 5.86571
38.5462 12.6024 4.2629
54.5042 17.7976 6.07825
47.7889 14.706 4.78024
44.5566 13.4738 4.07817
47.5153 16.4162 5.44511
32.8425 11.6323 4.36412
48.331 16.4969 5.97009
54.3252 20.1156 7.18384
37.9279 12.6533 4.46359
47.3982 15.114 5.02924
41.3563 13.7895 4.64924
48.0577 18.4327 6.99211
41.6432 17.4156 7.04168
38.2427 12.9024 4.6626
41.9351 14.428 4.94659
42.8986 17.0193 6.6433
52.1431 17.8159 6.38662
48.9948 16.5485 5.87291
53.7324 20.1006 7.61664
35.0105 12.5194 4.75622
49.0619 17.091 6.25618
48.5426 19.6978 7.74334
46.4122 17.0259 6.31233
38.6676 14.5868 5.90537
32.9749 12.898 5.12447
28.5139 12.1192 5.33473
34.9416 11.5625 3.6824
28.7362 13.1651 6.20511
66.3362 25.0471 9.15569
45.3345 19.1019 7.75769
43.5212 18.5194 7.46135
36.4234 15.3986 5.84452
45.7391 19.8289 8.68412
43.7992 20.7503 9.37598
30.5599 11.2578 4.75209
39.5764 17.7039 8.04193
41.7938 17.3803 7.44759
33.0611 13.0651 5.25579
62.1956 25.5437 9.84036
40.3112 18.5805 8.6419
34.1607 15.8784 7.1226
48.314 20.9196 9.28233
48.517 19.692 8.07491
42.5665 20.1126 9.31119
26.5026 12.0107 6.00106
48.4492 21.7131 10.0993
45.6026 17.7688 7.13819
60.7459 25.454 10.4461
40.5167 18.0109 8.00462
32.0758 14.5748 7.05475
30.8401 14.5581 6.52359
50.4696 23.1506 10.1174
38.1551 18.224 8.53054
48.3734 23.563 11.1665
42.3528 20.4988 9.98178
64.4979 28.9298 12.8091
29.5341 14.405 7.11828
23.036 12.1573 6.60184
29.1914 15.4127 8.68646
45.6088 21.0034 9.76813
28.1551 13.9426 7.7471
39.2805 17.131 7.29384
33.5557 17.2001 8.44019
30.5638 14.514 7.75556
36.4466 19.6958 10.1229
25.3046 13.6015 7.27435
29.1972 13.7867 6.91366
51.7882 28.3353 14.3836
26.8802 13.4747 7.14261
33.0545 17.0907 8.96163
32.482 15.9792 8.20169
24.4429 13.939 8.11204
30.7471 15.4039 8.20297
26.2246 11.8665 6.21951
38.2066 19.9264 10.3951
28.4203 15.1437 8.52973
49.3773 26.9239 13.4579
25.1567 13.2162 7.47665
28.3438 17.3593 10.8002
47.9722 25.8613 13.7276
30.6869 16.0464 9.18955
55.5692 27.7973 13.4362
37.0905 23.0766 13.3519
30.2814 17.2552 10.4341
40.4194 20.9962 11.7548
42.6252 23.1316 12.545
33.6576 18.2985 9.62967
28.6185 17.7176 10.7517
27.5781 14.5053 8.45653
33.543 18.2794 9.6239
25.6423 15.4172 8.95738
26.9051 15.456 8.98994
27.3327 15.0029 8.76531
38.8811 25.7853 16.3622
18.8088 8.49328 4.67158
24.1729 15.858 10.6
47.0448 25.3966 13.8978
22.2188 14.5585 10.1385
42.9256 25.2994 14.1704
28.4223 17.8319 11.3265
32.0372 17.9696 10.666
36.3883 22.2504 12.962
32.3962 17.884 9.9265
20.0172 14.6576 10.301
25.6782 17.8357 12.5265
32.8669 19.8411 12.7178
28.9493 15.7615 9.63383
32.2798 18.0647 10.2476
57.7244 38.123 23.5678
37.425 25.0289 17.0646
24.5349 15.4459 11.0735
31.0559 17.8771 10.7573
29.9799 19.1467 12.6678
19.5334 11.9774 8.46729
39.4103 24.2904 14.3158
21.6962 13.5831 8.91488
28.7107 19.1328 12.2367
32.5177 22.052 14.269
28.8398 20.0819 14.0611
20.3558 14.4599 10.8846
39.5187 24.026 14.7085
33.6691 22.1356 14.4962
26.782 17.5259 11.466
25.648 17.9421 11.8463
29.4891 20.2539 14.8168
33.1838 21.7119 14.039
22.6294 18.2286 13.1717
19.4264 15.315 12.7796
29.8274 19.1097 14.5902
37.1772 22.2055 12.4988
24.4498 17.0454 10.6882
27.9719 21.7674 16.9055
36.2994 25.4197 17.0944
20.2182 15.6416 12.7428
33.3638 26.8507 21.0853
38.8017 24.2162 15.1055
24.809 18.7871 13.6093
32.4566 26.0193 20.1642
25.7798 16.4849 11.6752
24.2788 17.2121 12.5939
25.8359 19.6045 14.6089
27.7427 21.228 15.6151
28.956 21.2835 15.9721
24.1867 16.9154 12.9134
33.2979 26.6736 19.7303
31.1022 25.5087 21.0776
32.9965 23.0576 17.0761
24.2551 16.722 12.4539
24.0824 19.7966 14.549
13.7945 13.0313 12.0907
17.661 13.6799 10.7088
25.9884 20.4285 16.7248
36.6413 26.1889 18.5347
27.9429 22.4409 16.8427
27.579 24.627 21.1379
17.0236 13.635 12.8999
26.0464 20.4918 16.0936
25.8992 20.0202 16.6014
35.3778 25.6634 18.134
20.5798 17.4513 15.1147
25.1575 19.0711 14.4994
18.8579 16.3185 14.4518
26.6915 22.2384 17.9289
22.7247 18.7664 15.8134
25.271 18.8956 14.2729
15.3692 12.2123 11.1379
28.7275 23.8424 18.4115
25.0619 20.0546 17.1432
25.3547 20.7106 17.5595
14.8212 17.7547 23.0419
92.6293 77.2692 62.5982
70.7542 51.3046 34.7748
24.7832 23.0039 19.6845
21.762 18.6586 16.0244
26.7177 22.37 18.3139
21.5047 20.9689 18.7317
21.0334 20.2495 19.959
23.5739 19.9595 18.6309
22.5283 19.0506 16.1879
17.8358 15.6203 14.1532
20.5932 18.6256 16.4326
22.4448 20.2262 18.682
27.7504 24.3324 20.84
20.2342 17.1066 15.746
17.2483 13.3151 11.079
24.2854 21.6455 18.4062
18.6423 16.1398 15.1351
19.4272 18.5147 17.9148
22.7697 20.9707 20.448
23.7737 19.9121 16.8213
23.4383 22.9834 21.8115
24.7543 22.2825 22.1091
33.9035 28.6936 22.8406
19.2268 18.2164 17.4423
17.1731 15.5418 14.2918
18.7892 17.2036 13.7307
12.5007 14.7252 17.1459
21.2628 17.7034 14.3248
16.335 17.0866 16.6351
16.2088 18.9658 21.9097
19.4168 15.3839 12.9861
17.3516 19.5046 21.611
25.777 21.1141 18.0255
21.6311 17.9076 15.7629
22.0009 21.052 18.1918
15.4806 17.6009 19.5222
17.2705 14.7987 12.493
15.1704 17.465 18.8184
19.4455 18.3828 17.465
15.4985 16.3898 19.7357
21.4489 17.1289 15.0337
21.3808 20.1685 18.2598
15.2181 18.4373 21.4308
19.0988 16.5192 15.69
21.4262 21.4752 21.5784
20.0917 16.9635 13.3717
12.0221 16.6682 21.8348
27.4067 21.936 17.9339
17.3691 19.7495 20.0739
14.8782 16.8739 18.6024
13.8775 12.2023 12.4632
18.8124 17.7123 16.3968
18.1008 22.4229 26.4413
25.5109 23.1779 21.4661
15.8849 16.6577 17.2805
14.3665 14.9868 15.1742
16.3915 16.4641 15.6831
13.0025 17.1301 21.1159
16.2314 13.9106 11.7637
9.76887 13.833 17.7738
18.1277 17.8964 18.8339
13.4755 13.5226 14.3683
20.0302 22.9661 27.2711
22.4338 20.5664 18.9602
11.9431 13.1033 14.4605
16.9253 18.2929 18.4878
18.3212 20.1447 20.3846
12.5849 13.7565 15.2166
17.7305 22.0608 25.7165
19.1423 20.697 22.3995
15.7481 17.8128 20.0748
12.5647 15.7363 20.3277
21.9261 24.6597 26.1516
15.576 15.7685 17.8388
17.493 20.8119 25.0838
12.6686 13.8313 16.8684
16.3052 16.709 17.1714
17.2593 20.8489 24.0292
13.226 14.2083 16.0837
17.6367 19.1309 21.5926
20.8645 24.5588 28.2851
21.3821 24.8542 27.6379
16.9615 18.4428 20.1993
22.8095 30.3096 36.1381
14.8581 14.5115 18.3337
19.1158 21.7602 24.7616
12.8473 15.905 19.5884
13.6041 13.8022 15.9085
16.5901 20.5104 23.6886
18.0217 23.195 29.5068
18.0226 22.3633 32.9561
45.9247 50.1775 48.5739
15.8284 20.2129 24.0373
9.72172 10.2705 13.9474
17.3616 22.0171 25.1728
13.5801 17.6717 21.7144
15.4113 19.953 25.2761
15.4807 18.1015 21.1191
15.8191 16.369 16.331
14.8901 21.8358 27.5009
13.5942 17.3042 21.7512
15.6118 22.3909 31.0347
18.2434 23.3029 28.7164
12.6821 14.4818 18.3992
12.5307 15.5339 19.8314
14.6721 20.0072 26.602
12.6521 16.5342 25.0071
13.346 13.2481 14.6063
12.986 23.6335 44.442
49.4719 52.823 48.8819
15.6571 24.5283 36.0176
18.2951 21.9289 30.9014
17.5111 19.3334 23.8912
17.6952 20.6129 24.4383
17.0177 23.6452 32.4279
17.8236 17.3184 17.0937
12.8687 17.6232 24.3438
15.2802 19.0484 23.9992
19.538 23.512 26.039
12.3534 18.839 27.3071
15.7436 19.772 26.7447
12.9966 16.0938 24.6401
18.7502 19.2282 19.2134
15.2173 22.038 27.8741
15.1973 21.0164 27.7964
9.66139 13.1059 18.6257
11.0133 15.9383 22.1266
10.9713 14.486 20.5912
12.8251 15.3693 19.3839
13.18 17.281 22.8062
12.3792 16.121 19.3396
9.2585 15.8203 24.5192
11.1285 12.6639 16.7479
12.4441 15.2337 18.3687
10.0338 15.6378 22.6283
15.377 24.2067 36.4924
16.4644 19.7223 26.1329
12.5383 16.1171 22.7806
15.2557 20.0588 28.2754
20.2084 30.3731 45.9581
20.4357 22.0192 23.796
16.5485 26.5224 40.9616
15.6691 21.4105 32.5075
17.9136 22.3261 30.1975
16.3348 22.4568 28.3233
12.792 16.995 23.0071
9.81209 15.2778 24.5395
16.7068 21.8025 27.3601
11.2617 17.0504 26.3653
14.6458 21.9606 31.6028
14.8442 18.5022 22.3773
9.06429 16.3514 27.1594
12.304 13.6537 17.2456
14.3051 21.7802 28.9325
9.90132 14.963 25.518
12.904 15.2432 17.3973
9.18297 14.3346 23.2715
18.0627 28.4246 39.9758
10.4671 13.4736 19.9549
11.7491 18.9954 30.506
15.321 21.1736 29.0163
11.2464 17.3523 26.2305
14.1781 18.694 23.7784
11.8409 23.2056 41.0525
16.4911 21.0508 32.7183
33.7719 62.361 102.709
28.1811 29.3753 31.9946
12.6409 18.481 28.7798
11.1707 15.7618 23.3581
12.8911 18.4031 23.9873
10.9702 19.6151 31.3062
10.3578 14.7714 22.8179
21.3749 45.0097 87.7538
32.9725 38.7761 41.6848
12.0603 17.5303 24.3345
13.3893 24.0457 36.4567
12.6203 23.6123 40.3192
9.45549 11.303 16.8279
8.20466 15.2269 29.3703
17.2434 26.9175 36.0292
12.6791 32.0381 75.0389
26.1483 23.7667 29.6019
27.1799 44.4222 63.685
16.8245 20.6423 26.5382
12.1319 19.4609 29.0392
11.3005 17.1548 22.982
6.77135 13.9467 27.7529
10.5402 12.0691 17.0977
10.53 16.9866 26.9978
12.3658 19.3711 28.8726
10.7521 12.8576 12.8872
8.32943 17.6883 31.7247
11.5797 17.1181 24.3934
9.20618 17.9149 31.5402
12.2695 21.5697 33.4477
8.59671 14.5976 26.1674
11.3166 17.8881 28.9309
12.2688 22.1129 36.747
11.7346 20.4502 37.1017
10.4185 13.1695 19.2673
8.17862 11.852 17.5717
9.35018 17.6149 31.7037
10.0274 18.324 36.5359
13.5573 17.0837 25.4958
12.4529 19.3112 26.8833
7.42452 13.7305 24.11
6.64135 11.905 27.2347
17.0666 24.8573 31.3661
5.58702 14.7158 32.9213
10.5559 15.576 27.2602
12.0351 17.436 25.7901
11.1847 18.4614 26.6625
6.45779 12.2534 23.6709
9.0598 14.7372 21.9083
6.28611 13.8636 30.092
10.4017 17.6117 31.2748
9.47881 14.568 23.9832
7.63674 13.3314 28.8557
13.127 20.785 30.4523
11.4372 20.4854 34.2697
9.45073 17.5382 32.9383
7.73184 11.6058 24.1229
10.9488 15.9517 24.9777
12.3188 23.3738 38.5182
12.6026 21.1931 31.7393
9.53319 19.4651 39.9392
13.0512 21.6072 33.0595
9.27399 17.0506 30.8861
7.7153 13.1318 26.805
10.3993 15.766 23.3195
5.76053 13.7772 30.8298
9.1731 13.2433 23.0385
11.7186 18.9983 32.2451
11.8138 23.3099 39.879
9.58114 15.2006 22.6066
5.27533 10.1954 19.3606
6.29527 10.0954 16.0849
4.85539 9.17801 19.9288
10.7896 21.518 36.3935
9.04657 17.1658 36.1793
10.6953 16.9171 25.5887
8.12629 16.4892 31.3395
8.37941 14.0929 26.0262
10.789 21.1055 41.0708
11.0987 19.0175 33.2658
7.41354 10.7395 23.3818
10.951 18.9513 29.8186
7.29057 13.5392 24.4428
7.42032 15.3081 34.2217
12.2169 21.8137 38.7672
8.93743 14.7095 27.177
9.83383 17.6802 28.9071
6.80979 13.1866 29.2674
11.6839 19.7538 28.3527
5.84037 13.6381 30.4704
6.24689 12.1785 27.5696
8.15985 12.0673 19.9013
9.24896 19.2833 38.3502
8.94598 15.1076 27.7306
5.87762 10.0304 19.9798
7.19966 12.55 22.7192
9.26987 19.099 32.1755
7.41234 15.6326 30.629
6.47245 13.6642 30.7147
9.04222 16.8469 36.398
10.7997 20.0891 38.6801
13.0991 24.7882 42.4732
6.8288 11.0722 21.9396
7.28911 10.8092 15.7252
6.73945 17.3844 36.6395
6.48743 12.4447 27.5028
6.43333 11.1421 22.6557
6.72283 13.7822 28.4006
8.20303 16.522 39.595
10.9102 15.2787 21.4086
7.45964 14.9282 26.3598
7.47599 15.89 27.9442
6.33863 14.8611 31.2994
7.1889 14.1454 29.3223
6.55401 13.6774 32.0501
8.67352 15.9716 29.3265
4.6634 6.46206 15.6207
8.24159 16.3579 33.6293
8.76996 13.6938 22.8422
9.12075 19.7112 35.9952
7.99147 21.6761 55.1456
11.5147 17.6724 28.1498
6.73253 13.3186 25.0782
5.80736 14.2337 36.0538
8.86769 16.9273 33.2302
7.99765 16.7798 34.7142
7.65685 14.3204 26.8681
5.60193 11.0395 23.1423
7.23809 15.967 28.8519
5.34383 11.2364 24.2085
5.71655 11.7222 30.1824
10.5062 22.4348 45.5137
7.74263 13.6242 30.7692
8.44598 15.6428 27.8575
6.79733 10.9773 18.9662
6.49062 14.4544 30.0708
9.2057 22.2799 48.7137
9.94653 19.4428 39.1438
7.18641 12.839 25.3232
6.36969 15.1756 37.4999
9.25512 17.7465 33.7652
7.42061 14.9707 30.1086
5.8238 12.6333 29.0861
9.3782 19.8639 39.8679
9.23948 21.7048 42.6355
6.12036 13.5599 36.9045
10.2543 17.5945 29.8603
5.68122 10.4478 20.1414
4.80435 12.1318 29.3045
7.0072 13.0805 23.5587
4.81812 13.5806 33.4157
6.14931 11.8118 26.7393
5.63257 11.102 24.5087
6.99963 14.5056 29.7233
6.44183 13.0858 23.8642
6.75699 17.3016 33.0694
5.95558 17.8004 47.5386
7.93404 14.4872 35.6492
7.73367 15.0351 29.9098
6.70598 15.2147 33.6598
5.84535 15.0791 42.9513
10.9352 21.4749 45.6253
10.5417 21.1315 39.4491
7.80112 16.5597 32.7875
6.15456 15.8594 38.1841
6.82373 13.2704 29.7219
6.3703 13.2282 28.566
6.17754 13.2457 30.4467
6.08231 13.0118 28.3362
5.93694 12.7262 30.8509
7.48005 17.2421 37.2317
6.9749 15.2342 40.1923
8.77279 14.143 24.9068
5.98971 14.1181 32.5722
8.64208 17.7287 34.8729
8.6513 21.6592 43.4119
5.53269 14.5342 40.3927
6.2139 12.6921 33.4504
5.91628 9.48841 23.2199
6.0899 11.5317 24.0673
7.05026 15.7223 33.6932
6.90909 14.5072 29.8993
6.7663 16.7006 40.235
9.58543 18.2649 29.1176
5.37736 16.6683 41.1438
6.11714 14.3287 35.0305
5.16787 11.5955 31.9807
7.37865 17.0261 38.7598
7.33345 17.2177 33.7813
3.81166 9.16865 28.3409
6.4942 13.304 29.4817
6.0521 12.3839 29.4221
5.59898 12.3437 30.4056
7.01628 17.9204 38.8829
6.64561 13.6771 26.4251
4.17039 12.2196 34.0371
6.13717 14.776 35.4111
6.2503 12.0378 24.3384
4.56176 11.4736 35.2372
7.43286 13.9578 25.7353
6.41734 17.536 36.2503
6.18671 17.2396 38.449
5.08355 15.7161 49.7221
7.4599 9.48877 12.671
3.58269 11.1734 29.8142
6.38753 16.6843 41.7453
5.25036 13.0402 38.7968
6.85569 11.4831 22.6014
5.44415 16.2112 43.5484
7.24501 14.7461 31.5486
5.60863 11.7872 27.1339
4.85146 11.1629 27.5307
5.57961 12.5048 22.0951
3.41303 8.82181 23.6274
4.99631 12.8995 31.6563
6.06586 12.4146 25.1135
4.3361 12.054 26.3546
3.32281 9.29928 26.9171
4.97145 13.8342 37.3989
3.96969 8.35461 25.9347
5.10438 9.55878 23.6411
5.02214 11.5138 25.4845
