# pn-170911/RbII-15-RbIIR-1280-1959.psd
# Power spectrum* (dif=0,1,2) (really just |FT|^2)
# NOTE: only the first half! (symmetric)
# weeks: 1280-1959
# 21 clock-days, 98 excluded
# PSD: 1441
153570 2.25229 0.020686
6.7332e+06 148.022 0.0117849
4.11054e+06 63.5482 0.0107863
2.12437e+06 43.0075 0.00828556
905840 23.1707 0.0108492
581414 13.5389 0.0103773
313237 5.81544 0.0106854
236030 5.45581 0.0131799
149066 5.76408 0.0104464
121041 3.78938 0.0101275
88176.6 4.14974 0.012104
75231.1 3.5826 0.010363
66965.3 3.48593 0.0134866
61661.8 4.28831 0.0128387
55703.2 3.58586 0.0139041
41689.7 2.0971 0.0126023
40114.1 2.98744 0.0131244
35872.8 3.1469 0.0173488
27281.1 1.80157 0.0107624
25198.4 1.83431 0.0120544
27992 2.58303 0.0141321
23364.5 2.24554 0.015306
22174.3 2.97262 0.017454
19444.4 2.12658 0.0176554
16990 2.56025 0.0143271
16100.4 2.01893 0.0203762
13936 2.22474 0.0131997
13295 2.00508 0.0161918
12292.5 2.70454 0.0170155
11650.4 1.94127 0.0160489
10057.3 2.46268 0.0268688
10043.7 1.65936 0.0134731
9322.69 1.9945 0.0257406
8890.95 2.52732 0.0170334
9095.53 3.00461 0.0231704
7280.11 2.26728 0.0300846
8012.81 3.16298 0.0301722
6892.18 1.73678 0.0243122
7231.59 2.97657 0.0270861
6483.31 3.53856 0.0274733
5997.42 2.59909 0.0352518
6413.13 2.97865 0.0316532
5345.59 3.80072 0.0407558
5713.29 3.2309 0.0407365
5444.69 2.47171 0.0377758
5251.55 2.4469 0.027924
4431.96 2.37644 0.0332685
4206.42 3.70118 0.0470381
4228.87 1.49731 0.0290301
4629.46 3.06863 0.0392552
3621.14 3.20641 0.0536699
4366.54 4.0313 0.0525242
3703.47 3.82649 0.0704207
3645.66 3.22034 0.0466158
3191.8 4.38165 0.0838151
3113.76 3.46618 0.0707255
3160.71 3.87141 0.0753588
3316.57 4.74493 0.0813494
2844.44 3.06503 0.054101
3341.92 3.12628 0.0513378
2859.08 4.32369 0.100634
2627.43 3.8708 0.0674796
3155.86 4.03688 0.0811463
2426.02 3.62732 0.0912539
2603.61 3.1109 0.0712849
2639.76 4.0009 0.112466
2018.38 3.27585 0.0866788
2355.67 3.59319 0.0883021
2129.56 2.62099 0.061679
2040.69 4.26238 0.0867276
2051.71 4.54928 0.129397
1850.78 3.59196 0.107282
2010.31 4.10134 0.119688
2195.6 4.376 0.120883
2039.95 4.95819 0.138638
1588.63 3.5031 0.0989864
1618.26 4.38114 0.125114
2026.43 5.06592 0.142077
1878.64 3.53916 0.125099
1785.42 4.97056 0.140797
1871.02 5.43438 0.172229
1655.9 7.49498 0.258622
1510.56 5.31584 0.166022
1594.17 4.69499 0.189845
1546.96 3.75982 0.131766
1467.77 5.17829 0.207331
1390.7 3.04679 0.119685
1305.94 3.77938 0.141739
1586.99 4.19752 0.164502
1479.53 5.00482 0.227761
1156.22 5.56225 0.228486
1358.84 3.09152 0.133672
1112.04 7.02975 0.30261
1398.65 7.54038 0.288618
1125.7 4.43676 0.190497
974.837 6.65326 0.353654
1280.11 7.72688 0.341677
1101.04 5.64572 0.226184
882.609 6.81838 0.357799
1210.39 5.61396 0.265742
953.754 7.67386 0.339277
1001.51 4.3561 0.23522
1122.85 8.78151 0.412767
1153.87 7.81226 0.400302
1019.73 5.68702 0.298138
937.518 7.83602 0.406624
1022.96 5.77954 0.302089
897.961 6.512 0.352964
809.254 6.85337 0.420152
732.773 7.56714 0.406139
1059.72 9.34314 0.554841
944.286 7.00536 0.385451
914.814 6.7021 0.431782
817.062 6.71864 0.441863
837.722 7.98953 0.472857
743.608 6.66375 0.439632
746.069 8.76187 0.619383
931.976 6.73566 0.444078
1048.7 12.013 0.800277
886.58 9.029 0.598111
768.228 10.5976 0.715501
992.793 12.1594 0.813933
846.6 10.1297 0.736961
727.74 7.41274 0.558526
805.456 7.50635 0.508661
739.819 7.00012 0.517928
726.866 6.23319 0.470885
945.559 15.0124 1.14396
748.185 12.6464 1.00052
746.378 7.62255 0.593483
698.145 8.56801 0.776049
732.537 12.0512 1.00163
594.52 8.6641 0.725067
640.334 7.30715 0.662435
662.238 10.2942 0.874989
547.915 10.0776 0.879308
691.207 7.46596 0.702052
545.636 6.54085 0.571249
655.215 9.87493 0.983816
623.656 12.0085 1.07448
492.271 8.82898 0.867723
518.224 9.94687 0.94872
625.968 15.4749 1.41592
636.313 16.2832 1.45493
503.329 13.3628 1.36097
586.296 13.2418 1.39643
589.917 8.96901 0.962341
564.972 10.2379 1.01875
523.59 10.7264 1.14487
657.285 9.23735 0.969708
545.762 6.60977 0.723481
379.137 8.61966 0.971427
561.545 8.47815 0.927226
452.262 10.2966 1.2007
572.86 7.37248 0.804224
601.849 13.4661 1.56414
393.772 10.3242 1.13045
533.699 7.63105 0.911341
503.444 11.0979 1.34535
500.833 12.9475 1.48229
339.302 9.54636 1.19535
542.514 15.8158 1.92394
437.96 12.5769 1.53143
631.577 11.2689 1.36153
410.009 11.5196 1.47401
499.17 15.144 1.92529
434.777 9.52086 1.25795
339.142 10.688 1.37144
444.775 12.8475 1.75855
340.519 12.223 1.57289
469.265 11.8701 1.60613
358.789 10.6908 1.51954
378.003 14.2395 1.9826
452.478 11.2188 1.64699
400.282 13.8122 2.01527
393.281 8.87024 1.2541
384.185 9.94332 1.51121
461.136 14.1382 2.17697
428.363 15.9301 2.47639
390.508 10.516 1.62581
401.001 14.6177 2.30451
375.801 8.04573 1.22904
377.322 12.3605 1.94603
401.361 8.96317 1.45085
461.122 14.3775 2.1427
439.873 12.0995 2.02817
417.347 13.1925 2.22353
422.201 18.1411 2.87574
324.226 13.8403 2.40537
341.695 8.49335 1.4535
358.337 10.5826 1.76134
343.193 14.8127 2.51762
385.689 13.3962 2.33767
434.205 19.6404 3.55385
321.755 12.366 2.11899
432.501 16.3795 2.86865
437.216 17.1471 3.05112
395.071 11.909 2.33177
290.099 13.1639 2.54078
297.17 14.781 2.68745
339.825 10.5527 2.05855
278.206 8.1008 1.67821
365.259 15.7458 2.84861
368.295 11.3891 2.25879
285.142 10.4184 2.23231
324.153 13.6707 2.70559
249 10.0432 1.96956
290.097 15.3075 3.36336
358.587 11.7678 2.11569
293.816 11.804 2.63786
290.518 12.7556 2.50726
250.305 13.6864 2.94814
300.299 11.61 2.28425
277.546 10.0314 2.23058
300.206 11.5116 2.47568
270.11 21.2969 4.55743
307.847 15.702 3.53174
234.299 16.8724 3.84083
242.69 17.7408 4.3072
405.202 17.5092 3.82591
277.603 14.1582 3.46483
335.433 17.1708 3.64136
216.77 15.8247 3.87181
242.753 16.8086 3.94191
348.599 16.653 3.96043
256.556 13.5915 3.244
261.038 19.7211 4.55595
237.306 15.0905 3.58645
208.259 12.0699 2.85838
237.775 15.1864 3.84966
288.873 15.173 3.59265
212.919 11.6363 3.0217
226.945 20.0221 4.95589
264.618 18.2096 4.72895
275.291 15.8398 3.71616
236.736 18.2342 4.92258
202.936 15.826 4.25766
239.017 12.5398 3.60729
213.762 13.1087 3.6266
195.048 15.4714 3.97838
245.242 19.4142 5.30549
238.47 12.1685 3.6605
324.143 20.0562 5.27406
266.75 21.0854 5.42743
252.879 24.8264 6.81289
201.867 14.5718 4.13048
215.837 14.1402 4.13519
260.064 15.6251 4.56833
171.755 14.7044 4.48001
207.964 21.1274 6.03965
307.133 28.7907 7.51744
270.026 20.1106 6.31044
196.426 13.2824 3.90063
254.014 15.3555 4.44272
200.544 13.8579 3.68805
241.927 17.732 5.26234
218.423 11.7082 3.83142
187.793 14.7703 4.49031
223.888 24.9382 7.6079
213.111 20.5866 6.28018
159.78 12.4371 4.02
187.988 21.8243 6.70849
239.855 25.9545 8.15052
228.526 28.1835 8.70364
216.887 17.1636 5.56517
169.31 22.5871 7.52861
188.093 15.8495 6.00985
200.609 23.6031 7.16941
186.429 13.3305 4.47633
140.677 10.2202 3.79339
181.209 12.0311 4.1848
185.131 11.9361 3.86462
233.386 22.9598 7.80175
147.355 14.5789 4.89998
241.561 20.9281 7.31812
162.212 10.3122 3.68916
162.068 15.2268 5.04818
192.376 23.4547 8.65822
176.845 18.6855 6.58996
147.058 18.4472 7.07388
187.252 23.7175 8.86027
158.14 18.2559 6.18081
177.762 17.4312 6.59752
165.22 15.2304 5.90859
145.527 14.9589 6.27798
198.882 13.5799 4.75178
146.278 25.2748 9.37319
175.028 20.4001 8.33137
171.511 21.2908 7.47495
179.145 17.8123 7.15543
186.703 20.2569 7.69283
190.232 19.4726 7.72058
124.217 20.2411 7.93237
176.827 16.1746 5.76452
198.99 26.6941 10.909
192.655 17.4915 6.67833
175.95 17.7803 7.03181
153.524 26.4679 11.2698
192.364 18.6764 8.974
137.701 21.1752 8.2114
141.466 23.5296 9.22527
168.991 17.4107 7.25792
178.844 25.9228 10.8534
162.333 22.6292 8.9143
121.236 13.8309 5.5573
143.725 14.7024 5.94438
132.115 19.0522 8.69621
123.712 16.3952 7.93067
107.339 13.0274 5.61214
170.454 16.0832 7.56415
166.69 17.5864 7.13569
172.965 20.3563 8.79524
141.029 21.5604 9.71711
148.717 20.3316 9.47286
163.942 25.6054 11.8046
136.327 18.4104 8.80946
158.306 18.4827 8.55041
153.675 17.9397 7.86671
169.222 24.4655 12.0723
152.378 18.7869 7.68649
192.033 26.0315 12.7314
144.776 24.9526 11.5196
134.753 20.8641 10.0096
193.176 24.6701 11.7567
109.808 16.3808 8.40326
146.733 19.7753 8.29669
143.332 18.7508 9.42524
126.219 18.2374 10.138
159.781 17.405 7.83776
119.675 27.5022 13.7043
143.671 18.6124 9.30024
133.837 18.0175 9.25584
124.91 20.4617 9.20354
147.117 24.4411 11.92
105.999 22.8309 11.3927
145.47 16.4606 7.47153
147.466 16.2645 8.60188
100.691 20.4241 10.0043
131.72 17.1625 9.70078
172.859 19.7544 9.94343
111.507 17.3908 8.77929
122.635 25.8543 13.928
127 28.438 14.1013
112.426 11.6609 6.78207
123.191 15.3015 9.13497
117.241 19.7142 10.6803
130.077 16.2664 9.67793
136.142 11.743 5.69607
142.228 25.2934 13.5623
153.359 22.676 12.7183
129.566 22.2418 12.6512
113.707 17.2094 11.0526
141.379 15.62 9.20345
124.451 25.8231 13.886
116.223 20.8102 12.1901
104.303 16.2525 9.24288
118.013 15.4742 8.59373
122.045 17.3721 10.3066
91.7939 17.6245 10.2631
127.439 23.7348 13.7505
111.496 26.4985 14.5466
83.9298 11.13 6.99867
128.58 20.1704 12.6604
141.508 23.0615 13.8027
87.0189 18.1654 12.3334
145.606 26.1826 14.3805
87.2037 15.1952 8.54098
114.283 14.9766 9.0339
112.052 24.6143 14.261
104.169 17.3237 11.1424
96.7798 20.945 14.2051
107.62 19.4293 12.3687
118.223 25.1161 13.6586
107.249 15.7495 10.5667
119.994 20.0106 13.5448
100.955 27.9599 15.828
135.877 28.505 17.7871
118.919 25.9959 16.4735
109.49 14.9709 9.54043
88.52 25.4267 14.7851
123.228 16.7192 11.8368
85.9323 15.0977 11.8445
83.4377 18.3736 10.5808
99.9924 20.2798 13.8948
126.768 30.0223 20.1845
91.9838 18.7005 11.2449
109.707 23.3444 16.3787
88.2945 14.9122 9.48557
117.187 23.0239 16.854
99.7708 17.633 13.2742
108.685 23.1692 15.3533
113.51 26.985 17.7146
135.87 22.8809 15.4676
87.015 15.9482 11.0911
110.233 17.5333 13.7034
76.66 21.7918 13.998
85.9328 15.0356 11.5714
96.9241 16.7199 12.6808
106.317 22.8145 15.9211
101.563 19.1463 14.4387
68.7688 11.3173 8.4641
88.2888 17.1877 11.1293
121.349 21.8307 17.1332
93.1248 27.4085 20.7626
95.7916 14.1534 11.1465
103.895 21.8428 16.5416
81.5363 19.9613 14.4194
131.394 19.1296 11.2668
93.5536 19.7195 14.6495
85.7714 18.7562 13.5675
120.308 25.5318 21.0562
85.539 14.6713 8.82264
84.4407 15.8609 11.9877
100.162 27.119 19.9823
89.38 12.6882 10.6319
98.8808 20.6434 15.3758
69.3301 18.9933 15.2265
129.175 23.6964 15.3434
118.815 22.7614 21.5637
86.1437 19.5518 12.8512
81.934 25.1421 20.9826
126.92 26.5068 20.1776
90.8677 17.5459 15.5694
97.5124 29.1055 21.7594
94.5227 29.4647 23.8077
59.1655 20.9074 16.7066
90.203 24.0539 19.1455
66.9407 15.6996 12.8646
93.8892 16.842 16.0129
93.4592 20.4766 14.9773
69.0736 16.7281 15.5361
79.2651 13.232 10.5628
105.119 20.1238 15.9797
85.5081 17.2045 15.9117
97.2723 17.5175 14.255
77.8775 16.8784 13.7856
78.0375 23.607 18.2808
82.7694 19.9352 17.8648
109.205 25.7036 20.6604
60.0805 20.7424 20.9498
90.1179 20.4865 13.2825
89.18 17.3618 14.0047
99.7411 24.3128 21.793
77.9122 15.5627 12.5367
117.442 25.5247 22.7461
74.1065 25.2359 21.267
73.4457 19.6655 17.5297
77.5997 28.9045 23.6
86.218 15.7419 14.7652
70.3539 20.4609 20.3186
97.4182 22.4527 19.4936
67.7874 18.5203 18.4406
73.9819 23.4906 21.5668
76.7833 13.9954 11.5457
40.4006 22.0834 17.8857
84.0013 15.4664 13.2977
50.1515 21.8512 21.3697
102.266 22.8666 18.1234
73.7878 20.3109 20.5645
73.5755 14.7163 12.0559
63.0118 21.297 19.8879
91.3094 20.0277 20.0017
66.3235 24.7525 22.4336
116.125 33.9821 29.9962
77.3411 18.3661 16.152
73.8407 17.2891 14.8644
55.8801 17.8147 18.2464
69.1937 23.3568 28.0159
78.8082 29.5254 26.1112
103.485 30.1432 30.7943
78.0474 22.3239 21.9541
76.7281 15.5854 13.5274
86.0019 25.0312 24.7534
65.3811 17.9565 15.7265
77.6617 21.6004 22.9652
54.473 19.0967 19.7832
89.5666 19.0946 17.0965
71.3127 21.4818 19.3536
71.5405 19.1107 19.7195
91.6858 15.302 16.932
73.5159 30.4762 31.2532
90.3719 18.566 15.4314
57.7393 13.4916 14.1393
69.7854 22.8563 22.3525
77.0719 23.8298 25.7042
68.1414 14.7595 18.6935
63.7365 26.3466 27.1364
79.2186 20.7746 20.1956
63.9627 25.9019 24.9473
64.4227 21.1953 25.0698
61.9226 23.0441 27.2818
84.2379 23.5448 19.6381
86.9683 31.1574 31.4686
68.1477 16.6937 15.784
61.6212 12.5251 13.4792
86.345 19.4672 18.205
44.6132 13.1697 15.0099
62.3032 13.2615 15.6994
84.0298 20.9333 19.4675
67.9993 25.6964 27.6685
58.0992 13.3684 15.6514
63.4823 27.2765 32.0016
50.6674 20.877 20.6404
81.2424 20.5058 25.6189
79.134 22.9459 24.9344
76.5413 19.5579 20.9896
62.2265 24.1761 24.4328
53.5264 12.5057 14.0988
59.1556 28.0023 30.1289
78.6579 17.4493 19.5203
53.7517 17.1933 17.2684
70.7855 21.9114 23.7215
54.2439 21.1241 23.8131
82.201 18.0264 21.1138
65.3464 25.0387 27.6993
48.2385 19.6631 25.0545
64.9911 19.1622 18.1497
61.2571 16.514 18.8425
57.8476 20.9987 25.0387
76.998 19.1724 24.2941
45.4064 13.6421 16.3926
64.3218 32.4891 37.1397
56.3818 14.7181 18.4943
46.4657 20.1126 22.7163
71.9059 20.4776 23.8739
59.1268 13.2745 14.1288
61.8191 19.0712 27.9033
79.2138 22.9568 25.7136
45.1669 18.2239 20.3176
56.441 18.0368 18.9739
77.7655 24.0644 28.3559
45.8143 18.0438 23.7415
51.0402 18.3943 17.169
43.4721 18.408 26.1015
61.4176 18.1894 20.5777
67.9928 20.1511 22.5889
41.2423 14.2864 22.2549
63.0817 23.0176 24.25
47.0547 13.6924 20.6632
62.1003 21.4487 29.5876
51.1833 22.0888 23.5394
57.9956 22.8697 28.2888
54.8301 18.5005 20.6492
51.1857 18.5063 25.6559
43.3419 16.5236 19.0782
46.8761 14.8458 19.3115
59.034 15.867 17.5014
41.4207 13.9862 19.6607
67.2312 18.8969 25.4964
49.4922 15.3197 19.1554
58.6143 18.439 27.0182
61.4895 19.1246 25.9166
46.7416 20.7413 18.2367
42.8131 17.742 23.8765
63.9769 19.3333 25.2431
37.4478 15.3968 21.229
64.4233 20.5963 28.0093
61.8526 24.0043 28.9646
46.8879 15.0393 20.9993
55.3021 26.5386 34.77
44.9154 17.0538 22.5846
63.448 24.5876 37.9983
62.2299 22.3908 25.7062
38.0169 21.3783 23.4221
55.3578 19.08 26.595
51.9993 24.7482 28.7845
58.6192 17.6644 25.574
61.4753 32.6852 43.4793
55.3076 19.1848 24.1577
57.7265 20.5068 31.6071
46.4271 14.1388 17.3406
31.0766 14.3135 20.8436
65.4681 20.5407 27.0479
45.5462 27.9782 41.2445
45.0056 14.1847 17.3136
50.669 23.9423 34.6371
42.9814 18.9336 28.0817
71.5785 23.1811 27.7147
39.0347 13.8352 21.6181
56.1692 14.1424 18.8775
51.1818 20.9067 30.8225
39.8653 12.414 15.3095
46.6738 19.749 24.9985
46.65 13.1332 16.8508
38.2544 15.8277 25.9421
47.7751 9.68136 11.5139
58.1625 16.0517 24.417
35.865 13.6814 21.418
51.9635 19.303 26.0088
45.32 18.0626 27.3898
51.0054 20.3812 26.1466
45.2991 18.0745 24.0098
46.3641 12.3687 17.4543
44.7992 12.4094 21.5653
49.1834 18.8922 26.3063
31.2731 16.3171 25.3243
58.6381 19.6192 29.3159
37.1815 21.4181 37.7018
57.5288 17.2767 23.0043
42.7849 16.1924 23.3466
35.2863 17.6851 26.5675
48.9257 17.808 27.2124
38.1026 19.7757 30.1185
31.9929 18.5112 31.7886
60.8382 19.0458 20.7637
36.9968 14.1161 22.8296
47.186 23.7706 33.9812
56.336 19.2837 27.402
32.5784 14.8818 24.8947
43.2339 11.0591 17.4245
42.3427 19.054 31.7792
54.3163 20.6581 32.9413
44.2958 18.3236 31.7531
48.2351 18.6471 27.1343
43.3215 11.5358 14.8799
48.3736 14.5062 22.0845
39.9118 16.1796 27.8692
43.8989 16.2927 25.8547
31.0348 20.0552 34.4307
39.2508 22.8893 33.066
60.9671 16.0249 25.0671
47.6729 16.3023 22.1323
48.7037 16.617 29.4382
44.8342 13.0256 18.8333
42.3455 16.6589 28.25
44.9334 18.3355 22.7428
38.6969 17.9014 31.1786
42.1006 17.486 27.4547
56.8142 20.9705 33.1017
32.255 28.4924 37.8004
42.1114 17.2098 30.069
38.3286 12.2961 21.9014
33.4768 15.8848 24.5777
40.7153 15.0485 23.004
41.2562 14.3336 29.1938
34.8263 13.5138 22.339
52.345 19.3029 27.4909
26.948 25.0515 39.3307
46.0498 13.4634 23.1296
45.8216 13.8431 24.9272
28.4948 14.2408 22.6621
48.9328 17.8413 32.8122
37.9543 12.6034 18.6003
32.8425 18.0266 32.744
37.6818 16.6411 24.5076
32.225 17.0948 31.3218
39.0399 19.7871 34.6677
56.0306 20.4265 32.9279
35.5289 13.9076 26.7932
40.2209 20.6932 32.3394
41.1044 15.7012 25.6247
37.1306 10.5138 23.1848
61.1656 25.9924 39.5191
35.0076 17.1505 23.7852
49.0878 21.2559 44.213
45.7676 19.2942 51.0928
68.0804 42.7517 53.4624
45.319 17.6167 34.1113
49.9592 15.5821 27.6368
38.2766 18.493 37.7593
66.2745 23.4906 32.8837
34.8251 11.2433 17.6777
43.7742 14.3375 28.6782
39.1449 12.7125 19.3026
35.9543 16.8828 30.3628
51.4923 16.9861 32.479
40.5177 40.6754 66.6464
29.8418 14.3155 28.7273
47.5531 14.8336 20.9905
33.519 15.058 32.2922
47.6784 17.0599 28.1801
60.717 18.6803 31.41
29.279 17.9555 33.6586
60.009 15.6649 24.8101
40.9461 17.9861 27.9256
49.4851 48.1551 87.5493
73.9686 55.7355 115.036
52.3427 30.6959 38.829
58.3489 48.9677 92.722
58.2833 56.5259 98.3005
56.2451 55.5208 101.661
72.9087 55.9149 112.988
54.9732 55.9823 96.72
43.292 42.3824 81.8456
62.0358 30.7825 42.7823
34.5188 39.7462 82.8652
57.2935 36.8422 83.4378
45.0666 49.8048 117.37
45.2528 37.9744 40.9295
40.3036 20.0383 36.4142
36.6466 33.4821 78.0348
44.6613 35.937 86.1576
59.3252 46.2474 62.4706
26.4845 18.0228 34.2879
56.4614 21.9263 35.0827
37.7769 13.7384 27.7776
38.3109 20.7905 41.9117
35.6571 11.41 24.3327
33.2416 25.267 65.5666
42.2887 33.7443 64.323
46.6028 32.1167 72.4115
42.9339 45.2352 82.2274
60.352 54.5302 74.258
46.9707 21.7683 41.964
43.3308 32.7811 83.1857
62.155 55.4075 120.023
63.1922 72.1488 95.1531
39.3709 17.0503 32.5835
31.0083 14.6443 30.5412
33.3138 17.5045 35.9575
33.6144 18.536 35.1061
35.8274 13.2668 32.7154
27.5248 14.1113 23.8415
41.1887 18.7469 38.7012
32.6731 18.4104 36.7664
35.3353 12.9713 20.2047
36.1911 13.4959 23.3497
26.6619 13.5592 28.2827
31.9417 9.89652 27.0716
31.1023 23.9921 44.3509
27.0676 16.2909 32.6031
32.54 19.6561 41.2941
27.9295 18.1923 32.4474
40.1878 15.6527 30.3557
33.6336 18.5963 33.2523
29.4304 16.6642 35.312
38.5258 22.2477 48.8902
37.2501 18.0509 42.7095
23.2174 16.2563 30.8214
39.1588 11.6081 26.0332
26.1363 12.8984 27.8829
38.2066 16.2638 24.4062
34.9213 15.5042 33.0365
26.7961 10.9618 31.5058
40.3148 15.2973 23.6
32.922 19.9102 41.0401
27.871 25.0464 54.7755
41.7817 17.6823 42.9006
31.4416 13.2736 27.7386
35.8776 21.3104 37.0534
36.4524 16.09 39.843
30.3037 19.2979 35.2897
39.9223 15.1059 29.3367
34.6532 13.3386 28.636
24.0567 14.0137 26.133
37.9323 9.70772 26.0012
25.924 16.9766 36.2548
31.2208 12.5073 20.5672
28.546 11.6958 27.0873
31.2429 14.62 33.0864
37.5 15.2846 30.7899
32.5802 10.2263 29.5588
29.5649 11.3209 24.1721
35.1857 10.5976 19.1667
26.4921 19.4247 38.8067
33.0844 10.0139 18.6488
27.2616 14.4559 34.0848
31.0195 23.7285 59.7044
37.3753 22.137 41.2229
33.333 18.7141 35.3134
24.291 16.5109 45.1567
31.7985 18.6503 37.0859
23.9996 13.659 32.1536
30.2567 13.8841 32.5819
34.1871 18.0235 35.6429
26.6281 17.062 36.3492
38.9798 12.7093 24.1583
29.3764 13.9432 35.0531
23.3019 15.2979 28.3466
41.9567 23.2085 52.6446
27.497 17.3099 29.7788
32.6997 16.4678 40.4128
28.2985 15.4422 38.2223
29.2814 20.1788 44.1302
33.485 12.3004 28.0958
23.2591 11.2652 33.5842
30.754 14.534 26.8744
37.4598 19.4992 40.2366
19.854 16.0203 39.9497
40.0047 16.0486 32.3749
28.173 12.5864 26.8719
21.2785 14.725 39.7498
29.9538 10.9048 30.8975
28.7221 8.39099 17.7154
27.163 13.975 27.0705
30.4179 17.5612 41.3622
24.2333 14.6611 32.5273
29.5221 11.3547 25.0483
26.5015 14.8352 32.3476
25.1265 11.0986 26.1869
31.7455 14.6666 36.2981
30.8643 12.0365 24.958
23.1969 10.2906 30.7904
29.6938 11.125 26.5601
22.4314 11.1777 25.7058
26.2909 11.8659 27.1249
30.7418 13.824 30.6364
14.9986 14.8391 41.5228
22.5566 11.9657 29.932
27.208 13.6067 31.5245
30.8592 18.2265 34.3819
30.1629 14.395 37.8923
26.14 16.963 38.4975
34.4332 16.6159 38.2529
28.8856 13.9081 38.7036
28.6901 18.9314 38.3385
30.9923 19.0879 44.8755
28.061 17.0652 40.7289
30.0863 16.805 44.0718
34.5702 13.0675 25.9994
23.8353 15.9513 38.1274
26.2993 10.4225 23.6635
27.3872 16.4324 46.5736
33.3022 12.8897 27.9688
25.3001 11.1922 21.5864
23.1334 11.6954 19.959
22.09 9.84254 29.5084
31.0428 9.36965 27.593
24.8689 11.2945 24.3111
31.3998 14.4919 36.7727
27.5265 16.4662 37.4719
24.3677 13.8466 36.6885
34.0208 15.2177 34.5924
19.7943 18.3263 32.7382
23.613 14.2146 39.3879
29.1318 17.636 42.9083
17.3647 8.40459 24.7735
23.3183 11.8618 40.4084
29.2333 12.3779 33.2671
