# pn-170911/RbIIR-55-KOKB-1280-1959.psd
# Power spectrum* (dif=0,1,2) (really just |FT|^2)
# NOTE: only the first half! (symmetric)
# weeks: 1280-1959
# 3 clock-days, 0 excluded
# PSD: 1441
127.571 0.16389 0.0178475
26270.9 0.440082 0.0185639
84188.3 2.64266 0.0193458
19728.1 0.331823 0.018965
34390.2 1.8681 0.0194452
5923.33 0.606188 0.0174126
8825.26 0.77169 0.018025
703.447 0.189978 0.0183211
2200.87 0.379418 0.021113
1050.15 0.256328 0.020426
1792.34 0.575647 0.0216986
1272.17 0.650558 0.0160301
920.785 0.168974 0.0177892
1739.98 0.893575 0.0244492
116.767 0.316349 0.0182693
789.266 0.586944 0.022767
807.708 0.533594 0.0175013
500.791 0.852322 0.0150148
277.909 0.155168 0.017755
554.31 0.775836 0.013941
436.862 0.616133 0.0201574
624.786 1.14302 0.0258414
773.771 1.06545 0.0268286
233.006 0.587773 0.0236077
397.72 0.949718 0.0278466
526.767 0.972497 0.0239442
511.779 1.50286 0.0293559
1269.55 2.89979 0.0331758
434.934 2.58957 0.0356542
181.388 0.632929 0.0226132
289.462 1.42594 0.0205788
240.175 1.57601 0.0359455
415.019 2.37908 0.0278043
433.786 1.78673 0.0337051
1019.7 4.02365 0.0183312
880.525 4.33652 0.0707581
1401.51 7.24813 0.0540764
427.595 3.16036 0.0565589
755.4 4.02008 0.0550554
77.7786 1.00327 0.0256813
121.649 1.35032 0.0463102
337.906 2.31052 0.0314993
143.194 1.27385 0.0355519
241.546 2.34504 0.0286852
241.883 3.02868 0.0713141
485.311 4.15543 0.0276136
412.57 3.24511 0.0815827
279.176 3.5989 0.0852993
404.624 6.05752 0.0817515
419.455 5.15586 0.0683512
230.584 1.92192 0.0564314
625.032 8.46471 0.177652
247.662 3.8961 0.0886816
632.177 6.25902 0.127379
787.349 9.61436 0.0862334
156.829 1.50612 0.0466186
196.914 3.61393 0.057054
422.071 5.58803 0.156571
260.259 3.63603 0.0473177
496.904 6.57133 0.0844022
397.23 6.52052 0.0930345
492.095 9.05428 0.138582
387.8 5.88047 0.0772524
289.227 6.70806 0.0857815
169.472 3.51678 0.11458
866.804 14.983 0.318094
273.278 4.31148 0.160027
759.959 15.1247 0.338244
253.048 5.07113 0.192033
1003.31 21.672 0.553041
196.338 4.09395 0.120224
312.652 7.12822 0.223933
365.924 8.23045 0.276852
503.621 11.5521 0.386818
498.991 13.7148 0.340763
224.53 5.94788 0.199493
608.206 17.3054 0.391282
118.345 2.21395 0.0604604
102.345 3.42587 0.112983
301.693 8.42532 0.262505
186.444 6.5705 0.16231
107.597 3.91608 0.12394
193.856 6.88392 0.212284
562.08 16.4173 0.606858
331.304 9.44075 0.276621
274.664 9.73835 0.424926
160.324 6.0945 0.249465
497.921 17.1544 0.725438
154.509 5.88005 0.37357
130.623 5.31399 0.234117
612.785 20.1529 0.63853
374.329 13.9848 0.686375
225.992 10.427 0.441238
258.945 10.2695 0.440267
825.122 36.5543 1.43715
261.401 11.9896 0.457758
191.788 8.6767 0.339577
393.74 19.8739 0.828646
347.482 17.3944 0.931285
404.113 17.8259 0.619718
147.638 7.90966 0.265381
215.914 12.8 0.633054
183.58 9.97911 0.436797
306.601 12.9389 0.632898
245.51 11.9634 0.637209
125.891 5.71765 0.236865
270.788 16.3103 1.03331
468.585 20.8082 1.05991
477.963 26.6279 1.30119
138.735 8.54182 0.499442
175.378 8.64532 0.559123
212.172 10.6275 0.647589
65.1737 3.0313 0.238947
284.597 15.7329 1.0718
167.325 8.97986 0.603559
53.0171 3.92662 0.248234
114.191 6.76574 0.617482
248.289 15.9078 0.834557
330.076 21.6847 1.49244
670.117 48.1815 3.33704
92.0427 5.48043 0.304824
304.103 22.4219 1.35951
49.1725 5.21118 0.346978
81.0911 7.17657 0.473718
458.577 31.6148 2.46763
139.089 9.84158 0.780819
69.538 4.08588 0.261525
169.919 14.6754 1.34818
87.8573 4.63364 0.369832
143.164 12.5827 1.012
322.252 22.9553 2.01634
132.154 13.5089 1.12841
131.236 8.13813 0.602063
90.1833 9.02515 0.681392
355.533 25.5156 2.11307
205.586 17.4788 1.76666
213.834 20.4006 2.27917
32.0164 3.08396 0.512629
811.445 71.8017 6.1447
43.0718 4.4188 0.399528
218.967 18.0243 1.57714
250.47 24.5857 2.44937
188.574 18.1545 1.94632
149.41 13.4124 1.1759
185.333 19.9231 1.99335
186.198 19.1362 2.00969
287.461 30.0392 3.06534
140.037 15.3134 1.86802
316.405 27.8188 2.852
232.408 23.1431 2.4512
240.228 24.0325 2.86852
329.187 37.5702 4.15493
84.771 10.4306 1.42368
217.563 21.7511 2.52661
183.429 16.3992 1.30068
112.42 12.8841 1.39252
67.8653 5.62965 0.738808
280.874 29.6097 3.36793
321.308 37.1451 4.43614
54.0801 7.90151 1.39439
129.378 12.8982 1.51831
112.632 14.5143 1.52056
32.8295 2.79558 0.402648
122.383 13.6883 1.63068
163.968 20.8643 2.87698
72.904 11.5057 1.99786
379.248 42.7876 5.54117
99.7179 12.069 1.5136
41.7087 6.03694 0.722445
143.923 17.3637 2.52832
161.198 22.4637 3.24016
137.695 16.9048 1.9372
208.772 27.5615 3.41457
74.098 11.061 1.70173
90.1562 14.9409 2.34305
58.5097 9.7297 1.87496
82.4199 9.93676 1.37519
116.669 17.2975 2.46218
94.456 16.5052 2.50531
70.2235 9.60469 1.6883
132.087 19.8188 3.1379
119.707 19.0633 2.66372
81.9281 14.7537 2.59744
105.949 17.1953 2.9366
274.457 39.8538 5.88616
79.8378 11.8197 2.10532
70.9956 10.04 1.88244
310.136 50.6094 7.73964
126.086 19.082 3.0946
168.136 26.9922 4.21796
194.037 30.11 4.96624
80.024 12.4966 2.3383
66.1813 14.7807 2.84078
136.591 21.4332 3.89362
173.248 27.1701 4.64339
102.244 22.6861 5.56867
168.377 27.0952 3.83654
155.111 25.7976 4.05861
99.6358 18.5814 4.07081
20.7689 2.83813 0.471999
73.9757 16.0663 3.01001
102.084 15.5935 2.38471
93.0849 20.141 4.56043
99.1435 18.4275 2.84907
91.5131 17.0361 3.09598
24.2094 5.1993 1.12817
83.7316 16.4945 3.30188
69.66 19.3594 4.75607
99.5923 18.749 4.20204
85.6894 12.9635 2.2147
18.4809 3.19513 0.587432
37.0258 7.39736 2.04847
34.1602 6.16564 1.51609
129.403 28.9027 6.15412
60.8475 10.1989 1.84753
51.5642 12.3076 2.50293
25.979 4.59277 0.912571
39.4041 7.67453 1.70046
47.9864 11.1043 2.28076
75.1979 21.031 5.45816
52.0609 8.82697 1.6938
55.2736 10.3254 2.63921
132.239 29.9031 6.26231
138.62 28.7219 6.40143
100.276 23.0622 5.06125
86.6311 23.5172 5.36392
235.227 61.0665 14.5649
103.172 19.3329 4.27116
20.2677 5.43858 1.31153
65.8964 14.5987 3.16819
26.1632 7.70019 2.30576
39.1106 11.3694 2.61349
41.9029 13.7862 3.7135
65.9886 17.2695 4.67401
205.75 65.4152 19.3753
122.124 18.8914 3.35649
104.204 23.9132 6.02554
47.6078 10.2431 2.17444
36.0005 10.4329 2.52442
43.7349 10.3435 2.90823
111.759 27.3924 6.56231
60.6696 20.268 5.71152
25.3329 8.77705 3.0343
23.7577 5.58592 1.86053
74.6201 19.2416 5.1245
66.5906 20.1529 6.21977
153.186 39.6389 10.776
62.0852 13.5247 3.22942
52.8386 18.1336 5.96813
43.0159 9.26409 2.12977
56.3951 15.2922 4.38239
14.319 5.36205 1.67119
18.1976 4.19227 1.38073
72.2275 17.9176 5.09164
51.676 15.88 5.40282
67.521 20.9019 7.16534
94.0585 29.9877 8.62529
69.3789 20.8752 7.17401
65.3452 21.4593 7.42815
75.3237 24.324 7.0149
72.426 21.8349 7.69755
59.8683 17.8012 5.18388
79.7085 25.5555 8.73428
78.7399 21.7056 5.46797
18.1719 6.28439 2.70119
34.763 11.3869 3.63328
145.476 48.6893 16.3113
89.8135 37.5683 14.0883
88.2097 24.2999 6.97697
112.259 42.7465 17.1638
65.7213 18.9898 5.62707
107.564 34.1786 10.3145
56.6803 18.8697 5.96153
112.473 41.2356 14.9707
60.5642 15.2737 4.36031
61.5929 20.0163 7.05122
84.2287 22.3782 5.7476
24.6241 9.45573 3.81385
124.271 40.1903 13.9006
33.6924 10.8421 3.68751
74.0198 24.4425 7.7394
22.8447 11.3059 4.65466
54.8955 16.9628 5.42086
63.1187 21.687 8.73734
43.0642 15.9979 6.21416
98.5368 39.8512 13.7126
69.2005 27.562 10.7254
31.9905 13.8894 5.88319
42.4451 16.833 6.98946
15.5052 7.4507 3.72677
66.4722 18.171 5.99243
58.3305 19.411 5.9714
63.7232 27.4912 13.0335
31.9364 11.8559 4.19821
38.1248 10.0753 2.32856
111.096 46.7155 18.8686
27.5986 13.9577 6.83546
5.57797 1.53319 1.22325
41.2698 14.3762 4.94913
36.2738 14.4163 6.39397
70.1436 29.1205 13.2477
21.3841 9.87486 4.95406
20.1677 10.8638 5.56768
63.0203 32.806 16.4672
35.2829 10.6832 3.08612
47.7457 23.7952 12.5268
61.7605 24.0339 10.2072
199.917 74.5468 26.6241
22.3456 12.5787 7.198
77.3074 30.6672 12.6752
66.2113 31.903 15.1267
135.288 53.9938 21.514
24.5585 13.2072 7.49391
65.1867 30.2894 14.2899
20.6762 10.981 5.71663
66.3986 25.8284 10.3488
59.8336 29.3309 16.0209
45.1147 20.6881 9.76657
81.0597 35.0341 14.9478
122.722 58.1003 24.2524
30.7824 13.6943 5.9416
15.9837 4.88438 2.3455
38.9616 19.4485 10.2695
49.4182 21.1958 8.63605
47.7183 25.498 13.3267
98.7795 48.3627 26.2094
59.8849 25.0126 9.16044
67.3279 31.8636 11.9564
31.5467 19.3523 10.2914
43.8456 29.9572 17.172
62.3612 23.6144 9.76087
9.19763 4.55494 2.72825
41.0266 31.0797 19.6301
67.3928 21.6378 6.28032
61.1185 34.6101 19.5854
38.2186 16.1349 6.47989
9.77027 8.12372 5.93494
83.2417 42.6023 20.1615
29.5527 18.0732 11.9511
17.589 11.1758 8.53842
15.2486 7.13629 5.14647
37.6568 13.276 3.7729
35.6745 20.4475 11.6285
34.5092 19.045 8.87697
19.8745 16.8007 12.3018
81.2496 31.7799 12.1169
36.0927 23.9424 14.2981
48.3182 26.4141 14.0273
68.1281 36.262 20.4561
4.92987 3.16908 3.89704
49.6198 24.257 13.2104
22.6954 12.7243 6.42178
14.3541 8.08736 4.56661
27.9722 11.7257 4.00802
24.4209 12.8668 6.45133
10.5633 6.53451 3.51202
28.7433 17.6338 12.5019
72.9685 39.4444 21.061
36.8844 22.2766 14.3801
15.4027 8.05603 4.56897
87.5121 54.5767 30.3938
23.5557 10.2118 5.6298
44.1914 28.3371 15.848
23.4146 18.8276 16.5888
70.3227 35.6671 15.4296
15.9434 12.1634 9.46083
32.445 18.5217 9.63929
46.8262 30.2354 16.2513
46.409 32.3835 21.9308
34.3921 20.9647 10.6384
7.92363 6.37083 5.23745
25.5968 13.1774 7.04075
34.5941 21.6357 14.3152
36.7599 25.0756 16.9261
27.9321 17.0338 8.49875
12.0327 10.6645 7.79515
27.9181 20.478 13.436
8.37047 4.60786 3.14378
38.0606 28.1768 20.1862
39.6456 20.6082 12.0719
42.53 28.8015 20.2299
34.3429 18.451 9.44971
39.6698 33.2431 27.3352
54.9833 30.8265 19.5398
82.0164 43.4647 23.2122
38.2113 28.7122 19.3905
7.30694 4.43716 3.80297
21.4159 15.5209 11.9631
52.3525 34.2812 21.0705
21.9046 14.5345 10.2757
14.5508 5.88206 3.74281
28.8519 15.7769 8.0815
69.9069 54.4256 41.9863
19.8412 10.9653 8.2056
25.2089 18.8721 12.019
42.2301 33.0392 24.4926
25.6074 18.0458 14.5422
43.5175 27.8032 15.4691
7.37421 7.08787 7.39481
47.0791 39.2352 30.0318
8.02083 7.52126 11.6014
26.4363 15.3105 9.42984
29.0615 14.3224 6.91374
22.4313 14.8256 9.17452
14.9404 7.55045 5.76876
41.6669 21.8051 11.1639
45.1973 35.3774 26.4209
24.7996 15.0246 7.76016
43.8492 40.0409 29.24
17.6229 12.3924 7.72465
25.9729 21.5945 16.3477
23.8648 20.6066 17.1041
18.6871 11.7761 5.83599
26.3667 30.7441 28.1777
19.052 7.74736 2.95744
5.27681 7.55739 9.05005
42.3567 32.3746 23.3194
26.3786 24.8943 22.2033
14.5764 8.71487 8.21852
52.8281 39.294 28.0841
32.8408 23.5223 17.1643
6.76378 7.80157 7.66953
17.9322 15.2882 12.6956
16.696 9.38848 6.88084
21.0542 16.4159 13.7906
26.3868 19.5206 15.0528
35.2427 26.7472 20.5786
23.7878 21.4509 19.5922
36.0931 26.7204 23.0524
35.1608 29.6256 24.9417
20.6742 12.61 7.21741
16.9272 15.5094 13.2735
22.5326 26.7819 29.0865
48.6138 28.0716 12.2547
42.4122 47.2101 40.2986
19.5794 12.2054 9.27989
34.6453 28.6925 22.5684
21.3658 19.4176 15.5943
16.5721 19.1764 21.2286
31.3833 24.5689 19.467
17.8046 16.4324 17.2092
51.866 41.1673 28.9229
12.2102 18.5419 22.6137
22.3463 9.10531 4.69281
21.8933 17.0448 15.2734
34.2066 24.689 18.3244
11.4098 10.4523 10.7836
16.4804 15.3973 11.3459
27.8924 36.1189 41.0612
23.5361 14.7323 11.6519
27.9732 19.3079 16.3405
25.6676 20.7768 13.8589
13.5229 17.4148 20.4465
23.202 10.5376 5.27999
29.9661 23.0169 17.2523
35.99 40.2044 36.4118
23.6428 16.6777 11.531
8.47913 17.5413 24.1364
18.7062 13.6998 14.8179
41.0997 29.1047 22.5463
45.7835 41.4341 34.95
22.7353 22.2514 22.7417
24.6298 24.3772 22.901
35.3793 30.4718 27.6028
23.6266 21.5525 18.8713
27.5071 28.8597 29.7802
22.7334 15.607 12.2637
15.1771 14.9919 12.0511
10.9483 12.8292 17.0785
14.0918 12.6703 11.2599
26.091 21.1841 17.3169
29.6259 38.239 42.7867
25.1712 15.0634 8.76806
31.5246 33.9662 34.3207
6.11258 5.7802 6.55298
10.5363 18.5378 28.107
37.723 30.5838 22.2396
16.484 21.2265 24.4759
19.97 11.3617 5.87101
26.3933 33.7383 39.3187
14.062 14.1534 17.7119
14.5585 17.8356 24.6811
56.0782 58.3411 55.8902
39.9425 26.4734 19.2342
7.44027 5.67828 6.27127
21.9704 19.5241 12.4279
7.52727 11.9513 14.4857
7.54218 7.85494 12.3459
33.8522 36.6367 32.1485
11.7587 21.2637 29.5221
18.761 17.5676 20.6699
24.8894 20.6687 18.111
17.9962 15.1038 12.2364
3.4834 2.78346 2.2892
8.40514 12.3773 16.2909
16.2236 16.2152 17.961
23.5846 28.7753 33.5227
25.7934 24.9305 19.9984
6.29485 8.96967 12.5688
17.4874 20.3206 27.4002
23.1736 23.5088 20.1156
5.38107 6.06249 11.2161
29.6983 29.0863 23.3362
8.67924 12.3469 15.502
14.2701 11.4488 9.91397
9.69291 20.0892 30.6827
25.2437 18.1659 17.074
17.8157 14.1462 12.1517
17.3968 15.6896 14.6155
30.4796 28.5331 24.6813
16.1939 19.1294 21.0304
5.25273 6.52511 11.7214
34.7624 34.7497 30.138
19.1595 28.2234 36.4236
8.7104 8.31385 9.44289
10.9148 17.847 27.031
8.14923 12.1931 20.6402
10.8344 5.61781 6.511
28.2485 25.0174 20.1096
14.8292 25.3393 39.4992
32.4511 26.7639 20.6245
16.369 17.0499 17.403
13.4644 23.3395 36.8542
16.7798 12.241 7.05055
15.7091 24.8781 32.945
26.2311 32.0291 46.1101
18.4786 11.7071 3.55063
13.959 20.5335 22.768
12.6814 16.1469 17.7214
8.10232 9.25975 13.8745
17.1965 18.8913 20.2894
13.3513 14.4103 16.555
17.6061 26.3309 36.5765
15.4398 18.6647 26.9699
34.4913 35.7678 34.4768
22.5348 28.7685 29.0014
12.232 20.9255 27.5608
9.60913 14.4211 25.2979
25.1501 24.7479 23.4243
5.91629 8.89552 13.3475
9.71491 15.7516 29.9974
29.2748 24.6928 12.9252
29.4199 51.0246 57.9314
2.66565 9.15523 22.6153
19.4702 29.8491 45.127
13.2022 7.41484 4.73202
0.882533 6.06164 18.358
29.8472 30.0185 32.1224
25.5672 44.4675 64.2219
9.43575 11.1448 29.9615
37.465 37.5146 34.6938
27.1483 41.1557 60.8371
20.9801 22.7944 32.8971
41.4376 41.4187 37.1302
1.44245 4.95757 17.2692
26.8172 30.2266 36.3107
21.6388 20.3747 23.3953
11.7531 13.9805 20.7905
32.9249 31.0006 22.2154
30.3565 41.8436 43.4485
9.646 28.9269 56.6371
23.7382 34.3636 57.2438
26.8492 25.8185 27.2058
12.709 16.0827 19.9871
14.601 19.3289 19.6778
8.46397 13.4562 21.5818
11.4438 15.8013 21.8398
6.97043 7.83199 11.7152
11.1653 16.724 17.9037
7.80275 17.5823 37.77
27.8424 32.6223 47.5327
41.3633 48.5452 48.4378
17.7561 30.3332 44.582
21.6803 31.1997 49.2409
21.9215 21.4594 14.2518
8.47589 16.1804 18.9029
13.3671 27.1926 35.2023
9.6279 26.686 53.9351
13.093 6.45213 11.3201
15.8115 14.3829 12.2943
16.1872 24.1685 27.1276
1.74416 5.17701 12.12
6.39688 6.92548 10.0111
5.96343 14.0648 28.9462
9.67078 11.2986 26.5564
25.3963 20.7632 12.5129
13.0627 19.2572 22.4629
25.7505 40.3032 52.6789
13.7762 26.2453 39.2771
5.04557 8.71912 22.4352
16.5511 18.2303 23.2447
10.3529 17.5863 29.576
17.0988 25.9926 36.3687
6.63794 6.15787 11.388
18.0436 26.4354 31.8054
7.69949 9.32893 14.9513
9.62991 15.9667 30.3154
14.3716 22.4684 30.1352
6.94744 6.04698 13.8506
12.1202 9.37259 6.58825
7.61474 7.16654 9.34374
16.4766 21.7153 20.4417
11.7773 25.3866 46.1995
9.48679 10.2203 10.8392
11.3916 18.6494 25.2597
3.63055 6.84064 18.7116
24.1106 26.7527 22.0737
20.3891 40.0699 62.0557
13.0801 28.4202 63.7693
35.1275 57.6522 80.5109
7.38234 9.85075 19.6453
3.15277 11.2856 40.504
24.7405 31.8998 47.1225
30.2392 47.9237 68.7984
23.9686 34.3544 60.2543
21.249 20.7105 15.4549
9.06374 17.9312 32.2761
16.6783 23.8059 25.0171
10.8136 26.1871 44.0173
10.5343 9.39033 13.3424
3.98601 5.65515 6.74328
3.13189 4.0251 5.31898
1.29701 4.4725 14.2488
13.364 21.8033 35.9069
6.00918 7.83332 12.4752
7.57757 9.14438 13.8357
7.81934 12.1835 13.0851
3.18261 8.18259 21.6126
9.44137 16.4255 29.7255
8.97295 5.88915 3.64565
19.3924 43.1951 68.7471
7.43381 4.06236 10.6005
16.9913 28.8854 35.4515
5.17575 5.84225 9.95966
14.9067 26.2348 37.1693
3.73663 9.5849 29.3902
15.3086 18.7211 21.8594
2.53501 7.38185 19.8796
6.13 7.26276 14.9079
16.8582 24.2299 25.5382
9.36796 24.9761 43.1298
8.20517 11.4797 21.4427
6.8471 12.6797 26.7481
14.3775 20.1489 31.1752
8.55805 11.007 11.0893
3.28635 9.21053 21.3202
19.4232 31.322 40.3196
4.54732 12.4563 28.1025
6.88259 8.0227 15.4382
8.85496 14.9848 33.8377
21.0832 35.1067 42.4501
16.7527 37.7967 70.3183
18.1255 37.6083 70.4626
19.8404 44.6956 98.9911
21.4364 21.7363 28.117
6.29152 3.96108 4.14746
1.71176 6.1903 28.1336
15.3684 16.7014 13.2499
0.507285 3.17824 18.7647
25.7901 49.2728 73.9647
4.93664 13.7965 47.6525
18.2144 25.7885 52.0533
22.9025 34.298 46.5958
12.4992 13.838 13.7139
8.58959 14.568 22.8904
13.0535 30.4998 62.0133
23.7195 33.7189 37.3232
5.30934 13.9877 29.3635
9.80907 16.6284 33.9744
13.4898 25.9226 43.6813
20.9321 39.8613 68.5384
6.04752 7.45411 21.8926
15.1207 29.2215 43.5399
10.6328 19.6691 33.8152
8.8305 16.7141 31.7106
5.32233 10.4709 28.3536
15.3026 30.4518 56.5042
13.7306 25.7014 44.5159
14.0819 23.7715 40.7126
13.0162 21.7442 32.312
3.47097 9.84945 43.6903
25.9937 31.5078 30.1239
12.0938 26.0966 38.7705
4.49304 15.1296 41.5974
9.806 15.3544 34.6884
11.6816 21.9357 31.9496
8.9936 15.2554 28.1205
6.71362 11.3159 25.3916
6.34781 8.99614 19.0133
9.35687 21.3298 42.309
15.4117 20.8747 24.8232
9.45528 24.8798 47.1876
11.6805 22.2295 40.5414
13.1327 22.2185 23.8726
2.67229 11.6761 29.4842
10.6275 19.6146 36.6062
2.42471 1.15703 5.3442
4.56732 13.3284 40.3259
23.3652 38.7042 51.2443
2.56162 7.86356 28.1957
9.45982 16.8161 35.6248
11.1834 21.5603 37.8931
10.8295 25.9736 61.6783
30.0557 51.0595 73.0177
4.72158 7.15342 12.3681
5.98881 20.1573 46.2344
4.76202 6.23001 14.5986
5.48939 8.0111 16.7548
8.72442 20.327 40.063
7.49395 12.1191 18.2565
5.01038 11.1453 28.4353
6.47671 15.3188 28.3678
5.5239 13.7892 33.9055
9.44744 14.1755 38.5676
15.5911 28.1222 37.5037
3.82427 5.51727 18.9166
18.8283 48.6474 107.45
15.371 21.8373 38.0664
14.2512 25.76 42.9603
5.81249 9.17318 10.7207
1.94279 7.39087 18.8401
4.63303 13.3881 36.388
9.71627 12.7989 19.7378
2.41858 4.26091 9.52898
1.44939 2.57587 3.01592
4.42055 14.9172 35.9128
6.48173 15.2058 45.1089
4.97761 3.61727 23.7795
18.3694 30.8028 31.0271
5.82052 13.2942 17.1856
5.8258 21.681 60.7071
9.71822 12.2286 25.9648
10.992 20.1068 22.9102
3.07477 7.44143 16.7979
11.9027 35.1495 71.8953
8.08255 12.357 27.3822
6.06968 14.7553 47.7934
18.2972 32.5488 54.1198
14.1214 36.1479 75.4837
7.79265 16.4225 59.6362
11.816 14.8748 19.3551
4.45875 9.92069 41.9777
24.0326 46.5465 61.9565
4.34095 8.99482 27.3893
8.45521 14.239 37.492
21.6547 52.2345 85.3311
14.6797 26.105 38.9544
8.2412 24.8167 59.9158
6.85524 9.84448 28.7673
17.0045 42.6117 64.8793
4.12315 11.4422 26.2637
1.05306 9.38616 41.326
10.3262 22.3267 53.7808
6.43765 4.95594 5.69116
6.35425 21.5354 54.4482
14.5901 30.7498 69.4764
12.1397 18.8399 31.5545
5.59364 14.3914 31.6513
6.48866 19.7742 68.9683
13.8265 20.9118 34.5873
10.5478 30.7503 68.0603
13.0272 23.9023 50.5833
10.519 12.639 14.0064
4.43297 9.49253 17.019
3.64146 11.6876 31.6922
5.15381 8.77256 17.7059
4.81184 19.1756 51.0143
4.51236 7.28709 31.4687
10.8888 12.6463 7.55526
6.63767 22.9169 44.2542
7.79196 21.4395 52.2643
7.02896 19.8084 69.4396
12.4972 15.9003 17.9863
4.00728 7.95948 20.3974
9.59552 22.7619 34.5624
1.66607 5.00287 16.4453
6.01545 18.7328 50.2961
9.74747 13.3553 15.1944
8.3499 30.8749 70.4996
9.51471 24.1523 60.8485
4.19377 14.2696 75.7372
18.8275 22.2272 27.9727
7.03969 10.9474 11.69
13.9041 43.7044 85.2066
1.15714 10.4512 83.4147
20.3815 35.4517 48.6137
3.26393 5.98555 18.6487
5.92979 14.595 40.3447
9.27243 20.7601 38.785
3.81464 9.09027 23.4957
3.69411 13.9855 73.2646
18.7459 33.4173 40.2757
3.63527 6.47744 18.7013
10.0295 26.3403 50.2987
7.78094 16.5803 30.3946
2.86327 6.40572 10.0249
3.20279 9.66072 30.0369
9.81787 28.4238 62.166
7.93298 27.2043 84.1756
11.1127 12.2649 15.2953
8.5067 24.2886 53.8958
6.15252 15.4444 65.3718
14.0325 21.2546 18.5752
6.62767 28.7128 72.6945
9.40774 21.4661 41.5949
4.17095 13.2036 57.2328
12.8001 20.8303 15.2706
3.07052 17.2461 42.2157
3.65019 3.88705 8.61477
2.49252 7.88863 23.5154
4.84993 11.0926 28.6913
6.76865 14.3358 20.6188
4.75792 23.6498 57.3917
2.25915 4.66012 36.6964
6.35347 10.7631 34.6905
12.4454 34.0403 69.9965
7.12806 9.84043 9.15882
0.713904 9.32089 51.4955
12.8912 32.2949 52.7024
4.42512 15.9875 54.7914
4.57999 7.75606 40.5698
8.62644 5.91704 9.78192
13.3986 43.5077 97.4841
11.6058 20.0164 31.6384
3.27981 19.6611 93.996
15.0289 19.1777 22.0589
7.07053 18.0363 35.3326
