# pn-170911/RbII-17-RbIIA-1280-1959.psd
# Power spectrum* (dif=0,1,2) (really just |FT|^2)
# NOTE: only the first half! (symmetric)
# weeks: 1280-1959
# 158 clock-days, 61 excluded
# PSD: 1441
2445.31 0.0990574 0.0161656
237547 4.75354 0.0087981
1.00468e+06 22.0483 0.00841126
294880 10.0153 0.00809686
199121 14.4426 0.0087617
89812.7 8.91498 0.00954914
75148.8 9.94211 0.0117042
50651.5 10.3461 0.0108219
41878 10.5991 0.0123983
32750.6 10.3665 0.0126143
26665.2 11.0938 0.0127957
25960.3 11.524 0.015118
18321.1 10.3796 0.0148276
14948.9 9.80686 0.0187301
13250.5 9.53701 0.0168374
11434.6 10.342 0.0201214
9241.16 9.4064 0.0176988
8862.03 9.73935 0.0210128
6208.37 8.40528 0.0249663
6732.34 8.68579 0.0227543
5377.65 9.12934 0.0261499
5491.11 9.7361 0.0303032
5744.84 10.5002 0.032316
4926.84 9.97016 0.0313712
3778.48 8.07041 0.029121
3986.27 10.2274 0.0331242
4443.68 11.2215 0.0420609
3725.37 10.3937 0.0437899
3259.54 10.8232 0.0486211
3298.59 10.7051 0.0523481
2852.9 10.1406 0.0493471
2388.35 8.36687 0.0478978
3112.69 12.0843 0.0688263
2424.19 9.67552 0.057706
2175.59 10.0046 0.0637765
2037.41 9.40948 0.0622354
1819.58 8.4634 0.059777
1815.93 9.69978 0.0659921
1780.61 10.9899 0.0839688
1597.68 9.45249 0.0731515
1454.72 8.49329 0.0709655
1841.91 11.4229 0.0972085
1535.03 10.974 0.0978218
1284.52 9.2346 0.0977196
1580.63 11.6192 0.121798
1247.19 10.0397 0.109792
1284.91 10.2456 0.111045
1218.66 10.1778 0.119858
1050.03 9.6477 0.115481
988.7 9.51839 0.117564
843.592 9.18425 0.118561
894.49 8.54957 0.111683
923.366 10.3361 0.139204
836.756 9.42104 0.127168
822.855 9.78767 0.143343
789.295 8.36399 0.133096
773.372 8.48995 0.137264
790.968 9.28829 0.159717
857.808 10.9475 0.187645
700.776 9.57592 0.170762
669.096 9.79904 0.167817
713.157 9.46919 0.162989
648.596 8.56623 0.16106
612.625 9.90522 0.199661
684.092 10.8883 0.234824
630.854 10.5516 0.225832
575.265 9.23772 0.190327
674.108 11.5409 0.256491
543.37 9.93006 0.230075
517.631 9.34201 0.214455
484.634 9.40521 0.216182
582.4 11.3685 0.285781
484.123 9.41738 0.24939
450.943 8.92799 0.240585
482.352 10.1589 0.27606
514.345 10.6286 0.292735
427.134 9.71367 0.278529
488.695 10.6501 0.31471
382.224 9.37012 0.277632
373.052 10.414 0.321658
371.291 9.00334 0.288187
415.1 10.9766 0.342814
354.112 9.95348 0.324669
401.048 10.0502 0.353934
346.214 9.8619 0.342885
410.602 11.5434 0.403425
364.354 10.1843 0.371361
341.601 11.0343 0.403708
326.536 9.72526 0.352583
305.216 9.65342 0.384461
269.509 9.12343 0.35097
308.047 9.80754 0.381018
348.523 11.175 0.442705
280.469 9.55071 0.402341
264.872 9.19027 0.403189
297.596 10.4462 0.456419
300.614 10.3917 0.458074
305.634 11.0046 0.479954
309.512 11.1814 0.527256
277.608 9.80165 0.466511
243.166 9.31096 0.45849
257.128 10.3035 0.519632
241.119 8.91715 0.455558
243.624 9.94165 0.497437
275.379 10.4925 0.546988
213.273 9.25284 0.49786
195.911 8.96046 0.493864
233.135 10.654 0.585449
214.139 9.96081 0.555007
208.785 9.11214 0.533809
261.736 12.1267 0.703261
234.378 10.8737 0.65962
228.875 9.46262 0.549808
201.274 9.63694 0.582042
214.437 10.0255 0.64548
206.006 9.43657 0.61633
206.755 10.8119 0.736971
173.356 9.03483 0.596955
207.205 11.2203 0.748719
170.136 9.5446 0.654737
174.409 9.37547 0.656599
202.564 10.7917 0.747663
171.629 9.98754 0.713102
180.709 9.96815 0.747777
174.98 10.2508 0.734853
147.657 8.35563 0.610106
158.606 9.3474 0.682292
158.229 9.62221 0.741457
152.741 8.38202 0.65055
133.207 9.07002 0.707674
152.413 10.1075 0.811476
160.758 10.0324 0.815105
121.556 9.12208 0.778748
126.749 8.35378 0.68146
143.784 9.65087 0.823399
150.463 11.1123 0.939627
120.338 8.06295 0.718048
152.581 10.9007 0.966988
129.221 10.0866 0.883066
126.645 9.30596 0.848072
122.725 9.20855 0.860321
112.753 9.12858 0.849992
128.792 10.0019 0.98178
128.841 9.39318 0.889256
131.266 10.1618 1.02127
140.788 11.1069 1.07703
119.99 9.6763 0.977226
116.643 9.53308 0.993129
111.236 8.99763 0.951915
111.341 9.42384 0.986224
119.78 10.1179 1.08409
132.123 10.7006 1.15578
118.891 11.3813 1.26167
119.96 11.3134 1.23947
103.023 10.3836 1.21712
118.92 10.5919 1.15883
116.789 10.2152 1.16359
108.478 10.2294 1.20529
92.1521 9.08197 1.09801
99.8487 9.62357 1.15801
90.4002 9.6415 1.16663
110.07 10.1552 1.25752
107.097 9.69105 1.20711
93.65 10.0218 1.26752
96.3929 8.91671 1.11759
92.1162 10.1055 1.36361
111.555 12.0173 1.53051
103.292 10.7248 1.44555
89.771 8.6119 1.15752
93.1798 10.0117 1.33508
82.9736 9.39153 1.29034
84.5182 10.057 1.43169
99.4488 11.8017 1.62288
94.3914 9.98262 1.39854
89.9019 10.4904 1.47359
81.3983 9.25026 1.35717
86.732 10.4326 1.57187
85.6097 10.8549 1.58218
90.3045 11.5219 1.71224
69.0738 8.98988 1.38866
86.6947 11.432 1.66518
79.258 10.8044 1.73019
80.0415 10.3344 1.59575
80.9185 11.0878 1.76431
73.2023 9.66301 1.57468
66.4893 8.32374 1.39389
72.2095 9.43784 1.51112
71.2596 9.90914 1.64576
69.3263 9.32778 1.57796
63.0842 8.98797 1.51324
76.0831 10.1676 1.71952
84.4187 11.7133 1.9757
78.9382 11.5523 1.99492
70.7308 9.91573 1.68741
69.1494 9.36509 1.7135
71.3214 9.81038 1.70974
57.47 8.16556 1.50362
68.4539 9.98074 1.83522
64.4386 9.56264 1.75302
72.7968 10.9092 1.9787
66.3337 9.44705 1.70885
66.057 9.90167 1.87405
65.5757 10.0066 1.99873
72.4659 12.1535 2.39577
65.0161 11.0615 2.19901
58.1264 9.58776 1.83489
56.5825 9.22194 1.85847
55.9502 9.12139 1.79238
57.4042 10.7549 2.22528
61.5609 10.7915 2.23123
62.0707 10.0366 1.99692
61.7068 10.6918 2.1852
57.0968 10.1324 2.10046
62.2313 10.9568 2.33404
68.4191 11.3393 2.41782
54.9238 9.42708 2.05584
57.4622 9.39513 2.07715
55.5034 9.61617 2.07511
54.8096 10.0501 2.26997
60.2727 10.2765 2.32773
48.0525 8.58435 1.95816
53.2934 9.33116 2.11696
50.7366 9.90273 2.30728
47.5625 9.83906 2.24623
48.5543 8.90785 2.19514
51.8647 11.1905 2.63343
53.3776 10.1703 2.38109
51.5726 9.88879 2.34226
49.5183 9.8065 2.36866
62.7667 11.5706 2.83962
49.8321 10.2397 2.5155
48.2941 9.90496 2.49001
51.8988 10.7081 2.79583
46.0703 10.1247 2.51326
40.6753 8.21762 2.14942
48.8732 10.0961 2.54727
46.5784 9.70212 2.55577
48.2055 9.8013 2.57724
47.4311 10.3172 2.68694
46.4842 9.59496 2.56753
44.2014 9.73874 2.57755
49.854 11.1144 3.05949
42.8144 8.80385 2.39917
42.7011 10.0259 2.66152
45.0699 10.4833 2.9194
44.6241 10.5116 2.87102
50.4074 10.7541 3.09226
41.4528 9.42995 2.58109
49.0183 11.8919 3.40897
40.4981 9.49178 2.74704
41.9553 10.3591 2.95539
49.0215 11.9276 3.55823
47.1284 11.7438 3.46159
41.1904 10.3051 3.10704
39.9849 9.45367 2.94186
38.2029 9.18876 2.78011
34.0841 7.92512 2.46127
47.6074 11.1697 3.41863
42.4441 10.2729 3.15989
35.8975 9.77314 3.00147
41.564 11.1312 3.4663
38.7249 9.8165 3.08785
38.4813 9.77797 3.15411
40.4558 10.4906 3.28317
36.916 9.97897 3.19905
29.8678 8.9402 2.94844
38.4268 9.52396 3.02655
32.3856 8.28128 2.82901
40.4976 10.7087 3.57649
36.2342 10.1167 3.41334
37.4439 10.2677 3.47215
41.3297 11.6378 4.00426
33.4861 8.34305 2.80609
34.2954 8.85773 3.08711
34.7132 10.0284 3.50967
32.3678 8.75628 2.98877
32.2044 9.77065 3.43095
33.3982 10.0402 3.70703
32.5864 10.0602 3.48751
36.3782 10.7161 3.8686
29.1905 8.62163 3.22169
35.519 10.0665 3.54266
30.1698 9.12128 3.3324
34.0726 10.1418 3.92715
30.0318 10.0053 3.89059
36.2311 10.4205 3.92416
31.88 9.32188 3.50549
32.4941 10.085 3.86302
31.3159 10.3489 3.91327
33.7642 11.0125 4.22775
37.2415 12.7101 4.96923
29.8553 10.2197 4.14492
36.7084 10.9013 4.12074
32.2118 10.4453 4.00316
31.8557 10.0835 4.00108
31.4757 9.33549 3.64356
38.1037 14.0488 5.68075
29.6181 9.69013 4.10174
33.9874 10.4463 4.15827
28.499 9.70715 4.00869
29.2537 9.6444 4.06198
26.4649 9.24711 3.9122
31.2839 10.0093 4.13677
28.6323 10.4519 4.42686
29.6407 11.104 4.66242
27.6312 9.00664 3.80608
29.2073 10.3417 4.40649
29.8472 9.53026 3.95253
30.3191 10.9686 4.68752
31.4104 10.5792 4.50078
25.4241 9.22741 4.1538
26.6713 9.92555 4.37334
23.8252 8.25542 3.75624
30.1321 10.3155 4.62891
29.6546 9.82739 4.35807
26.4173 9.43258 4.14398
27.9662 10.1751 4.78886
24.9096 9.70855 4.52924
24.2558 8.5947 4.11387
26.5787 9.71828 4.39309
23.3259 9.15625 4.31442
26.9893 10.07 4.86467
27.1043 9.84439 4.61997
24.5469 9.70451 4.90073
26.4512 9.9156 4.70036
23.6718 9.63885 4.64235
26.0435 9.99746 4.81915
30.1584 12.3927 6.29216
23.9024 10.2404 5.00411
25.2622 10.2808 5.00035
23.8661 10.4283 5.40937
27.5603 11.4689 5.6964
24.4498 10.2754 4.87513
22.5805 9.67557 4.93072
24.8383 10.4319 5.39164
25.7505 10.461 5.46826
23.1131 9.07875 4.61719
23.7266 9.47173 4.64507
27.3693 11.3459 5.8998
27.3775 11.9497 6.45355
25.8632 10.7574 5.61016
20.8896 9.44293 5.1321
23.636 10.795 5.72587
26.1038 11.7452 6.14619
20.5685 8.66394 4.63394
19.6166 8.25571 4.30258
23.0715 9.37755 5.13733
24.9207 10.435 5.80314
20.9324 10.1935 5.85667
20.9145 9.29957 5.02584
19.2885 9.49278 5.25136
22.1079 9.56288 5.35363
22.2322 10.2499 5.82427
24.3206 10.5229 5.83449
20.4998 9.14069 5.39504
22.1452 11.1991 6.44344
22.6129 11.0176 6.37183
23.5761 9.94778 5.68864
20.494 9.78473 5.42859
20.4393 10.6771 6.4911
23.1341 11.2485 6.16341
21.049 11.1435 6.66692
18.5267 9.2408 5.44787
22.0251 10.0012 6.33919
22.4845 11.0218 6.55605
17.5834 8.27322 4.95799
21.1641 9.83902 5.98822
21.8066 10.5675 6.19983
17.5963 9.0299 5.4331
20.0369 10.9393 6.82845
18.8485 8.70281 5.39702
21.297 10.874 7.11089
21.551 10.6022 6.66004
21.1383 10.454 6.48923
18.6433 9.33205 6.05946
21.5701 11.6496 7.15561
19.9798 10.551 6.6834
21.9257 10.2376 6.48108
18.9986 9.50478 5.8739
18.8455 9.84579 6.62686
22.4246 11.8278 7.55127
19.5757 10.0432 6.47591
19.6243 10.1866 6.56288
19.8834 10.2947 6.5597
18.0665 10.9452 7.44456
19.5349 10.448 7.1329
20.3866 9.83383 6.12001
17.0722 9.16336 6.38431
18.9172 9.81037 6.65874
16.4421 9.51751 6.58272
15.8958 9.14398 6.60385
20.0878 11.3687 7.79246
15.1953 8.99504 6.31966
18.5882 10.344 7.10179
19.6954 11.6231 8.06557
15.8673 10.0078 6.99592
16.9499 10.3762 7.64575
20.596 11.7645 7.9495
17.8269 10.2058 7.2959
17.7715 10.2053 7.31039
14.691 9.59249 7.22354
15.8772 9.31839 6.75065
18.9696 11.1023 8.09651
18.9834 11.2921 7.85514
17.3885 10.8323 7.8092
14.3804 9.56631 7.3756
20.4046 11.6564 8.09112
15.6461 8.80483 6.53076
15.36 10.0491 7.84699
17.0256 10.8768 7.93048
15.0248 8.4861 6.26104
15.7731 9.0604 6.80439
16.5388 11.9056 9.06308
16.1842 9.44987 7.09353
15.4217 10.2336 7.71721
14.5116 9.7923 7.68793
16.5899 10.127 7.61957
15.6811 9.60359 7.56611
16.6034 9.75814 7.36425
15.049 9.86712 7.87803
17.5397 11.5064 8.99301
13.8782 9.68622 7.86318
17.0178 9.93316 8.30694
16.6967 10.6389 7.82339
15.002 9.601 7.6821
13.9845 8.59678 6.98268
14.9454 10.4589 8.24371
16.6671 10.5686 8.34016
13.4981 9.38374 7.71425
12.573 8.89406 7.51
15.6422 9.36098 7.51442
12.9466 9.13172 7.31755
15.4728 11.2254 9.20948
17.8425 12.0963 9.71838
14.7556 11.5241 9.55022
17.2506 12.0189 10.1528
13.8181 8.87242 8.04242
14.1088 8.46531 6.77838
13.5252 8.27802 6.93494
16.8967 13.3775 11.8171
15.0685 10.0854 7.98696
15.0505 10.6947 9.76959
15.1991 11.1349 9.1945
15.0302 9.89145 8.07855
14.9425 10.8365 9.57226
13.9513 10.8438 9.82707
17.2318 11.9406 10.2151
12.7439 8.96738 8.14982
14.6674 10.0434 8.97913
14.777 10.1587 9.01413
13.9782 11.1833 9.48985
12.8757 9.33946 8.45014
14.1121 11.5468 10.8105
12.9822 9.36934 8.43469
14.248 10.1273 9.19536
16.0451 11.9253 10.99
15.0691 10.675 10.1588
15.8619 11.7549 10.0752
13.4695 10.3082 9.7182
13.1955 9.66514 9.13738
15.8193 12.8388 11.9088
12.7491 9.45235 8.74838
13.6439 9.97355 9.29666
12.543 9.08405 8.45133
13.2026 10.6744 10.0123
12.4623 8.92215 8.35967
12.1054 9.6037 9.3671
13.0863 10.2092 10.0846
15.875 12.5971 11.0384
12.9753 10.0215 9.47926
11.0412 8.82771 8.78898
12.8341 10.2547 10.4988
14.5401 11.2467 10.5357
12.9433 11.0519 10.4812
11.8608 9.24087 9.38592
13.5761 10.2265 9.93092
12.6016 10.0199 9.60718
14.0068 11.6441 11.1143
11.6149 9.99673 10.586
11.8762 9.35586 9.74177
10.2368 10.0177 9.95479
12.0985 10.3029 9.98433
11.8403 9.44638 10.0442
12.2281 10.5929 10.8428
13.6756 10.546 10.8478
13.0612 12.1839 12.0666
12.7592 10.0255 10.2867
13.4092 11.3269 11.6635
13.2294 11.27 10.644
10.9894 9.82299 10.7687
13.621 12.2207 12.2742
11.9142 10.1235 10.4781
11.7862 10.2176 10.7404
12.0869 11.0211 11.32
11.8884 10.4861 11.0123
10.7551 9.19511 10.03
10.7912 9.03318 9.47223
12.5576 11.3384 12.3379
13.3267 10.9509 11.4631
10.2337 9.07275 10.0173
12.1973 10.6785 12.4248
13.7282 11.5232 11.6497
12.5856 10.548 11.0869
12.9468 12.4738 14.3421
12.6673 9.89044 11.2555
10.8983 9.06928 9.39232
10.7657 10.2073 11.7055
12.2057 10.8614 11.2868
10.2711 10.0891 11.961
12.307 10.5261 10.9292
10.3276 9.61451 10.9875
11.7041 10.6986 11.673
12.0146 10.2966 11.5489
11.019 10.7136 12.2461
11.3697 10.2596 12.0079
11.87 11.8636 13.5073
10.1294 9.87351 11.7514
11.8305 10.2031 11.3202
11.7459 10.4449 12.0272
11.1044 9.0998 10.7635
10.7557 10.8089 11.8778
11.2689 10.8095 12.335
10.2228 10.2244 12.411
10.4272 9.64351 11.4675
12.0916 11.7887 14.2055
10.8486 9.96872 11.3895
11.268 10.6986 12.0573
9.6261 9.74509 11.6132
9.53399 10.3664 12.4901
11.2229 10.8472 13.0416
10.1181 9.38397 11.6385
10.5914 11.7324 13.8362
11.688 11.9344 14.323
11.7892 10.8837 13.3177
9.77054 9.11125 10.4572
10.82 10.125 12.1156
9.95752 10.5314 13.8079
10.1405 9.72555 12.1801
9.99515 10.6547 13.0081
9.3491 9.56449 11.6175
10.6714 11.3006 14.0629
10.4894 11.1029 13.9224
11.3818 10.8268 13.2942
10.7598 10.3184 12.7409
10.3429 10.1194 12.6297
9.90609 10.3252 12.9689
9.2552 10.1183 13.1047
11.4584 12.6462 15.4177
9.92486 10.6514 13.2951
9.15858 9.41532 12.6435
9.77551 10.119 13.0046
10.1684 9.8279 11.8188
9.41616 10.3791 13.6005
11.5188 12.3488 16.2937
9.28786 10.5874 12.9296
8.83821 10.0201 13.591
10.517 10.7764 14.0951
10.3353 10.3599 12.7545
10.9325 12.6976 15.7865
9.10445 10.319 14.4502
10.739 10.7042 13.8838
9.33026 9.88231 12.5363
9.94944 10.1266 13.0833
9.13489 11.0009 15.6764
9.75572 11.2458 14.9522
8.7723 9.49915 13.6938
11.6281 12.83 16.1489
10.148 11.9085 15.7067
10.596 11.9697 15.3306
9.23426 11.1592 15.1547
10.2777 12.1319 17.3226
10.2689 11.5845 16.0556
9.91602 11.0627 15.7784
11.1029 12.6761 16.6792
9.19677 11.575 16.8416
10.704 11.2953 14.7118
10.6126 12.1584 16.0572
9.39503 11.255 15.9902
10.4795 11.1388 15.8599
8.78175 9.90181 14.3723
9.77026 11.4331 15.8323
8.62987 9.85909 13.103
9.30416 11.0268 15.9547
9.05178 9.74611 13.2037
9.85477 11.8191 17.3212
9.38071 10.4509 14.9451
9.57043 10.2776 14.4216
7.5591 8.76009 13.7529
9.59048 11.5244 16.8266
10.8274 12.2307 16.8174
9.52911 11.124 15.987
7.80694 10.5988 15.48
7.87227 8.87793 13.2532
9.63564 11.1302 15.4919
9.35048 11.8117 16.8068
9.83445 11.5513 17.3674
9.55119 12.0729 18.0324
10.2681 12.0147 17.0838
7.61822 9.174 13.8427
8.8323 11.6094 18.696
9.48065 11.9229 17.1234
11.2699 13.9399 20.2421
9.42021 11.1659 16.8221
9.77049 12.3682 18.1207
9.30964 11.6716 18.6367
8.79043 9.95773 14.2216
8.92065 12.2703 18.2462
9.23716 11.3631 17.098
9.27851 11.9794 18.1156
8.49621 10.0216 14.9159
10.1932 15.0008 24.4857
9.94084 11.284 16.9164
8.97548 10.0461 15.2856
8.01337 10.0428 16.4582
9.04734 10.5104 16.2573
8.79652 9.73788 14.2851
8.37293 11.3538 17.5373
8.28129 10.436 18.3302
10.0494 12.5529 18.5641
8.56695 11.6134 17.0957
8.03014 11.1312 16.9815
8.07209 8.89271 14.778
8.96145 12.2891 18.2022
8.36266 11.3168 16.8088
8.60142 11.3917 17.4764
7.79303 10.4266 16.1013
7.21131 9.89765 16.7534
7.86104 10.2669 17.1396
9.46351 13.0687 19.5836
7.96431 10.7271 17.6903
9.64597 12.0548 19.1183
7.7799 10.309 17.5249
9.51853 11.7761 19.0266
8.00279 10.4074 17.3491
9.22345 12.4852 20.5838
9.13358 13.1792 21.0637
8.61878 12.5452 19.2589
8.10492 11.0925 18.0305
7.73172 11.0587 18.0461
7.80676 10.543 16.6805
7.1427 9.55913 16.5181
8.13772 10.5903 17.4605
7.49329 9.76576 16.8
7.42204 10.5373 17.5858
7.95317 10.663 17.474
7.05816 10.0926 16.438
7.17574 10.5133 17.0356
6.71983 10.1103 18.4194
7.23293 8.5797 14.0522
7.59956 10.8894 18.5082
6.47308 9.4354 16.2199
7.04291 9.955 16.7674
6.44722 8.88731 16.1511
7.10175 9.92132 18.4002
8.28677 10.9189 19.2283
8.21597 11.5546 17.6037
7.45426 10.6248 18.4682
7.52021 10.6777 19.3179
7.81379 10.4084 17.4829
8.02217 11.4743 20.3268
7.36655 10.1001 16.5264
7.64231 11.2004 20.3817
7.07264 9.67831 16.8076
6.75543 10.0815 18.1984
8.32046 11.9365 20.0461
7.58389 10.1987 16.9749
7.53459 11.6789 20.5126
7.0156 10.2947 19.3745
7.69651 11.6118 20.5257
6.87124 11.3626 20.8052
7.4381 11.3826 22.3355
8.65242 13.5104 21.2655
7.13028 11.1833 20.5642
7.99768 12.1779 20.6378
7.4868 11.9945 22.8827
6.99763 9.43907 17.3932
7.38449 12.3891 21.5127
7.64014 10.7933 19.9483
7.2682 10.4126 19.1697
6.99337 10.1626 19.076
7.70788 12.2297 21.55
7.4448 11.2488 21.5116
8.03712 10.6369 18.8889
7.6856 10.3746 17.9769
6.18638 10.7055 21.7694
7.55882 11.6065 21.8511
7.11823 12.1124 21.6059
7.12502 11.6448 22.9557
7.88887 12.3739 24.6039
7.95166 11.3785 19.3719
7.8885 11.4436 20.3454
6.97813 10.4103 20.7269
7.37693 11.9245 22.3215
7.69518 13.0176 21.8815
7.75364 13.3948 25.7853
8.13689 12.7058 24.0231
7.34544 11.0637 21.4332
6.5798 10.5843 20.0635
6.90878 12.179 22.6223
6.95286 11.1945 21.4438
6.66519 9.44348 19.939
8.04617 11.4439 22.5092
8.14275 13.8448 25.8843
6.99796 10.7224 20.5394
7.23096 11.9265 21.3819
6.72456 11.4728 24.1571
7.56797 11.6842 22.1172
7.76442 13.211 27.0207
7.59733 11.1422 19.826
6.77439 11.3588 22.7548
7.50463 11.5867 21.1313
6.69934 11.5777 24.453
8.41775 13.4133 23.7284
5.90015 10.6412 22.6324
7.87945 13.1173 26.561
8.18671 12.6884 24.4547
6.15039 8.98971 18.3789
6.66353 10.8025 22.0061
7.26617 12.0511 24.9342
6.91039 12.0924 23.0089
7.39397 12.5236 26.1415
8.13321 12.522 23.3043
7.46778 11.7369 23.4515
8.06392 13.0504 22.6289
5.55008 11.106 23.0261
6.21307 11.9644 24.1747
7.30793 11.4314 23.938
7.11063 11.6341 24.1214
7.48637 12.6013 23.948
5.63928 11.086 25.831
6.67014 10.2079 21.3409
7.00387 10.9149 19.6895
6.24491 11.387 25.2568
6.6613 11.1963 21.6802
6.66234 10.4777 20.3668
6.16997 11.5836 24.367
5.86293 10.2655 22.1037
6.32018 10.2084 22.4785
7.05933 12.0496 23.8275
6.29351 11.1643 24.5496
6.70445 10.6889 21.1323
6.74324 12.2173 26.6175
6.73039 10.8339 21.4459
6.57368 13.0925 27.9224
6.55962 10.4133 22.9193
6.11857 11.2944 24.1174
7.02568 13.0117 26.0847
6.62322 12.2316 25.9365
6.26702 9.995 21.8309
6.23865 11.0947 23.5271
6.15806 11.2586 23.2182
6.72536 12.4085 27.9181
6.5254 11.8888 26.3818
6.33704 11.837 26.0068
6.85435 11.8341 24.0164
6.4166 11.8602 23.7412
4.99695 9.15666 22.9806
7.22052 12.0135 26.4844
6.40376 11.7938 24.6275
6.56917 10.9724 24.0294
5.94465 12.5743 28.2063
7.11468 12.4344 24.2767
5.37225 9.51202 21.238
5.97677 11.2995 23.4877
5.24456 10.038 23.0821
6.84006 11.2201 22.4964
5.70953 9.77732 22.9538
7.20558 12.51 24.6532
6.22877 12.6918 27.9288
5.66999 11.4229 25.5083
5.28378 9.69775 26.2023
6.80566 11.3305 24.5964
6.24236 10.7696 22.5079
5.38893 9.78765 22.8265
6.81238 11.9732 26.0572
5.70329 10.3361 22.1655
5.54121 10.0847 22.6269
5.24897 11.7219 30.4517
6.67695 9.93321 18.7545
4.79736 9.46997 24.28
6.7139 11.9965 25.0708
5.54498 10.3748 23.7854
5.69435 11.122 25.7069
6.35881 11.7281 25.1395
5.54119 11.4733 27.3179
6.86308 12.1203 27.1824
5.56242 10.7264 26.3341
5.78552 11.9019 26.2473
5.81294 11.5661 24.5278
5.4458 10.5277 25.0726
5.5245 11.2178 26.0527
6.02041 10.2991 24.9322
6.33337 11.5135 26.3608
5.46989 11.4504 25.7354
5.13049 9.42173 21.4216
5.49915 11.6301 27.7785
5.24868 10.3087 27.4736
6.38842 11.2838 26.5466
6.00417 10.2853 23.3261
5.75386 10.3413 21.866
5.14224 11.1612 25.6948
6.20135 12.5367 28.5197
4.9472 9.325 23.5131
4.7637 9.46323 22.6542
5.48864 10.5904 27.2032
6.72997 12.4638 28.0603
5.89357 12.0998 29.0293
5.35259 10.3631 27.0677
5.78311 11.1451 26.9793
5.24416 9.62062 23.6157
5.27932 11.5977 27.3122
5.79725 10.8044 24.9188
5.49721 10.2329 24.0875
5.79601 11.1727 26.2201
5.54758 11.4226 28.5823
5.61309 9.8089 23.3077
5.7527 12.5599 28.0867
5.17986 9.14608 25.0097
5.81081 10.8874 24.3831
5.42676 11.4832 30.1959
6.53393 12.7008 27.6948
5.71501 11.1892 25.1609
5.06322 9.55561 23.9834
5.11079 11.6974 29.2475
4.92306 9.48547 25.5193
5.90599 13.3085 33.7697
5.91091 12.7472 31.1896
6.14833 11.3088 29.7163
