# pn-170911/RbIIA-24-AMC2-1280-1959.psd
# Power spectrum* (dif=0,1,2) (really just |FT|^2)
# NOTE: only the first half! (symmetric)
# weeks: 1280-1959
# 1 clock-days, 0 excluded
# PSD: 1441
1069.81 3.25182 0.0374832
1.56094e+06 7.30957 0.0634415
2.0463e+07 573.4 0.0998032
1.21449e+06 31.6419 0.0849253
865302 36.3575 0.0409667
324867 51.8237 0.0368247
10750.1 32.0924 0.0620884
97715.4 58.1561 0.0418728
141507 3.99523 0.0773453
42745.4 0.797778 0.0618122
415234 240.138 0.0232593
53594.2 53.8604 0.0255356
67548.4 11.8953 0.115348
81504.4 68.279 0.230186
36185.3 7.7551 0.0283431
146357 107.353 0.346281
15616 21.1413 0.156152
65360 55.2501 0.281072
9210.06 64.5795 0.213485
23615.2 74.0722 0.328576
4183.19 41.9845 0.0881373
12111.1 17.7972 0.012203
4133.95 41.9063 0.0858114
14881.7 3.84288 0.118626
24398.7 19.7468 0.222625
7686.46 6.67371 0.0161121
32254.5 63.7399 0.501367
9410.8 10.9093 0.00463436
13303 59.5498 0.0673766
20947.1 141.238 0.894523
193.935 17.9187 0.137085
15630 17.7894 0.0403593
674.613 46.5927 0.302963
28506.6 54.123 0.450343
13605.9 68.1464 0.1319
161.947 26.4484 0.241219
4784.72 61.9482 0.671761
12614.6 42.5829 0.0774853
4079.1 5.59133 0.19422
22998.4 60.972 0.477448
2621.28 0.433141 0.0677093
58469.6 355.363 3.67935
2178.83 27.4626 0.115142
28817.8 125.465 1.40244
28462.2 137.91 1.64467
133.106 14.6334 0.21913
44449.2 294.644 3.66809
15110.8 68.9944 0.608561
150.048 26.352 0.284415
28824.8 190.214 1.906
3883.43 15.5232 0.0565817
575.371 10.3809 0.0659545
789.141 4.04974 0.0424152
7708.58 99.7939 1.97646
8090.91 35.9762 0.420437
1858.98 0.377982 0.099035
9431.2 110.786 2.44284
3582.52 7.42999 0.248103
5054.93 52.2714 0.421458
2292.03 112.861 2.07161
2087.97 1.48871 0.166823
4843.02 20.4563 0.563352
1336.46 38.7513 0.390116
1418.02 24.3274 0.211446
4391.08 19.1448 0.367729
2365.5 19.7004 0.812301
6106.12 43.394 0.917545
2043.16 21.6791 0.179572
586.621 63.3722 1.531
1816.4 31.7345 0.339454
1950.17 17.5381 0.175185
1538.11 117.678 3.05249
2662.84 13.2516 0.150396
2367.12 34.8433 1.41317
5175.71 42.3865 1.1871
2305.69 8.50397 0.335642
5313.02 55.2049 1.87575
1202.19 10.9331 0.738613
3583.51 30.092 0.895431
3013.83 51.5708 1.01992
2080.7 17.7508 0.939024
1753.63 33.6424 1.79365
3734.78 60.9443 1.4496
128.988 6.43002 0.232145
453.793 12.8866 0.759611
368.351 4.07618 0.0390873
1198.88 29.649 1.68138
155.165 33.044 1.58632
2543.73 24.6051 1.12622
268.179 53.3819 1.70837
285.989 7.44251 0.717245
7431.49 221.029 7.17176
2033.44 55.9327 3.11289
1871.35 23.4848 1.77721
2656.33 161.58 5.03025
2207.68 72.2203 2.18626
913.413 117.027 5.37196
2770.2 147.29 5.24886
2630.09 47.641 1.68681
311.733 5.97761 0.636927
3273.13 158.356 5.85848
1692.25 45.5296 1.65483
680.365 6.28824 0.154862
169.471 5.94775 0.1258
1634.5 113.356 4.46385
7237.58 426.033 21.551
564.931 7.07686 0.340692
2936.01 73.6715 4.43227
7.66248 30.6856 1.65383
2647.54 55.7651 3.54238
143.812 3.60171 0.244489
922.107 30.0157 1.5031
2870.89 138.242 9.25884
331.824 85.2257 4.95765
440.293 12.6719 1.35863
2087.09 49.644 4.00665
150.974 28.2469 1.05389
115.349 55.1094 3.31142
235.045 7.32198 0.295947
695.94 15.0052 0.517148
2216.37 90.6211 6.08949
1243.79 169.047 11.4169
275.697 16.302 1.82268
1796.35 41.2712 2.8192
42.2731 8.88776 0.537359
280.608 6.70881 0.814083
1375.58 41.9491 4.27708
738.9 24.5029 1.23525
388.475 1.37385 0.33368
1214.52 130.051 11.9374
437.695 75.6657 4.8696
1419.05 51.5478 3.19111
700.236 87.2796 6.15854
301.19 43.2905 3.93177
474.626 2.08587 0.298634
136.92 57.6013 5.70287
1981.08 94.7188 7.22191
698.452 21.2566 2.37881
590.314 59.3807 6.51804
104.11 2.48883 0.574536
688.818 166.317 15.3436
1252.51 51.8047 3.34574
323.41 66.3785 4.92722
17.4848 37.2117 3.44549
297.634 17.5766 1.09373
301.527 89.4538 8.59587
449.776 22.5688 2.81306
20.1859 47.6823 5.56486
1149.79 78.5114 7.27221
1760.82 78.7841 8.23322
494.356 38.3261 5.10519
133.653 40.2205 5.77335
469.812 4.77732 0.295641
961.853 42.2289 3.9975
747.808 119.606 10.8266
152.178 81.3031 9.35948
1217.13 46.6223 5.59208
5.47837 18.7374 1.51528
45.8596 17.6799 1.80531
716.219 213.635 26.0068
634.796 9.19093 0.755569
568.894 54.4059 7.57414
312.793 106.669 15.5026
126.627 23.7967 2.63331
65.4165 27.8889 3.81419
117.073 22.6651 3.64478
2014.11 126.325 14.549
498.788 58.8027 8.8731
352.081 40.1885 4.6652
1446.65 104.784 14.9706
386.747 56.5516 11.5903
378.29 34.5152 2.34789
464.13 17.7541 1.34223
379.604 16.3036 1.68921
199.691 82.3669 9.82059
144.628 60.2833 9.07495
705.957 21.1289 2.70164
668.248 63.4088 8.28389
321.437 12.3992 2.42917
21.2981 43.6546 6.20091
462.286 48.8374 6.25403
257.7 7.8094 1.46068
300.926 50.3273 7.80129
23.7682 12.8195 2.19668
139.61 19.982 4.3946
210.49 129.786 23.1246
335.904 63.5608 10.4072
1330.1 81.0751 11.0645
206.856 14.2983 1.39811
52.9027 9.27054 1.44164
435.074 18.3981 2.57726
13.5161 38.3537 6.33631
167.093 1.77982 0.192577
511.027 27.4519 4.84119
182.694 111.819 19.5008
20.5669 19.4235 5.30624
434.324 36.2602 5.1872
624.43 26.9606 3.902
43.7622 14.0101 2.6766
246.586 11.613 1.97639
742.353 42.8813 7.38655
168.8 1.2717 0.054779
313.77 27.2578 4.60644
392.895 30.1407 6.9185
410.873 34.1273 5.41645
26.0926 46.5485 9.00003
156.443 3.06493 1.27674
575.943 29.1679 4.5815
212.972 17.1337 3.08522
752.522 61.8668 13.7205
80.0964 6.09651 0.647924
20.4427 25.7583 5.83585
371.17 21.9001 3.6077
47.2124 2.71133 0.724482
306.383 79.596 14.9229
33.4871 20.5267 5.39278
198.874 3.38283 0.799099
118.513 0.666434 0.493542
577.168 46.4607 10.3869
79.5744 92.6604 22.728
707.295 44.0274 7.01434
807.679 86.0268 21.5087
219.916 13.9696 3.94567
13.0493 6.49177 0.619401
31.7612 29.391 6.55322
39.7785 3.68191 0.618382
297.702 132.309 37.7304
88.3281 9.02837 3.48797
920.023 185.618 37.1812
644.862 114.986 31.8337
604.919 99.6421 22.5088
745.374 76.9412 17.9267
26.7535 38.4101 10.7379
726.94 69.6219 16.9312
377.411 101.254 25.0301
270.76 11.4813 3.11859
241.048 78.6332 19.8721
114.318 0.184507 0.379215
251.733 14.4397 4.41368
181.677 5.35232 2.28411
232.296 10.9558 3.0003
29.5086 15.674 5.53726
143.536 2.09089 0.00285094
519.611 56.8554 18.468
548.016 222.178 54.626
104.917 5.05261 2.44746
46.0277 6.84712 3.39993
314.806 13.0691 2.38438
680.423 107.357 30.2123
204.272 10.0578 4.40216
82.5772 0.0568249 0.354554
184.809 27.6795 5.74665
691.475 99.1388 31.1551
63.7211 29.4908 8.28045
39.2349 30.6274 7.69485
197.69 33.6317 11.6619
444.153 49.8655 17.8963
149.457 34.6499 7.58908
16.1921 42.1791 13.9359
417.85 54.0138 15.0722
1.07022 26.3661 7.73747
191.614 6.98526 2.39408
134.305 82.022 27.1505
286.724 16.605 3.31795
132.996 1.96093 0.492585
88.0343 1.5496 1.01838
370.251 35.408 10.4001
205.103 21.6035 8.50387
43.1959 16.0431 6.13455
130.804 34.4955 10.3471
69.411 5.0978 1.58682
137.066 7.51908 2.37225
135.352 4.90932 2.18261
47.94 1.90642 0.960116
128.703 5.25426 3.16505
31.4379 21.1247 6.7277
406.588 56.6657 18.778
68.039 3.13449 2.24243
9.34073 10.0752 3.39865
124.243 89.4699 35.1442
427.354 47.8649 12.9896
157.442 9.75858 3.88318
78.5222 1.53191 0.861781
63.3967 16.7614 9.57496
251.628 69.1313 20.4694
148.148 4.73286 0.86458
397.24 99.0004 36.8822
400.169 74.9939 36.3473
1.39034 11.6351 2.87535
21.6705 3.66189 1.16611
138.509 10.644 4.81769
259.243 84.9624 42.3979
25.3949 63.2825 27.8968
92.2691 6.7595 0.31257
199.785 50.4227 15.8628
22.6893 29.2595 10.8592
52.3421 8.53586 6.85782
20.5575 17.8758 6.73484
118.146 51.5354 18.3756
192.848 39.5172 17.2674
260.576 41.4205 16.5153
224.866 36.5577 11.9268
87.3604 0.99359 0.214599
325.415 52.9808 24.8302
25.9278 17.0083 6.84394
117.319 34.1262 12.9143
141.904 12.2882 6.57211
55.4046 16.2092 9.87241
74.7855 7.26335 7.85848
116.363 5.0555 3.23373
92.6108 3.98339 2.15479
319.521 121.073 43.3946
29.7624 1.87454 0.354599
162.509 80.6991 40.1994
38.0914 17.0064 4.81152
102.134 4.60565 2.0497
53.5142 19.0349 7.12195
21.9735 2.36984 0.465572
23.736 25.3557 10.0792
25.0425 73.205 43.0209
208.008 29.4176 8.0927
36.7477 3.71718 2.99571
117.145 11.6393 4.59001
29.6802 21.4429 11.9024
72.6958 2.37265 1.22458
238.159 39.9299 22.4702
75.269 20.4638 4.4482
138.818 38.638 18.0437
21.9808 4.85769 3.37111
68.6686 0.867559 0.750039
45.2029 33.002 14.3161
45.0922 7.56373 5.71673
132.089 14.2637 9.01787
36.792 11.9743 6.55417
291.038 54.7062 27.6332
64.461 4.94532 3.50876
8.85745 15.322 5.22761
22.1911 4.39017 2.25858
29.6374 3.85292 3.92303
276.872 51.4454 25.1481
102.648 34.4097 25.5501
36.8719 83.6682 41.7504
49.433 1.70723 4.88726
73.427 21.7919 8.3851
57.5303 24.1139 19.5629
129.324 18.2689 5.07655
109.502 6.5297 3.0695
66.6008 9.83679 9.24193
15.4837 11.4161 15.5072
255.9 47.7425 12.7922
142.581 19.1124 6.93571
172.696 32.3791 18.4199
147.763 44.63 32.3453
19.0544 21.715 10.3527
21.2037 43.1482 18.5716
127.87 92.871 60.0863
255.142 95.6107 46.0593
12.5648 10.1808 9.99168
37.8207 11.0141 1.46027
24.3661 65.7481 36.6052
45.0756 6.54216 9.42021
235.279 42.089 22.5726
59.1966 21.8341 8.95554
0.697874 17.7027 7.42287
28.9509 4.02352 1.39831
7.59278 19.7755 15.1276
104.142 49.4256 22.985
30.6316 1.38805 1.21113
89.003 71.0257 42.9058
55.7739 5.90795 7.09554
22.3922 6.65493 9.23111
100.603 11.063 3.05813
64.7552 16.2456 11.3452
7.96227 11.3921 9.20437
58.6978 56.7815 43.3589
144.055 7.44778 0.446453
95.9923 3.97237 0.719494
134.685 15.9825 7.72962
63.9853 9.92761 6.88124
28.8446 2.4976 1.82485
101.183 10.2334 6.61741
13.7182 10.8949 8.30755
9.99659 22.6331 20.6218
137.143 13.2043 7.92734
113.674 21.6878 7.8355
57.099 3.67215 1.91739
163.567 37.3731 25.6511
1.37173 17.2999 10.7057
22.8389 9.13453 14.4152
236.411 44.2574 18.9897
78.9142 12.7031 10.9654
145.346 66.3016 42.2426
76.7878 8.38293 11.91
98.8038 25.3593 13.3742
324.572 100.359 60.7305
55.8962 13.2836 15.4386
17.0311 1.58235 0.862848
82.7452 10.2978 10.6549
67.6471 8.36007 3.74813
22.0017 7.04257 4.92153
185.767 44.1425 28.3948
44.4943 6.04018 9.62973
52.7154 6.45197 2.90471
50.9611 8.80323 4.05557
59.5312 27.1028 19.8965
35.6277 1.41666 2.13423
0.974409 18.2831 13.3228
111.93 26.0672 17.2935
60.5248 4.4634 3.74985
18.3913 11.8493 10.8926
140.254 25.5818 13.8905
118.214 36.3982 37.3388
13.8993 0.0418647 3.95503
12.8844 13.0525 3.86125
37.9857 1.07287 3.0615
4.79345 9.41406 5.42629
105.367 43.6121 29.5079
9.87289 65.6767 49.1372
84.8569 5.86772 1.52508
159.177 62.2823 49.8696
4.08232 12.3922 14.5756
131.611 24.0211 12.8394
76.0414 20.6695 24.0549
35.667 25.3063 14.5253
17.1045 9.35373 12.3045
104.416 17.1684 12.021
40.195 8.89006 5.63947
78.7806 16.6492 18.8596
39.0429 10.8174 19.5738
14.7707 18.3411 6.96389
0.663497 30.9602 21.1812
74.3431 16.5758 21.7552
32.3756 23.9728 10.2553
31.0446 0.984767 0.90442
10.5262 12.074 7.99569
53.1818 5.9438 6.51072
37.0282 2.83911 5.42365
9.33475 5.0032 4.31478
13.975 14.9203 5.3982
3.8847 22.085 13.2765
0.851908 36.405 30.7978
29.2868 9.50905 10.7248
41.631 0.0549058 0.548528
26.8007 4.39583 5.10735
68.3564 6.78257 5.68548
14.4641 4.55088 6.73778
40.3307 38.5514 32.8818
55.07 22.0092 17.5555
14.6794 5.39736 6.81053
41.615 0.771375 0.398171
57.3075 23.7113 17.1472
23.7088 1.31731 1.9946
21.9219 12.7405 19.4717
107.511 14.4849 5.79313
121.021 43.2481 40.8244
3.37975 19.3921 14.7003
29.6831 11.8558 21.8095
145.742 46.2818 36.7028
26.0187 10.3901 16.0534
4.7413 46.4844 37.4276
35.837 2.63303 9.34513
78.4259 7.61974 3.62416
39.8481 12.1193 8.21734
71.9754 9.26311 6.33837
39.4524 3.64449 5.74666
17.2956 2.83304 1.08701
39.0217 2.39677 3.74361
2.63981 11.5891 9.54187
24.8954 14.6619 19.9074
105.344 18.261 11.5367
83.1888 28.7703 29.8226
2.81138 8.41152 5.09989
22.633 1.10128 2.81284
50.9983 5.92593 5.89792
35.921 21.3138 26.4728
101.982 18.2349 7.37746
99.0026 23.855 15.5057
85.5408 27.0335 27.6373
71.8038 32.5822 38.544
21.9676 10.484 16.0029
75.9452 43.302 78.3756
15.1465 5.27686 9.28485
6.32142 37.9013 20.1076
16.2382 2.61751 0.0742165
4.44287 7.92844 6.78219
36.468 3.00407 6.23808
23.8798 60.69 48.1164
25.4188 28.7012 46.3144
114.323 43.3608 24.5147
73.3613 24.7209 28.9719
31.7149 4.87807 7.51775
8.1996 2.63432 1.6571
19.9675 1.14533 6.97422
16.275 43.2546 38.2172
54.1493 7.79916 7.8333
28.0608 2.81215 1.2491
27.4873 0.943843 3.0018
18.5105 8.98725 6.3385
32.0345 3.03036 8.11794
4.29159 4.94975 0.676023
3.64836 19.1546 15.0942
13.3179 3.91285 3.14636
18.8236 0.93546 0.873895
6.10623 7.0245 5.45206
13.736 9.44717 12.1544
30.1173 0.0462606 0.663119
10.0146 6.7412 11.251
62.722 9.23088 10.9976
25.3556 7.12306 2.2389
18.0056 7.68424 4.99318
33.7706 15.2432 19.9983
5.44448 12.0257 15.7883
50.8767 6.34427 4.91846
39.4828 4.83232 7.18426
3.78309 12.3137 9.45341
23.8159 14.0208 20.6821
59.9781 10.7452 14.9729
15.4557 3.65038 2.23446
33.7914 2.53344 6.40695
30.3062 0.969964 1.66347
75.9964 54.9625 55.8937
11.2876 0.884031 0.760724
15.9273 0.226133 0.130306
28.3727 17.4717 24.9877
25.1955 2.05377 5.03454
0.393767 20.8631 15.5069
17.2991 2.11297 1.1684
3.96254 24.8511 42.575
106.84 44.2662 45.3023
0.870694 14.5229 15.4014
23.1003 0.808577 1.20434
25.7564 0.746916 0.265583
7.3598 13.7046 18.4073
40.1842 3.19189 2.17521
4.01206 16.2394 27.0232
65.1357 12.1735 13.8215
33.5008 5.20186 2.9568
9.35186 4.54349 7.51763
37.3994 2.63095 2.88427
37.4744 1.50699 1.32678
57.3684 26.5725 28.2307
37.3246 12.4147 30.8511
57.3091 24.6305 39.8947
20.4072 48.0315 41.4955
3.23632 26.6884 28.0166
22.2932 14.6666 24.4375
47.0228 2.30474 1.96322
72.4313 29.886 49.9172
10.1898 35.9405 30.1547
14.9623 7.80887 9.74892
24.1256 0.101075 1.03272
31.7791 2.1905 2.86294
8.00244 6.01352 6.8687
14.4861 1.5672 2.90683
12.8298 4.53502 12.4393
20.8025 40.4114 55.1229
37.6955 9.58025 19.8252
42.8953 0.632021 2.70543
61.8898 10.3403 8.34551
27.0432 5.86899 3.02197
36.3211 15.9396 22.539
46.0986 9.45973 23.1487
53.4151 20.2781 10.5808
36.2781 4.15046 1.44062
33.4092 14.9786 19.3774
47.9838 6.11668 3.15828
67.1948 37.9073 57.7423
41.1629 7.42449 12.5948
37.9481 12.2536 9.61643
32.8029 8.95257 21.7694
15.586 16.9832 19.7928
31.56 15.4104 24.1236
45.6647 19.281 23.8069
7.68617 9.00968 14.2975
82.3538 36.3166 44.6315
14.5561 1.22937 6.84502
14.9233 5.94628 19.5338
14.558 4.11622 0.706072
16.9333 0.127209 1.58294
60.0558 33.8774 72.1002
1.43033 21.8152 10.5371
13.5434 0.610483 2.24337
5.44188 17.9441 41.3286
23.4248 13.3589 13.0397
59.8466 29.8934 27.6644
3.37456 12.7678 25.5678
68.1809 19.3266 14.6373
30.0363 10.9311 29.9191
20.6953 15.8684 6.91828
27.8436 6.16164 2.96673
37.9742 12.1815 12.0382
28.5222 10.2105 16.5666
22.2802 16.4392 39.539
0.905624 6.77781 6.6007
1.87551 13.0287 21.6032
26.1183 3.72314 1.95898
4.31677 15.4049 20.4514
42.9724 9.20921 8.35739
30.4746 10.3556 25.4872
4.52002 1.41637 2.31158
4.05138 5.33151 5.19285
15.4217 0.641686 9.84995
20.727 22.9126 16.2643
23.2746 6.42981 7.43137
14.1422 5.97937 14.0226
15.438 2.55623 1.10967
7.03109 4.15408 6.01284
32.3142 6.11063 15.8684
3.22208 13.6165 9.50325
5.60241 6.3748 7.12648
10.4209 5.45176 8.56762
14.1012 2.30519 7.48397
21.5736 4.93415 12.4094
33.6108 13.2054 25.679
50.0606 13.4219 8.25645
33.6593 10.104 20.6407
15.2934 6.32295 6.01324
19.2123 8.28324 27.5765
3.31163 14.1651 9.35539
17.6358 6.11635 17.5069
13.0881 16.6424 11.7547
1.12953 25.9073 38.559
13.3024 18.2937 26.6078
15.815 4.02917 15.8168
23.9906 7.74703 31.8034
67.5925 16.2574 5.62586
38.7516 18.2333 26.7087
23.7693 6.80713 28.2935
21.2193 8.90031 3.42734
11.0864 13.4698 15.5025
13.278 0.61438 1.14188
19.0097 0.397092 1.44587
10.0433 2.18069 2.00333
16.352 5.58233 11.2962
24.4927 3.36642 5.54369
33.556 6.00643 7.67974
15.2451 6.30414 10.139
23.7596 5.10212 11.8965
4.29224 4.58358 5.2142
33.2941 9.72406 25.2734
8.08995 21.2168 22.0099
5.94819 9.50792 31.3861
19.6179 19.2261 10.2358
12.1241 24.9627 44.3066
24.5029 0.496351 5.91138
22.5634 0.34824 0.139316
19.257 0.956677 3.80668
16.5595 2.90814 5.59265
28.5601 29.5128 75.2565
24.3943 39.6091 41.2081
17.9697 1.94456 14.3595
42.0769 6.55449 8.57917
30.2276 7.36217 4.98746
14.3145 0.391797 0.520011
16.7667 9.73 10.2919
24.4301 4.76134 9.10311
4.54811 17.3976 38.5456
23.7993 4.60917 8.19634
36.024 6.98091 6.46736
22.8376 1.12617 2.33982
30.8154 12.6858 21.2526
30.0638 12.6856 22.2916
3.62739 4.26774 4.38891
16.4923 0.640536 2.47659
34.7044 13.7924 28.5032
7.86536 1.85685 17.2017
8.35982 5.59396 2.36318
12.9165 0.951233 1.44805
12.9317 5.73462 3.86026
17.5166 2.52915 2.06387
30.7844 16.6504 17.0486
10.3076 5.6897 10.6006
11.1362 1.36581 4.05238
22.694 5.7729 6.46811
13.9677 1.81848 2.48494
7.04567 14.4395 44.334
64.2653 41.8249 85.0792
22.5351 11.5015 13.4642
48.7182 14.1291 6.28191
50.7882 39.115 80.2875
0.995318 5.52495 6.57304
30.0068 11.0384 33.5044
17.2261 22.1569 33.3703
4.05696 3.34258 4.77767
9.16304 4.54946 8.81933
32.4132 7.88991 12.3218
10.6894 0.721133 6.15592
4.04995 6.11611 8.47835
29.2813 9.13788 19.7544
7.37061 0.303934 0.821722
8.67698 0.220199 1.08198
8.90817 3.89607 2.24377
15.556 3.84919 12.1423
1.34882 11.4394 16.3104
13.1528 8.7829 17.9768
18.2353 15.48 38.2208
36.1301 6.25531 2.20285
23.7086 7.05885 17.3821
4.85846 6.95032 11.7017
10.7995 3.27045 2.22298
7.55414 3.51699 8.79974
22.7428 2.25849 6.21847
18.7648 10.4637 18.3363
13.7237 0.986917 0.673252
5.83281 5.16031 10.9244
20.5647 2.23616 14.4356
24.7447 9.40874 3.12542
32.2936 29.6325 46.9764
7.27235 9.24927 36.433
45.9812 26.1482 65.6612
22.1357 5.91795 15.6612
9.40613 0.474697 9.76575
5.83411 4.46822 2.19336
12.4038 27.8086 48.3252
44.2804 19.3884 37.1678
7.04452 5.58582 8.64222
3.322 7.16855 14.4898
21.6188 3.13466 5.09268
4.57454 6.16205 9.50571
14.225 4.98553 21.9632
27.4526 5.04527 24.1296
14.7305 10.3948 5.87172
17.2977 4.3106 8.55511
31.1849 6.35902 4.41781
18.079 4.58437 16.7899
22.5956 10.2346 13.1783
13.1367 6.36833 33.3628
14.7402 15.417 11.9046
18.119 4.33458 24.6597
16.2324 16.4367 9.53727
5.72762 14.367 26.116
22.6936 1.29331 0.798273
19.8216 2.93762 5.59538
12.4769 0.976777 6.2455
8.26803 2.62482 0.338589
9.86066 1.56982 0.431719
18.387 16.8787 25.1246
22.0336 8.75438 30.1522
8.96049 4.60606 6.32575
11.7159 0.844406 8.53126
4.60631 8.52669 6.08891
7.77423 2.76255 4.63743
7.82116 1.69825 1.61739
7.26352 5.99953 18.7055
24.9753 1.66299 4.6142
38.8044 19.3482 28.5411
11.0858 2.91393 13.509
8.70709 1.53209 18.2977
1.83541 2.03265 1.25402
1.73934 9.61284 9.75605
13.6969 1.70207 3.33228
13.7145 1.67252 10.3205
1.66785 10.1526 13.0241
17.7344 8.90767 30.9772
14.2579 1.79797 5.556
7.28503 15.7998 11.8415
11.4688 2.0699 0.583601
8.22355 5.49228 5.55717
13.6881 4.80512 3.71241
8.78766 12.6928 31.7458
23.0713 1.32263 0.697738
16.2156 2.65813 4.17949
12.6197 2.61638 9.21177
6.97319 1.53551 4.30531
16.1962 25.401 60.6936
17.7337 1.81713 0.0961242
14.9331 2.30098 11.5823
5.32209 3.07153 2.50091
9.66962 1.51344 9.49512
18.9769 5.18369 4.11625
14.966 6.31843 26.6106
16.1845 6.63398 5.44532
26.8088 13.5236 27.7128
10.6141 2.94107 9.1057
11.9942 4.14941 27.2983
0.620895 14.6201 10.2045
9.74629 3.90457 12.3895
7.53654 5.15219 5.71587
11.3456 1.11055 8.41906
11.047 11.1644 16.8502
17.6793 1.49698 5.04814
4.35731 16.1273 39.3019
14.6206 6.80589 20.0201
25.113 1.67557 0.187682
21.1431 3.33734 1.9662
18.8233 7.32563 25.2995
4.76382 5.57458 4.49026
6.40022 3.19455 6.67931
13.9321 0.377639 2.15349
12.5134 1.29251 3.06496
14.0418 3.03084 14.4466
2.73279 2.60261 5.50515
7.03271 7.926 5.0822
10.2374 4.07935 7.21233
25.5104 22.4589 42.0035
2.49778 12.1191 37.3697
27.0886 7.34092 15.3509
10.2446 2.71978 27.4353
0.475294 17.3286 26.7446
9.33674 4.53314 4.25731
5.47754 18.5653 53.4814
25.5574 3.00253 3.9238
20.0568 13.0777 30.4666
5.52078 1.72124 4.56257
10.0803 2.6238 14.1993
11.284 0.071112 1.98321
15.3729 7.60439 43.1305
6.32203 4.72172 2.83916
8.88741 0.516998 6.20964
11.1638 5.84894 4.92093
3.1746 6.57233 8.70052
6.33196 5.35405 11.3873
7.86947 18.2741 67.1577
36.3857 12.1591 29.224
21.0858 6.87937 3.6268
11.1844 0.636214 6.1086
8.92497 0.457273 8.50424
17.4482 6.26517 1.54013
12.0012 24.218 53.5681
12.5264 2.50748 2.08735
6.37664 3.88325 8.85657
16.8145 2.8184 10.0857
6.75407 3.82084 5.10332
2.70577 12.0345 27.502
13.025 10.8246 34.2974
19.9862 0.165057 17.4456
31.302 30.0513 98.3354
