# pn-170911/RbIIR-46-RbII-1280-1959.psd
# Power spectrum* (dif=0,1,2) (really just |FT|^2)
# NOTE: only the first half! (symmetric)
# weeks: 1280-1959
# 334 clock-days, 3 excluded
# PSD: 1441
68367.3 1.20965 0.0330911
2.25542e+06 53.9358 0.0605862
4.01611e+06 74.0724 0.060964
828856 16.2558 0.0581483
499941 13.2151 0.0562536
337229 9.31447 0.0574315
229707 9.16583 0.0545529
160449 7.98108 0.0579723
129721 7.34227 0.0581794
106979 7.57214 0.0585837
73349.1 6.55433 0.0625276
75588 7.27042 0.0609441
51253 6.64436 0.0635649
51196.5 6.39224 0.0658869
42939.4 6.22973 0.0683898
39492.3 6.52451 0.0603162
31587.4 6.09757 0.0683569
30681.6 6.18843 0.0680253
29433.5 5.55561 0.070851
24563.7 5.65116 0.0650653
16526.8 5.603 0.0681285
25531.8 6.37338 0.0691302
21209.1 6.00161 0.0775369
15002.6 5.91671 0.0727666
13754.3 5.50797 0.0701722
12322.2 5.91258 0.0702952
10918.4 6.74742 0.0869763
11557.8 6.19221 0.0718626
10519.6 6.80214 0.084118
9396.72 7.03658 0.0856343
7697.56 5.7662 0.0811364
8846.93 6.8348 0.0809888
8405.03 7.2615 0.086795
6832.41 6.79976 0.0882877
7900.09 6.79395 0.0893437
6962.41 7.15945 0.0922235
6415.48 7.19178 0.100754
6060.09 7.06658 0.0965753
5474.93 7.80535 0.101252
5494.67 7.55553 0.117
5002.88 8.02988 0.11664
4161.42 8.28506 0.105803
4876.42 8.7657 0.119553
4229.76 7.91833 0.131088
3889.09 8.68674 0.132574
4036.35 8.5901 0.133402
4176.12 8.23663 0.129161
4367.81 8.84414 0.158991
3434.99 10.1718 0.175807
3440.38 7.78266 0.142247
3630.98 8.26337 0.154987
3792.05 8.97964 0.156858
3119.53 9.9057 0.182125
3106.17 9.85032 0.191822
3104.44 9.77069 0.192156
3143.14 9.19119 0.178705
3027.21 10.1873 0.209922
3185.43 10.0163 0.217069
3071.21 11.1404 0.240079
2651.69 10.0194 0.227206
2828.96 10.1356 0.226988
2738.08 10.8692 0.263927
2690.58 10.2434 0.253078
2917.62 13.3064 0.310164
2785.95 11.3851 0.303665
2627.69 11.8428 0.297542
2409.88 12.9978 0.367842
2746.46 14.2522 0.396807
2259.14 11.9209 0.357005
2065.24 11.609 0.338034
2107.88 13.8247 0.409123
1946.87 12.291 0.364784
2049.94 14.7318 0.453109
1637.24 12.2422 0.388324
1885.12 12.316 0.393746
1902.2 14.3899 0.461857
1902.31 14.5731 0.465123
1745.1 13.6442 0.458302
1681.74 12.4262 0.422394
1697.79 14.9707 0.523656
1551.44 13.7303 0.520107
1496.79 13.7947 0.491578
1567.6 15.33 0.57317
1378.67 14.5176 0.585601
1498.22 15.4007 0.577613
1539.49 15.2062 0.586719
1192.01 16.0709 0.642619
1298.56 15.4899 0.631298
1338.53 17.2292 0.698942
1197.9 14.8857 0.631904
1054.36 14.0815 0.626164
1317.06 14.8553 0.658053
1275.12 16.3454 0.715385
1143.89 14.5271 0.664481
1270.21 16.4484 0.785867
1252.57 17.0333 0.83772
1257.33 21.7492 0.987109
1206.63 16.0609 0.785532
1185.1 17.0729 0.872674
905.904 15.6484 0.828611
1075.2 15.9113 0.840424
1265.24 16.1045 0.902202
1063.08 19.5606 1.04252
1019.22 16.1646 0.843808
1044.59 16.7602 0.911643
1068.91 15.7062 0.859368
836.083 18.2163 1.01155
1102.54 17.0509 0.97629
935.522 17.9942 1.04544
969.902 19.249 1.17488
876.488 17.6731 1.11354
1035.24 17.6769 1.05475
924.676 17.6719 1.13602
780.608 19.1514 1.25311
854.523 18.4066 1.2133
952.323 17.1361 1.13063
675.847 18.2851 1.20481
715.544 19.2459 1.32196
805.043 18.6529 1.29163
766.414 18.6687 1.33132
762.32 17.5221 1.24648
713.776 20.3715 1.47437
676.425 17.4333 1.28378
868.456 18.0909 1.32284
764.094 18.6438 1.40911
798.745 21.4229 1.5997
714.622 17.851 1.36433
654.225 21.3115 1.66298
685.926 18.3308 1.53272
639.773 20.7876 1.67544
678.539 19.5531 1.65042
664.183 20.0457 1.71717
630.27 19.8182 1.72621
671.35 19.7487 1.71343
635.623 19.1979 1.71537
673.628 19.9695 1.7695
684.431 20.6249 1.91514
588.89 19.9358 1.82675
613.575 26.1092 2.36962
648.84 20.3909 1.93129
618.19 22.3928 2.12017
617.488 19.7138 1.86419
570.747 21.4444 2.14687
584.449 22.7424 2.24075
596.778 21.9985 2.23171
591.008 21.7778 2.25344
520.786 19.9513 2.08661
601.638 21.1183 2.24743
523.638 17.8366 1.91904
524.856 19.6876 2.13864
519.628 24.5623 2.67073
507.73 20.9176 2.31987
566.407 22.9118 2.51952
578.521 20.248 2.25046
491.904 19.2346 2.21106
488.762 21.3678 2.4678
417.203 18.5742 2.23107
550.525 21.9053 2.51466
474.942 20.9808 2.53701
419.683 21.4687 2.68102
458.457 19.9124 2.46157
428.844 21.1566 2.64548
453.518 23.2803 2.90909
445.937 22.3011 2.87629
478.697 18.1698 2.32515
498.526 20.0839 2.66243
401.423 21.8137 2.88987
394.402 23.5219 3.12208
477.383 20.3133 2.75772
402.106 21.3386 2.85357
395.326 18.6518 2.554
336.008 20.2165 2.88807
355.224 23.7586 3.24432
434.01 21.2783 3.04813
368.143 20.5574 3.02875
370.368 26.2172 3.80584
404.066 22.9134 3.31012
411.326 22.3864 3.3884
393.112 24.113 3.71146
401.49 23.0625 3.51921
399.258 23.7467 3.65172
434.208 23.6069 3.85863
342.911 23.3429 3.64417
385.886 22.695 3.6935
381.087 22.1261 3.50386
385.141 24.5977 4.12982
400.517 23.1284 3.69663
413.845 23.3649 3.86733
346.079 21.9877 3.679
307.502 21.6459 3.66922
342.462 23.8225 4.20839
378.323 23.9093 4.16675
377.472 30.1657 5.10346
399.179 22.8904 3.94894
343.278 23.3167 4.21311
311.251 20.9382 3.82624
313.32 20.3105 3.74182
375.722 24.3592 4.50314
310.676 24.0045 4.45895
279.671 22.2196 4.14275
330.866 23.3072 4.42182
281.045 21.2932 4.14265
266.057 23.1784 4.43312
318.992 21.2545 4.25854
310.198 25.3906 5.04069
274.279 21.6156 4.27898
322.682 23.6714 4.8829
328.089 22.3521 4.43441
274.68 22.7049 4.76612
304.123 25.0831 5.04342
283.026 21.8533 4.56128
293.681 22.8079 4.70227
274.402 22.5184 4.76228
303.522 25.5392 5.37961
264.857 21.7765 4.63492
252.545 21.8479 4.82773
280.765 24.0717 5.40377
279.77 25.2871 5.57759
273.164 24.299 5.46105
261.465 23.3589 5.34596
280.312 23.1022 5.25426
266.054 24.0178 5.4634
297.134 25.5906 5.85966
282.17 25.5231 6.11799
294.616 21.0739 4.96751
267.353 24.257 5.83421
287.412 27.2278 6.61399
239.462 23.5707 5.72549
236.999 22.2254 5.62201
245.561 25.4538 6.42171
258.719 23.1644 5.68769
235.513 25.0767 6.17703
251.517 23.428 5.92293
236.132 25.2613 6.43845
240.097 24.6726 6.31988
227.504 24.3601 6.27706
218.463 26.2487 6.70625
225.258 21.2209 5.71786
255.635 27.7633 7.40029
253.109 27.1235 7.26357
218.83 22.7945 6.29718
256.435 25.9903 7.1011
226.195 26.4955 7.19463
207.469 24.6086 6.70684
201.396 25.0266 7.09154
221.081 26.8787 7.74341
237.837 28.3555 7.96942
204.991 25.4447 7.41157
201.23 26.0659 7.47788
225.881 25.8245 7.39642
194.723 23.7211 7.01332
223.988 25.139 7.43485
184.684 24.232 7.40332
198.296 27.1475 8.19839
224.539 27.6329 8.16018
193.625 24.0552 7.41623
217.186 25.2293 7.62487
196.336 26.1736 8.17943
208.786 27.2552 8.53335
193.386 27.4288 8.56165
206.125 26.6246 8.37306
193.717 27.6782 8.71924
176.979 23.9001 7.77845
195.53 29.5619 9.57402
203.06 27.0378 8.75448
191.704 27.2154 9.10168
218.864 25.83 8.32927
212.488 26.1895 8.69261
167.215 25.2601 8.41674
213.851 26.6252 9.02752
208.349 24.5526 8.41296
200.612 30.2327 10.3097
192.069 24.5678 8.50283
170.394 25.2754 8.85148
191.925 27.4259 9.33035
184.09 25.9979 9.09844
166.748 24.2357 8.72686
190.869 25.9041 8.93243
168.019 26.6297 9.25351
185.217 26.0223 9.64195
178.93 28.9702 10.6253
178.103 29.5328 10.8766
171.052 27.6269 10.1215
157.576 27.434 10.2869
150.673 27.864 10.4639
126.394 24.7056 9.49611
128.887 27.6572 10.4181
191.054 28.5621 11.3111
172.57 40.2558 14.9083
116.473 26.5724 10.1022
140.491 26.2459 10.043
130.537 25.3342 10.0791
135.886 24.3656 9.39785
149.43 24.2666 9.55952
149.813 24.7579 10.0316
136.635 23.0956 9.16056
164.493 26.3187 10.8325
143.169 24.3798 9.72931
139.129 23.7711 9.50436
158.766 24.156 10.2247
140.589 25.7952 10.4814
148.745 25.4945 10.7528
145.793 23.9204 10.0505
151.887 24.9744 10.1617
139.888 25.3688 11.0445
136.855 25.4229 10.9421
147.507 26.1052 11.4694
121.209 22.6915 9.80861
132.338 27.6984 11.7878
166.663 25.7957 11.2442
157.385 26.2523 11.8123
119.853 22.7107 10.2795
122.874 23.4973 10.6545
132.833 26.145 11.7193
133.37 24.754 10.919
135.889 25.0337 11.5099
133.363 23.5392 10.9954
124.001 24.1998 11.1934
116.035 23.0769 10.8815
134.549 22.2909 10.2458
128.279 24.8956 11.4086
127.044 25.9046 12.5221
148.359 25.8479 12.216
122.941 26.2988 12.8064
128.129 25.6506 12.1683
118 25.3237 12.5896
114.809 24.7848 12.5691
129.815 26.6221 12.5075
119.16 24.9405 12.5175
101.004 24.8163 12.5774
123.068 25.345 12.666
106.89 24.9393 12.397
105.919 24.3198 11.8037
110.756 25.5102 13.023
118.403 24.7227 12.2702
122.141 24.6804 13.383
105.375 27.312 13.9515
99.3071 23.9195 12.5002
125.36 26.5495 13.93
120.857 24.7967 12.7025
106.304 25.2424 13.1872
113.41 27.3352 14.278
102.591 25.1004 13.5353
114.303 24.2639 13.044
109.245 25.3925 13.8382
117.115 24.253 13.2702
111.418 22.9898 12.334
117.707 25.6379 13.9255
109.186 24.4472 13.5309
117.991 24.3372 13.2901
115.988 25.1299 14.0111
110.344 26.0596 14.5349
107.315 25.7587 14.2555
113.518 24.4778 13.8566
110.623 24.9041 14.5219
121.099 25.5812 14.6115
118.513 24.0797 13.8288
107.64 24.3409 14.0782
113.791 23.5952 13.8834
114.53 24.9251 14.0353
108.239 25.6024 14.9102
89.5112 22.4794 13.2712
114.233 24.7977 14.7177
113.018 26.3968 16.0928
97.6859 23.6729 14.3319
95.8053 27.6676 16.4769
109.581 26.7298 16.1162
106.339 26.7369 16.2626
96.9764 25.2814 15.3975
91.6376 25.4792 15.7044
86.5163 24.7025 15.4898
96.5804 26.7847 16.4474
99.1776 25.3087 15.9604
101.389 25.1428 16.0244
81.7683 23.9644 14.8463
101.091 27.5814 17.4851
96.5021 25.3897 15.9321
91.0685 25.7598 16.9656
82.6903 25.0768 16.3104
90.5584 25.257 16.2653
96.2682 27.5218 17.3453
88.6248 25.7507 16.978
100.232 28.3273 18.4855
96.1837 25.0521 16.8778
103.921 36.6676 23.9554
96.0268 25.8948 17.8444
98.4117 26.8378 17.1221
74.2592 23.621 16.3872
101.57 27.0458 17.9473
103.097 22.3004 14.7788
87.4167 24.735 16.9885
98.6064 26.7387 17.886
80.1741 24.4658 16.9574
97.8767 25.5127 17.2534
83.2162 28.032 19.4295
90.003 25.7333 18.4778
79.7633 22.884 16.3932
92.4956 24.8415 17.5788
79.9882 24.7739 17.7192
90.7484 22.4687 15.9379
92.6946 24.2246 17.473
80.349 25.738 18.9807
84.3389 24.8898 17.9925
92.1414 26.0727 19.1861
77.498 23.6423 17.2163
77.7541 22.8406 17.3776
87.0964 24.6713 18.0256
76.9779 23.0714 17.3283
86.2717 26.8261 20.1431
79.3506 24.8524 18.6597
82.8478 27.023 20.5916
85.6821 24.4916 18.7427
87.4589 26.9171 19.1179
79.5866 23.7119 18.0442
77.6643 25.1529 19.402
77.7932 25.3343 19.7152
79.4593 23.0347 18.1978
81.2151 26.7281 21.0041
73.4974 23.1075 18.0288
72.4581 23.8315 17.8532
69.5843 23.7712 18.4186
75.8594 24.9237 20.3603
75.1554 26.0011 20.5274
77.5276 25.742 20.3296
73.5877 23.164 18.7808
68.1782 25.0852 19.2836
66.2181 24.9787 20.5534
69.0855 23.8372 19.0352
77.6929 25.664 21.4281
80.9369 26.0923 20.4489
61.9761 22.5576 18.5278
79.7 23.2663 19.266
80.7163 27.5682 22.5824
72.3443 27.35 22.4563
78.0653 24.9832 20.8301
74.0019 23.4355 18.9624
71.4395 24.5143 20.4955
68.9169 23.8108 20.3227
76.4089 26.5112 23.1587
79.5387 25.5678 22.0766
77.2523 24.1896 20.5774
87.023 25.6661 22.1511
75.8311 27.5342 23.6126
78.1385 24.867 21.3852
72.7578 24.387 20.9476
78.638 26.6917 23.6239
66.0127 24.5534 20.9138
67.479 24.0481 21.9731
63.2989 24.456 21.1937
61.8061 24.2619 22.4141
63.3601 22.9698 21.0858
63.4985 25.7913 22.1495
81.8985 26.2482 24.0163
77.2644 26.4437 23.6864
60.3209 26.2836 23.6378
59.1211 27.2437 24.9723
85.4498 24.7776 22.8553
58.2576 24.0124 21.432
66.6116 25.5457 23.8028
54.7766 23.4422 20.8127
60.4633 24.3235 23.0238
74.5607 23.7649 21.8856
62.1944 23.4388 21.594
54.8067 24.4359 22.8374
55.8028 23.5428 22.8067
62.7959 24.1986 22.6355
59.8332 25.2389 24.5055
65.8513 26.0755 24.9248
65.039 24.4921 22.2894
67.1523 23.232 22.7964
54.234 24.9498 24.4064
64.1001 27.1191 27.237
65.2047 25.6548 24.9705
71.106 27.5257 25.825
64.2866 26.1999 25.2838
60.0088 23.3936 23.8633
62.7415 26.2557 24.9257
53.9663 24.7978 24.5059
64.7255 25.2338 25.6911
66.988 24.4651 26.3418
65.6502 36.8383 34.153
62.7706 25.1075 24.8705
66.3896 26.4619 27.8061
59.0352 24.3762 23.4944
59.0673 23.8414 24.78
71.1375 28.4905 28.5605
55.9765 27.9744 28.4095
59.8132 24.4024 25.1012
60.9051 25.6151 26.4939
51.6063 22.5401 22.9001
53.4262 24.632 26.2441
62.5839 27.7655 29.0884
59.601 23.614 24.6585
59.4001 27.0443 28.1866
57.6202 24.0659 26.1253
60.0052 25.5941 26.6221
56.368 24.3333 25.6616
64.486 27.6219 29.0868
58.6526 23.6591 24.6923
59.0799 25.6515 27.2515
56.9948 25.5525 29.1236
59.0023 29.8914 31.9405
56.1178 25.2362 26.8675
50.426 26.1172 29.5608
55.7702 24.6445 27.6304
54.9223 26.2508 28.5862
55.0547 24.0392 26.1331
51.1489 24.8983 27.4482
55.7206 25.012 27.9941
56.8539 25.92 28.7582
49.5254 21.8454 24.8365
59.4525 25.0973 28.9007
56.2569 27.3332 28.8135
57.8917 24.4594 26.5953
58.1992 25.0017 29.5001
52.2429 25.5524 28.9471
53.8638 24.9848 28.1486
55.5695 25.1205 28.4911
56.0688 27.125 30.6732
49.373 24.6436 29.3199
52.1379 24.3322 28.6091
63.0292 27.6466 31.4397
50.2067 23.4719 27.4027
48.8903 24.3649 28.0374
49.7352 23.2708 27.998
57.7494 25.8531 31.0517
50.7428 26.0346 30.7319
57.248 25.6566 30.3855
50.5705 25.5338 30.3611
55.3091 25.613 29.6001
53.5886 24.4026 29.5433
52.6958 26.657 30.5122
51.2139 23.4538 28.218
50.6772 25.2653 31.5496
50.5847 22.2854 26.6744
48.8656 24.6389 30.2123
49.4655 24.6306 30.8368
54.5558 25.1319 31.569
51.9118 26.5501 32.5645
50.4673 22.5264 27.4435
50.0195 24.46 29.684
49.9562 25.6016 31.743
50.7001 27.8862 34.0228
48.7801 25.5134 33.8037
49.98 26.7072 31.6233
49.8442 25.6741 33.1142
52.5817 24.3454 31.1705
45.8273 28.4195 35.0807
54.7371 26.0416 32.1924
47.371 23.6516 30.6202
44.6559 24.3456 31.4054
52.306 25.0516 31.9586
44.3876 26.6534 34.0416
41.5125 27.5174 35.6784
55.1834 26.2046 33.8609
49.3955 23.8443 31.3669
40.8176 24.2947 31.1788
52.5329 24.3282 32.5008
53.7413 26.964 33.6386
46.7629 25.2458 32.8076
46.6057 28.1104 36.887
53.2 29.2915 38.4252
51.052 24.8847 32.2207
53.9808 28.4451 37.9925
48.6143 26.1957 35.4357
49.9461 26.0048 34.1271
45.1856 26.8577 36.8119
49.9266 25.916 35.1433
46.1706 26.6028 36.6665
46.136 27.8574 37.6957
47.2012 26.7039 36.8638
43.062 23.5841 33.1505
44.6325 26.5108 36.0823
35.3808 26.4031 36.1073
37.6611 23.1143 32.4469
56.3026 23.4289 35.5866
44.3331 37.3561 46.6518
39.4447 23.6846 30.7217
44.7037 24.2294 34.6771
39.4122 22.7375 33.8311
46.7963 25.1108 34.5221
45.1908 23.3683 31.5871
40.4754 24.4151 34.3595
40.9349 24.7706 34.5158
41.9792 24.2012 34.8161
38.8173 24.9527 34.7909
39.7693 24.1829 35.1612
38.3112 21.9467 31.7611
37.0146 22.1671 31.9188
40.4077 21.6504 31.9408
41.0764 23.7307 34.0029
39.1547 23.7702 33.918
38.0258 22.283 32.0536
41.7779 21.5003 30.2562
33.9359 22.2297 33.638
37.9631 24.3517 34.9202
39.0746 24.2467 33.8511
43.5788 23.5457 35.7293
40.685 23.4426 34.8272
41.4932 25.6617 37.6498
35.4775 20.1039 31.465
39.7997 25.9083 37.2951
41.387 24.3898 36.542
39.1279 22.1676 34.1909
42.2517 25.7645 37.4865
38.0785 22.1889 32.7524
29.8451 24.0988 37.0086
40.9245 22.5235 34.2062
39.4005 24.5281 37.4447
39.9272 22.3798 34.8873
36.8648 22.7962 34.3484
39.5126 24.7387 38.0101
40.6835 25.249 37.8273
37.1637 23.2185 35.0652
36.661 24.3295 37.9379
36.4225 24.0882 38.7851
36.3466 23.6904 34.7562
33.5449 22.5733 37.6419
39.0215 22.3792 34.1095
33.5531 23.8368 36.3851
36.7552 23.6177 37.4581
39.9541 22.3924 34.2552
36.3018 23.3027 36.555
36.9006 24.8189 38.8924
31.1971 23.022 36.5519
35.1157 23.4945 38.4511
38.0113 24.1805 37.7688
40.4237 21.6866 36.6657
36.5195 23.5195 35.6018
36.3708 23.7028 37.4973
34.9252 23.381 39.3946
36.2559 21.7208 32.5236
34.5821 23.744 37.7629
37.1168 23.6486 38.4619
39.3101 23.3247 38.8964
36.482 26.0106 42.4837
37.36 24.7126 42.3017
38.5023 25.0354 41.5279
36.7822 24.3535 40.4706
35.9759 22.6108 37.4284
34.9536 22.9676 37.0219
33.6972 21.7855 35.2794
34.6904 22.3182 36.9632
37.4649 20.9883 35.0916
35.6082 20.7709 33.8434
36.6425 22.3483 37.4439
34.4453 23.0672 37.6543
32.938 20.1327 34.8097
37.4011 23.0611 40.2256
30.0663 21.3376 35.2255
37.8857 24.9761 42.2769
39.4483 22.7474 40.3269
33.917 21.0693 36.4283
30.8338 22.6046 38.3162
36.1787 20.0397 36.0029
35.8045 22.8759 37.5173
35.6252 20.4734 35.5292
30.8707 22.4059 39.1181
34.8005 21.7701 38.172
37.065 22.8358 38.1389
35.9752 25.2321 44.0052
34.6939 22.3681 37.6889
29.1723 22.4198 39.4177
36.8619 21.6261 38.7095
33.8953 23.8514 41.4145
31.3813 22.2143 38.0182
29.5984 21.397 39.8567
34.6902 22.4101 39.3758
29.894 20.3725 36.3122
29.974 24.2304 43.6222
34.4102 21.647 39.01
35.4862 23.6069 48.0622
35.8104 32.0995 49.9017
31.2091 20.7383 36.2736
35.5696 23.9701 44.4423
29.8049 19.4411 36.9358
36.8903 25.3758 43.4265
32.8465 22.0139 39.6152
31.0557 22.1373 39.0233
29.2491 20.3052 37.0715
33.3283 20.2685 37.4398
31.2076 23.9073 44.4669
29.8707 21.1062 37.7468
30.3839 21.944 40.7135
33.006 22.3808 39.9551
33.4252 23.3042 44.3648
29.6061 22.0578 40.1189
36.3891 21.0409 39.9517
36.4781 23.1687 44.2609
33.0064 21.0736 38.826
33.6211 22.2654 41.918
31.4873 21.8305 41.4445
28.9245 21.8991 40.3123
29.8701 21.7766 40.2787
29.8963 23.1795 45.0109
32.441 22.781 41.2209
28.5438 18.7507 36.193
29.4783 22.8486 40.075
29.9996 22.2954 42.5893
32.8823 19.6269 38.7077
27.5269 19.8937 37.5798
32.8261 21.7897 44.0877
30.7744 23.4748 41.646
28.7498 21.0814 40.4769
30.3539 23.584 45.0251
33.0306 23.2098 43.5135
30.9302 21.7351 42.4901
29.0791 21.314 44.0167
28.8674 22.8578 41.9949
29.8425 20.6906 41.2549
27.4452 20.4049 38.3467
29.8054 21.5066 42.1052
26.6116 18.4512 36.6081
23.3578 19.9149 41.3075
29.1729 21.8006 42.3759
27.8919 19.8781 39.1405
31.6884 20.8448 41.626
30.9295 21.2106 42.8254
25.323 20.6504 41.4304
33.5936 22.6919 43.939
30.7872 23.5578 48.882
29.6259 21.7522 41.2075
30.3941 19.3247 40.2084
25.2564 21.2712 40.78
28.654 22.5225 44.8558
27.6627 21.13 42.9358
29.0718 20.653 42.158
30.206 21.1142 42.6802
27.5678 19.4582 39.341
31.3802 19.7221 40.234
29.7901 21.5885 44.4409
27.5693 20.7258 41.2042
29.0626 20.9221 40.7749
33.3047 20.4916 44.756
29.4671 20.2504 40.9135
27.2965 19.4661 41.1378
27.5082 21.3638 43.4538
25.3374 20.2746 43.4288
28.5892 21.6225 46.1594
28.1283 22.2184 45.0072
31.4691 20.2942 43.9027
30.077 21.9908 43.9498
25.3891 20.494 39.3856
25.7394 19.15 43.5046
33.4001 21.8148 42.9772
25.9599 18.8691 40.9026
26.5658 21.7965 44.0371
25.4485 21.0924 44.7343
25.2002 20.7365 45.7138
24.3448 21.0298 43.3558
26.0275 19.9214 42.5282
24.5595 21.7989 48.7864
21.8772 20.4387 43.5803
25.4598 19.0825 38.653
26.4365 22.7894 49.1119
23.9766 18.5244 41.1613
27.0882 19.4404 43.1139
27.6422 20.9844 48.0558
25.6035 22.3591 44.47
24.9876 21.3069 46.0848
26.3731 22.9531 49.3723
29.3372 20.5546 44.5026
22.7307 19.7194 42.0325
23.9025 19.4125 42.8797
25.1878 18.7342 43.428
25.0935 20.5049 42.3092
26.8665 19.844 45.6063
28.5602 21.5009 55.0725
31.0062 29.1719 51.0237
29.3703 21.4096 47.8363
26.3635 19.1964 46.2119
24.3361 20.6666 44.3758
27.0635 21.7298 47.3347
31.2604 19.7177 43.5496
29.0582 20.85 47.1158
27.317 20.5448 44.1621
25.6853 19.1268 43.7837
25.5977 20.29 46.4864
23.3382 19.9421 43.5744
28.7992 18.5449 42.8564
23.8561 21.02 46.9029
23.1685 19.0166 42.6256
29.5912 20.1203 45.9371
28.5512 19.9173 41.6272
23.6392 19.2503 45.1211
28.9988 19.2975 45.3562
26.2803 19.9345 47.6417
30.6775 20.8988 47.1937
24.324 20.6716 47.8515
23.9227 19.8276 45.8295
24.8164 17.4098 39.2083
23.0015 18.6812 41.5921
24.5381 19.0423 45.1632
23.6864 20.4421 48.1203
21.6983 16.8624 38.3518
22.0936 17.7819 41.4751
22.1708 19.0792 46.7425
22.2919 20.3576 46.571
25.0091 19.7139 43.8609
23.3848 18.5219 44.8881
23.1301 18.4488 43.9574
23.0787 18.264 43.9459
27.168 18.4125 40.4872
20.5216 18.4853 43.1347
22.089 20.188 46.6744
26.1845 20.8895 47.6569
21.896 19.5632 49.6432
20.7246 19.4068 47.0423
24.1415 19.0706 44.6498
27.866 18.5584 44.4488
22.0362 18.5477 42.7811
24.5629 16.021 40.151
23.1129 17.4991 43.0811
25.9341 17.8424 42.521
22.3583 18.9117 44.8794
22.6979 18.3232 44.3114
26.2964 20.7059 48.0798
24.5119 16.4139 39.1078
21.8892 19.2658 47.4077
24.2197 16.8974 43.7447
22.9278 18.4387 42.2363
23.0086 17.6845 42.6277
25.7717 18.9234 47.7985
24.6331 19.9132 46.9839
22.0772 17.3394 43.8409
25.8249 21.9033 50.6805
22.3475 17.5495 45.4357
26.3818 19.8295 46.2734
24.2132 18.9125 48.1016
22.5617 19.1962 46.0849
