# pn-170911/RbIIR-av-USNO-1280-1959.psd
# Power spectrum* (dif=0,1,2) (really just |FT|^2)
# NOTE: only the first half! (symmetric)
# weeks: 1280-1959
# 178 clock-days, 3 excluded
# PSD: 1441
937.862 0.125801 0.0265922
33937 0.63713 0.0237926
152723 2.84089 0.0250198
19864.6 0.853968 0.0252807
35654 2.45172 0.0262208
7907.01 0.725224 0.0252386
5688.71 0.803863 0.0239041
3635.61 0.592434 0.0256192
5788.93 1.44871 0.0264175
2202.08 0.645688 0.0283008
4220.13 1.72025 0.0257188
1513.01 0.68834 0.0238631
1536.03 0.852281 0.0241837
1159.84 0.698216 0.0226858
3015.92 2.60347 0.0296148
1076.56 0.865151 0.0252114
2075.81 2.43629 0.0314741
834.743 0.946615 0.028526
1505.46 2.17683 0.0291077
743.899 1.10097 0.0269562
1941.07 3.57473 0.0314494
571.349 1.13574 0.0281633
1390.9 3.1885 0.0315547
442.384 1.07439 0.0261776
859.597 2.16595 0.0308588
468.584 1.15827 0.0262971
1441.4 4.46545 0.0438545
532.99 1.58694 0.0316979
1120.44 3.95209 0.0400706
519.899 1.86335 0.0308518
843.156 3.24273 0.0371992
500.083 1.9633 0.031366
1027.84 4.98858 0.0482075
576.639 2.70749 0.0446084
675.379 3.42775 0.0401032
461.814 2.48321 0.0427709
953.296 5.56436 0.0634504
430.366 2.77719 0.0436367
802.336 5.23441 0.0646054
481.75 3.1784 0.050099
684.606 4.86624 0.0647134
418.525 3.21057 0.0442102
716.405 5.88471 0.0835234
458.441 3.76108 0.0561782
732.826 6.54049 0.090637
458.666 4.00931 0.0601899
533.285 5.24396 0.072784
457.863 4.77456 0.0644512
674.164 7.28265 0.10987
437.842 4.70838 0.0878232
475.623 5.35141 0.090493
421.607 5.09359 0.0820404
554.779 6.75963 0.10569
430.88 5.49377 0.091084
511.555 6.8418 0.123061
419.189 5.74008 0.102774
461.789 6.67507 0.124344
431.994 6.28074 0.122808
519.67 7.7795 0.146812
331.244 5.07889 0.0926368
462.359 7.46764 0.153028
372.152 6.29414 0.139412
465.387 8.06016 0.179035
359.833 6.94526 0.159737
467.929 8.92297 0.187059
438.724 8.23108 0.182335
477.401 9.61478 0.233185
326.188 6.65515 0.16133
344.294 7.72408 0.184922
362.44 7.86249 0.186497
358.814 7.89117 0.208466
349.133 8.1753 0.213009
381.906 9.03249 0.25718
309.257 7.67227 0.250013
324.831 8.08235 0.240586
308.487 8.20879 0.232742
355.735 9.64112 0.284895
298.473 8.24834 0.266244
384.869 11.2354 0.37745
356.28 10.224 0.313981
224.868 6.646 0.223228
279.313 8.53964 0.261511
311.264 9.66425 0.329102
261.261 8.31609 0.314574
365.351 12.144 0.420566
346.744 11.4688 0.431789
327.594 11.5181 0.416845
314.457 11.6235 0.428869
305.494 10.7906 0.415827
245.892 8.86038 0.353572
257.626 9.40383 0.388997
248.066 9.71408 0.406443
348.902 13.6523 0.586453
264.219 10.7392 0.447809
256.594 10.8367 0.471965
272.621 11.0653 0.479149
299.842 12.9797 0.586256
229.761 9.90644 0.455889
258.635 11.2219 0.552335
255.698 11.7077 0.581313
265.548 12.3607 0.645757
229.265 10.7321 0.547089
267.001 12.9128 0.635364
219.467 10.8246 0.560423
216.872 10.991 0.597349
210.054 10.2922 0.548072
291.837 15.0008 0.825902
222.197 11.274 0.668082
195.923 10.407 0.587817
207.07 11.1168 0.67329
193.365 10.9236 0.659161
229.131 12.4502 0.782678
228.198 12.9532 0.794098
210.081 12.6395 0.805679
206.36 12.3922 0.795409
186.466 11.5255 0.726038
188.919 11.8932 0.789118
209.54 13.0667 0.869106
196.822 12.9124 0.846027
182.911 11.9633 0.816838
193.685 12.7601 0.895059
174.097 11.6284 0.821132
196.606 13.5627 0.99504
178.575 12.1996 0.890591
175.9 12.4337 0.898394
148.183 10.234 0.772178
170.16 12.5039 0.933919
225.812 16.6627 1.25504
184.545 13.9454 1.12316
152.827 11.8237 0.986653
165.419 13.5705 1.15549
191.165 14.9602 1.19288
148.656 12.1808 1.05343
141.244 11.5856 1.02988
187.26 15.485 1.30805
168.854 13.9277 1.23454
167.214 14.1286 1.2386
124.766 10.4145 0.958247
152.926 13.6027 1.26134
165.466 14.3077 1.37001
153.687 13.8443 1.36008
142.741 13.1822 1.23376
133.63 12.4297 1.20469
130.014 12.266 1.22897
170.428 16.4007 1.62658
130.888 12.7902 1.29676
147.464 14.2229 1.44202
176.815 18.0592 1.88544
139.959 14.03 1.47363
138.343 14.193 1.5194
123.388 13.3236 1.44109
149.115 15.6478 1.66167
138.808 15.0305 1.68376
128.653 14.0146 1.57226
124.382 13.7904 1.61141
158.697 17.0057 1.93237
142.451 16.0318 1.84552
143.152 16.0817 1.81472
115.403 13.3171 1.62404
129.525 15.2482 1.80255
139.269 16.9309 2.1145
146.361 17.0056 2.10652
139.582 17.0371 2.04725
127.836 15.8253 2.01515
132.619 16.7107 2.14773
146.812 18.4392 2.39856
102.07 13.3362 1.77922
113.593 15.0744 2.03727
117.383 15.6676 2.12704
107.273 14.5293 2.00734
129.992 16.9554 2.34541
100.375 13.6389 1.93752
114.155 15.6848 2.21251
126.525 17.2949 2.45788
131.279 17.6657 2.48463
103.34 14.5937 2.14233
118.02 16.6726 2.40441
112.901 16.0544 2.34187
120.258 17.3019 2.57509
124.642 18.0381 2.63747
110.215 16.6968 2.55783
112.815 17.171 2.64368
95.7331 14.7497 2.34341
115.73 18.2252 2.94168
118.724 18.2391 2.98366
111.392 18.1651 2.99323
132.237 20.9358 3.37819
101.658 16.2295 2.70956
91.0182 14.8211 2.49291
98.168 16.1027 2.7217
88.1217 15.0177 2.60665
96.2255 16.5581 2.90286
122.527 20.7596 3.58943
104.658 18.1164 3.17981
92.8603 15.6794 2.91644
90.8685 15.8392 2.85758
113.059 19.3127 3.41899
99.0549 17.3458 3.0862
94.8667 17.2463 3.26516
85.3468 15.4932 2.90326
93.3684 17.3597 3.27615
83.3349 15.5264 3.00903
113.486 20.613 3.919
102.757 19.4731 3.71765
86.6712 16.5142 3.2237
93.7485 18.155 3.59279
81.6302 16.2791 3.25841
88.3651 16.8533 3.35943
96.0083 19.5955 4.10167
98.723 20.2126 4.16471
104.054 20.8318 4.31102
94.8098 18.9699 3.95856
83.8849 17.3823 3.71022
103.78 21.0622 4.52774
80.0842 16.7947 3.6506
83.966 17.1358 3.69345
80.1767 17.3639 3.8374
90.0188 19.1964 4.28898
90.6713 19.4945 4.38387
124.472 26.9023 6.00715
85.1911 19.1756 4.3772
106.468 23.1274 5.2278
88.673 20.0837 4.58163
91.3353 21.5244 5.14929
82.9799 18.7939 4.23921
73.742 16.9558 4.10383
89.7805 21.3134 5.0822
85.8905 19.8372 4.73581
82.8457 19.1947 4.63665
83.6114 20.1469 4.95822
80.4582 20.0246 5.06356
76.4952 18.2013 4.51277
80.9716 20.0196 5.01029
96.9435 24.6294 6.34399
88.1908 21.2702 5.31621
86.8154 21.6746 5.6531
85.2598 21.4771 5.40079
91.1336 23.3889 6.15146
86.3094 22.4382 5.97376
85.7679 21.9615 5.79985
81.5485 22.2197 6.07075
73.2333 18.7778 4.90938
79.8619 21.6209 5.91664
81.0893 22.2978 6.31483
74.962 19.8184 5.44405
75.2438 21.0402 5.92254
83.5044 23.0177 6.50574
75.6574 21.0306 5.96471
67.9491 18.7353 5.37634
79.7781 23.2655 6.85588
76.8558 21.7013 6.27595
67.5563 19.0666 5.5586
78.4984 22.8253 6.77448
77.9317 22.6038 6.62346
61.0243 17.9241 5.41369
58.8855 18.0458 5.47965
73.5361 22.5432 6.9304
65.1827 19.3759 5.86
71.2215 21.0247 6.31007
65.2837 20.3193 6.26137
69.3028 21.9571 6.98997
70.0039 22.0638 6.84847
64.2073 19.7565 6.33267
65.0104 21.1742 6.87897
65.8088 21.2103 7.12686
63.8015 19.4192 6.0776
61.9249 20.5481 6.85754
59.204 18.7614 6.2449
60.4271 20.1418 6.63714
59.5226 19.376 6.51675
63.6044 21.0393 7.06955
70.4376 23.6385 7.98622
59.8964 20.8656 7.17894
60.9085 20.2362 6.83438
72.5142 25.0518 8.73329
51.4544 18.2281 6.62592
57.798 20.0027 7.09782
64.0246 22.3879 8.15267
67.6994 22.6455 7.87802
54.0316 19.4067 7.1681
59.4599 20.902 7.4473
70.6269 25.9465 9.16754
54.9588 20.5276 7.69947
58.6187 20.425 7.45231
59.788 22.2005 8.36312
58.4728 22.1041 8.42701
51.452 19.6783 7.80538
56.8804 20.7811 7.87126
92.2337 34.388 12.4325
54.7258 20.8377 7.96076
59.4844 22.8681 8.72245
52.8194 20.6398 8.24269
59.585 23.834 9.5781
58.4981 23.913 9.83252
58.2337 22.4079 8.81997
61.8697 24.6168 9.92592
54.0401 21.0631 8.41327
51.0252 19.8662 8.02138
57.9683 23.3872 9.54797
59.789 24.3354 10.0239
49.0084 21.0222 9.29163
60.6551 24.5931 10.1613
63.9197 25.4653 10.274
49.5416 21.2159 9.33461
57.2937 22.7118 9.33576
56.5519 24.3928 10.6519
58.864 25.1565 11.1053
59.5149 25.1368 10.8034
50.449 21.1303 9.02118
45.4289 20.3108 9.42737
54.9439 23.6285 10.138
47.1072 20.231 8.99323
51.7588 22.1014 9.53391
53.7037 24.8747 11.4923
58.4762 26.2331 11.9069
57.1094 25.6045 11.5011
46.9477 21.5714 10.1309
52.2356 24.3822 11.4497
46.7627 20.3298 9.51007
52.9622 24.0299 11.1457
54.5755 24.4936 11.0658
50.4553 24.005 11.4506
46.778 21.9947 10.5399
49.4462 23.858 11.7548
45.6046 20.7865 9.62267
46.8174 22.3848 10.6211
51.2089 24.9477 12.3763
41.2143 18.7301 9.00424
49.3543 24.166 11.6333
45.0814 21.1334 10.1421
42.8107 21.4214 10.901
47.3726 23.4096 11.8662
48.2552 24.3071 12.4066
52.638 24.7356 11.803
48.352 24.7436 12.5499
45.9596 22.5513 11.6593
42.9983 22.4353 12.0066
41.6382 20.1243 10.0636
43.188 22.5493 12.0335
46.9912 24.2963 12.4997
42.0357 22.5907 12.255
45.1388 23.8066 12.6348
50.907 25.4416 13.2803
37.7252 20.4655 11.5261
49.3716 25.7795 13.3837
41.9156 21.9229 11.7375
49.5355 26.8458 14.5687
43.4771 23.6685 12.9235
40.4115 22.3258 12.4175
40.6065 21.6071 11.7329
37.8178 21.1891 12.1892
40.0519 22.1632 12.8712
41.1605 21.1996 11.4469
37.5351 20.582 11.5372
41.6162 23.0077 12.4629
40.7043 23.2911 12.7906
33.8674 19.8156 12.089
38.0258 21.6179 12.6441
44.4379 25.6181 14.9327
40.2979 21.9768 12.5222
44.359 26.3599 15.4844
38.033 22.2461 13.245
43.1069 25.1958 14.9749
43.3372 24.8075 14.4702
43.709 26.7312 16.7808
44.6964 25.904 15.6135
39.9268 22.1923 13.0751
32.2909 19.2827 12.1068
38.2172 22.5367 13.7218
41.2496 24.0675 14.3385
37.3298 23.2302 14.6378
38.6662 23.1765 14.0736
37.0412 23.2984 14.8377
38.1414 23.0509 14.1537
38.8403 25.5524 17.0063
46.1685 26.7985 15.7771
40.0457 26.2155 17.1101
39.5882 24.7654 15.801
38.1094 23.7755 14.9948
37.7361 23.8367 15.3144
38.1979 24.407 16.0058
39.4318 24.7602 15.955
32.6452 22.2207 15.3834
36.5643 24.0875 16.7815
46.6457 28.5302 17.6768
39.2303 25.3945 16.3826
34.9836 23.0195 15.2412
31.2299 20.9355 14.4977
37.7999 24.6766 16.2456
32.0688 21.3524 14.5943
32.3512 21.3189 14.2617
30.8485 20.1433 13.5583
32.8348 22.7149 15.2924
31.8275 22.3457 15.8277
37.2036 25.3067 17.2546
34.8839 24.6197 17.1385
27.0986 18.8157 13.5043
33.6154 22.8979 15.696
31.6626 20.9419 14.472
32.0961 23.694 17.0952
30.5404 21.2161 14.9804
26.8095 19.508 14.5328
32.3694 22.4524 15.9957
37.7602 27.6728 19.9587
27.7702 18.952 13.8445
33.3084 24.7018 18.5393
36.0316 26.151 19.3272
34.6423 24.0748 17.0766
31.2229 22.1051 16.1711
27.322 21.1001 16.1839
29.9458 22.2256 17.3069
32.4873 24.0001 18.0099
30.9825 24.0513 18.99
30.8133 23.0004 17.4017
29.3461 21.2545 16.0809
29.4694 22.4362 17.296
30.3174 23.4492 17.9104
29.0581 22.8017 18.0434
32.3534 24.5131 19.0897
35.4165 26.4588 19.4714
30.1913 23.7317 18.4389
30.4824 25.1173 20.8644
32.1737 23.8635 18.2396
32.1958 24.5724 19.2738
29.896 23.6007 18.7109
28.5556 22.5724 17.8793
29.2199 23.676 19.6385
31.8087 24.5352 19.9483
31.443 24.8894 19.5203
31.645 25.7155 20.8465
26.6607 22.2484 19.2712
30.2721 22.99 17.87
24.3168 20.1659 16.8888
27.8031 23.9871 20.1838
28.7749 23.136 19.1131
28.9108 23.561 19.8174
28.1018 22.354 18.026
27.9375 23.4309 19.8997
29.7834 24.5331 20.2747
25.6139 21.5752 18.9937
30.1363 25.0789 21.6223
26.0808 20.5902 16.6704
21.1145 19.0671 17.2937
28.0333 25.1362 22.6989
27.5372 22.7299 19.4884
23.5739 20.1732 17.6684
26.8554 22.6206 19.2807
24.3096 20.4822 17.7147
24.0101 20.6585 17.9701
24.1865 22.0945 20.2751
29.451 25.1971 21.5887
24.4828 22.469 20.8007
28.3496 25.0484 22.5679
28.4169 25.3537 21.9575
26.2538 23.7814 21.6448
24.3286 22.8571 22.5174
29.5089 25.904 22.8021
26.8855 24.1828 23.1401
29.586 25.442 21.6705
22.0137 20.8804 20.7899
24.6848 21.0743 18.4889
26.2825 25.1333 24.2262
29.0462 25.6705 22.9626
23.3243 21.2996 20.2303
23.6864 22.7155 22.4641
28.5578 25.1812 22.3083
22.9383 21.6503 21.2598
23.9106 23.4894 23.8088
28.1541 25.3517 23.0722
25.3652 24.1914 22.7617
23.1742 22.8091 22.9079
26.9874 24.6969 23.2801
25.826 23.8243 22.5439
25.2318 24.5857 23.2766
21.4146 20.8364 21.6886
26.2971 24.2348 22.4147
21.9846 21.8379 21.6422
25.1074 24.585 23.542
21.6569 22.4049 23.0581
25.7399 26.0372 27.3676
33.6382 33.0814 31.2105
25.8614 25.2047 25.3032
23.1594 23.0797 23.9374
23.5874 24.2988 25.5789
23.8196 21.6053 21.2505
26.273 27.3314 27.9755
23.6686 23.8553 24.4912
22.7703 23.976 25.907
26.3111 25.7477 25.6522
22.0377 22.4654 23.7808
25.2655 26.2066 27.363
21.9015 23.5237 26.2365
26.9477 26.1213 26.2443
29.2694 29.8525 30.151
21.4745 21.237 22.8655
23.5331 24.0487 24.2163
20.8337 21.1137 21.7668
20.2254 22.4651 24.8037
18.3714 19.9265 21.747
19.3456 21.6338 24.8736
22.2553 21.3363 21.5686
21.2246 22.1163 23.2131
19.3325 20.8108 22.3116
19.0672 20.5874 22.9251
22.6605 25.3039 28.5483
22.7896 24.4801 26.6598
22.0187 23.3517 25.8904
23.5393 25.6237 27.0035
20.7317 21.119 22.8663
20.3092 21.7318 23.4984
18.2706 20.6505 23.909
22.7677 25.793 28.1485
17.949 20.647 25.9274
22.7472 24.9871 27.9235
23.8391 25.4581 27.1724
20.0992 22.9649 25.5999
19.9014 21.9127 24.5839
20.33 22.4248 24.3696
16.5603 20.3819 25.1806
19.4947 22.5804 27.0411
19.7748 22.2332 26.3939
21.4623 23.8157 26.1346
20.5074 24.8778 29.9877
21.3912 24.4032 29.577
23.5963 26.2622 29.2551
23.1159 25.703 27.8355
17.2016 21.8227 27.9641
22.368 25.0727 28.3783
22.3165 26.8249 31.5786
18.9945 22.4436 26.4058
18.1289 22.4778 28.7426
17.849 20.3987 25.7504
22.9015 26.5036 30.374
19.4916 23.9583 30.9816
20.841 22.5873 25.3388
17.7666 20.4932 23.6622
19.698 25.0268 30.4387
16.7058 20.7492 26.7079
18.9572 22.6223 28.1159
19.7187 23.1874 27.6719
20.4653 25.3768 31.6032
19.7749 24.3721 31.0505
17.9349 21.4251 26.9271
19.3908 24.3651 29.8489
17.1441 20.7967 25.8766
18.0758 21.9285 27.044
16.941 20.9061 25.9476
19.2962 25.1539 31.7341
17.8038 22.838 29.4346
17.2855 21.1324 27.6806
18.4226 22.4913 28.1465
19.5093 25.3972 33.2875
19.2454 23.6401 30.7483
19.1607 22.399 26.977
16.9598 21.1849 27.9614
16.6456 19.7298 24.4631
18.4099 23.4718 28.5476
17.5829 25.0887 33.0706
14.4716 20.0355 29.2669
17.6564 23.2571 30.8634
17.2583 22.4903 30.1804
17.1612 21.6967 29.2198
19.8792 23.8529 28.8531
18.7388 27.2423 38.2442
19.0807 24.267 32.9833
20.1191 26.4437 34.5119
18.3534 22.6477 29.0365
16.6634 21.8327 29.0961
16.3414 20.9764 27.9009
17.946 23.8387 31.8654
16.7226 23.4567 32.3343
15.0173 18.9957 25.6713
17.4686 24.7957 33.9617
16.0924 20.9343 27.7334
16.4323 23.8085 33.9153
16.4357 22.2143 33.2987
22.4959 30.2515 39.1049
13.5232 17.5519 25.1695
16.0053 21.8323 29.7385
16.3959 22.6156 31.1987
14.1018 19.8028 28.9733
17.159 22.9809 31.8091
17.0878 24.1326 33.9292
14.9532 19.7656 27.3789
15.2441 21.647 30.1647
14.4849 21.526 31.6829
15.8074 21.9068 31.9157
17.5092 24.8488 36.8393
18.9267 26.0348 35.9285
19.7399 30.7307 44.8865
15.5051 19.7539 28.4811
15.1613 21.3901 30.314
14.2476 20.7527 31.4457
18.7143 26.7143 36.9652
13.9047 19.3836 28.286
15.5309 23.5912 35.3217
15.914 21.7469 30.3201
12.2189 18.2821 29.0764
14.3991 19.3041 27.5743
14.7027 21.3191 31.5209
15.0174 22.0655 33.5765
15.7621 23.1816 33.4545
15.1992 21.8474 31.6274
13.9787 21.0667 30.8909
13.3141 20.1822 31.3614
13.984 22.2503 34.971
16.4346 23.5311 34.5439
14.2499 20.1711 29.7526
14.7478 21.9997 32.0518
14.088 21.3727 34.354
14.5118 20.3737 32.1127
16.4496 23.6371 32.5053
12.843 21.4877 36.0732
16.4209 24.7671 38.3817
16.1894 23.5705 34.8321
14.261 21.638 33.8452
14.5508 20.2217 28.774
12.7919 20.6517 32.1461
13.9119 22.3807 34.2265
13.3281 22.2322 36.2231
12.88 20.0977 33.6088
14.425 22.3878 36.0988
13.2178 20.0824 33.2784
14.0773 20.0116 30.3961
13.2978 20.8834 32.7639
14.1283 23.532 38.4818
16.0221 24.8827 39.2484
14.0424 21.3157 34.5107
14.0331 21.2958 33.7416
14.2504 22.1807 34.2948
12.0421 18.6103 29.6906
13.5695 22.6135 36.806
12.256 19.156 32.7838
13.5303 20.2828 32.1928
12.8271 20.3355 32.3415
13.9787 23.1992 38.472
13.5879 20.6432 33.1532
13.1524 21.0577 35.6795
14.2387 22.2199 34.5343
12.1708 20.0403 33.9063
12.2728 19.7975 32.0028
11.3902 18.4867 30.1277
11.2498 18.9101 30.7344
12.5149 23.3237 41.5422
13.1293 19.7739 33.5619
12.7156 20.2084 34.2325
13.3868 21.4297 33.814
12.4068 20.6226 33.779
11.9987 21.2277 36.5481
13.0639 23.6137 42.4591
13.6663 20.654 33.7757
12.4801 20.653 34.627
10.113 16.8182 31.8342
13.551 21.52 34.6635
12.2386 20.0316 33.8891
12.6774 21.466 37.6656
12.6985 19.498 31.9682
13.2568 24.0031 42.3454
15.5847 27.2644 45.947
13.509 22.879 40.8226
12.701 20.0918 34.5583
12.6171 21.2313 36.4727
11.4151 20.4982 37.2217
12.1158 20.7852 38.4108
13.9579 23.7184 38.7861
11.7909 19.7587 33.4884
11.4956 20.6089 37.3527
12.7123 22.0267 37.7619
11.969 20.8601 35.762
11.5277 21.5708 38.9174
11.1365 20.2383 36.5674
9.76246 17.4837 38.192
16.3524 27.6241 43.6965
10.8479 18.8169 35.3561
11.3215 19.2161 34.2491
11.9243 21.3481 37.7654
12.4654 22.7141 38.2175
10.5714 20.1244 37.7308
12.1669 22.3794 39.0615
10.4867 18.4968 35.0302
10.2419 20.0315 39.29
11.4468 18.6476 33.791
11.0673 19.6116 36.0918
12.5038 23.3625 42.6226
11.3811 18.5712 31.8525
9.94697 19.3796 36.0796
10.1418 19.3373 38.1641
11.3612 20.1033 36.4791
10.3807 18.2777 34.3248
11.0389 20.5704 37.9518
11.7334 22.1191 41.6027
11.2066 19.0416 34.5486
10.8516 20.8573 39.6126
10.8005 20.2893 40.5188
11.4995 19.5048 35.8121
11.095 21.0864 40.1124
10.7614 19.2762 35.143
10.2135 18.9475 35.8629
10.4383 19.9802 38.5614
10.5177 19.3393 37.0534
10.262 19.3262 35.6294
9.27679 16.9387 32.5472
9.92492 19.0855 35.7647
10.1242 19.8166 38.8353
10.4299 20.6757 41.4738
11.1926 19.954 37.2535
11.411 22.9713 44.6465
10.6676 18.8537 35.0444
9.68806 19.012 35.4484
9.88386 20.413 43.8088
11.6567 20.3702 35.7908
9.3264 18.3941 38.1834
10.411 18.769 36.1954
11.3253 21.9724 38.9895
9.4707 20.1231 40.4867
10.5199 20.4074 38.4786
9.10291 17.6373 34.5742
9.01284 19.7369 43.9821
10.7459 18.4834 34.6708
8.78521 18.2925 40.4164
10.8442 19.8348 38.0434
10.0906 20.242 41.9696
11.4616 23.0301 46.8909
11.2937 20.6798 38.9813
9.32576 18.2008 36.0106
9.77907 17.9921 32.9519
9.86475 21.2316 40.1752
8.25962 16.9911 37.5007
10.3581 20.9719 41.2692
8.23568 16.6 36.116
10.1598 20.1633 38.305
8.72395 19.4231 42.2579
9.63685 18.4156 36.6137
8.93941 19.1863 40.0145
8.20026 17.1222 37.9945
9.19032 17.8933 37.0302
9.88309 20.5336 42.2039
9.69728 19.2965 39.9641
9.77874 21.6238 49.9034
12.0324 23.549 47.5796
10.645 20.8039 40.9504
9.64958 19.7809 39.6717
8.06819 16.6949 36.3069
7.99379 16.5838 38.7347
9.56598 18.2064 36.7908
9.24709 17.6969 34.8634
9.37393 20.7416 43.0432
9.5196 20.0935 42.573
9.92475 19.9451 41.0706
9.17167 20.0085 43.164
8.48467 17.0087 37.3564
8.11212 16.8031 37.2213
8.86284 17.745 37.3592
7.98376 16.1365 33.9271
8.18903 17.296 37.2619
8.78304 19.3894 42.1762
8.94659 18.0192 36.7437
8.19079 17.9136 39.5698
9.3161 20.8294 42.9602
7.98084 17.216 38.1936
7.7856 16.4091 37.9875
9.32948 19.3532 37.7692
7.37481 16.3075 38.2458
8.31064 16.7269 37.4624
8.54239 18.1052 38.0403
8.27652 17.0155 35.6972
8.15614 19.815 43.38
7.67458 18.9173 53.5115
12.5951 23.3552 43.0277
8.73464 18.009 35.514
7.25785 16.5464 36.8071
7.67502 17.7262 38.0774
7.31959 16.6825 40.0405
7.92357 16.6239 37.4883
8.08694 17.1944 36.8043
7.69565 18.0254 41.8436
8.5089 18.1094 39.6821
8.24201 17.7096 40.3074
8.51085 18.2648 37.9562
7.31013 16.3272 37.7986
8.34204 18.1045 40.4388
9.03252 20.2748 42.5171
7.62448 17.2555 40.5933
8.22387 17.9048 37.2703
7.65487 18.1086 42.4299
8.73042 19.4107 40.7976
7.71146 17.9288 41.4296
7.03153 15.2848 34.3986
6.36257 15.1431 38.3086
8.11776 18.5541 42.9235
8.00663 17.4326 35.9944
7.00607 18.7864 46.3356
7.29585 15.373 35.7014
6.97977 15.5773 32.5295
5.33769 13.4324 34.3161
6.78334 16.3353 38.6342
6.11696 13.5993 34.2568
6.54637 15.1569 39.2331
7.84845 17.1379 39.0363
7.48989 16.7164 39.6576
8.04584 18.4421 40.6457
6.36333 14.8378 38.0848
7.50496 17.447 40.6448
7.03904 15.8097 36.3457
7.02817 17.7888 45.0325
7.94252 17.3203 39.9145
8.08674 21.0996 50.5706
7.49971 16.6474 41.0473
7.07851 15.4028 38.7946
7.67945 17.3832 38.8339
7.16704 17.6612 43.5248
7.32159 16.7839 41.3086
7.78697 17.8538 42.5431
7.67139 19.182 49.4173
8.65132 18.6209 40.743
6.61499 15.6476 41.1289
8.17874 19.197 45.0044
7.65211 17.3949 39.766
7.50742 19.0491 45.8905
7.02559 16.2569 42.6177
8.22102 19.5532 46.9359
8.2964 19.0463 42.9611
7.48196 19.3347 48.1286
7.29597 16.8214 43.118
6.88373 16.8687 46.7755
8.8557 19.6584 43.8841
7.90393 20.2118 48.8196
8.10776 19.8369 47.6313
