# pn-170911/RbIIR-61-KOKB-1280-1959.psd
# Power spectrum* (dif=0,1,2) (really just |FT|^2)
# NOTE: only the first half! (symmetric)
# weeks: 1280-1959
# 4 clock-days, 0 excluded
# PSD: 1441
137.004 0.0828361 0.00336108
15069.3 0.379139 0.00227099
39439.3 0.860107 0.00228182
13957.4 0.329683 0.00241045
5558.63 0.285716 0.00242589
5579.93 0.347527 0.00237861
5164.28 0.980887 0.00254596
1038.86 0.333407 0.00232035
1301.29 0.589055 0.00240436
4304.27 1.2567 0.00191169
912.472 0.261604 0.0028792
569.262 0.239118 0.00260567
1200.86 0.685695 0.00187191
681.216 0.427332 0.00374641
459.659 0.434155 0.00239276
763.177 0.595385 0.00107731
252.507 0.407711 0.00332256
970.392 1.06111 0.00333944
91.689 0.273125 0.00376128
299.153 0.572974 0.00472698
750.615 1.27353 0.00127885
67.5366 0.365384 0.00347828
113.614 0.293075 0.0032443
335.81 0.997741 0.0024233
277.722 1.12083 0.00507893
456.638 1.03115 0.00333399
514.648 1.31531 0.0042725
278.107 0.54907 0.00310402
482.124 1.67319 0.00945851
71.712 0.34253 0.00381708
375.351 1.0334 0.00317559
100.879 0.74706 0.00425564
248.556 1.16677 0.00544115
226.827 1.43319 0.0084739
231.153 1.60926 0.0124091
145.409 0.82297 0.00815857
179.724 1.31119 0.00802711
63.6864 0.43201 0.00448537
138.144 1.33864 0.0123142
402.321 2.63848 0.0196045
264.505 1.85443 0.015845
136.823 0.698884 0.00802914
187.196 1.81519 0.0137222
173.061 1.01508 0.0100063
46.9109 0.609492 0.00964809
76.1763 1.06646 0.0151476
210.553 1.53405 0.0105192
205.066 1.61659 0.00943794
202.508 2.00347 0.0152399
37.2363 0.496675 0.00462897
130.268 1.67337 0.0157526
324.078 3.64881 0.0589651
181.519 1.75601 0.0274449
226.158 3.06087 0.043421
198.761 3.52082 0.0445773
142.602 1.29074 0.0151722
134.055 1.6684 0.0168637
118.687 1.82491 0.0303735
57.3107 0.803119 0.00763705
75.989 1.40477 0.0212565
190.781 3.74817 0.0758767
189.605 3.07316 0.0535616
164.042 3.07206 0.0687942
150.436 2.27666 0.0443001
163.489 3.07458 0.0679409
181.585 2.87931 0.0594483
158.423 4.07169 0.0892698
159.191 2.58487 0.0590458
111.284 2.50054 0.0706532
152.248 3.76944 0.0699841
137.84 2.71003 0.0726677
97.788 2.19654 0.0441741
462.391 10.4474 0.251591
107.898 2.11828 0.061653
165.424 5.01125 0.143128
180.142 5.22505 0.154478
17.6979 0.714361 0.025366
94.7119 2.93405 0.0923566
403.014 10.2014 0.295478
122.828 3.25858 0.0865023
89.9965 3.17208 0.0952464
29.8165 0.989023 0.0444417
71.7945 2.09015 0.047844
38.5034 1.68663 0.0629758
54.242 1.51867 0.0524166
46.1317 1.68804 0.0559344
84.6405 2.9862 0.106385
169.083 5.95092 0.208405
95.1985 3.13728 0.114551
74.5854 2.58904 0.109818
254.264 9.92664 0.397894
199.512 7.24506 0.304111
121.096 4.75785 0.22708
62.839 2.88209 0.150819
175.271 7.693 0.300805
98.6262 4.45868 0.211709
209.577 9.59025 0.437825
49.4754 1.69821 0.0913734
177.728 7.17523 0.333852
154.789 7.42743 0.315124
85.9547 4.5317 0.21324
72.6474 3.24896 0.149101
145.56 5.79717 0.294058
131.918 7.20353 0.37643
62.6162 3.15332 0.207107
131.929 7.72088 0.450632
83.3372 2.82126 0.129971
31.7561 1.20113 0.0566932
91.103 3.82109 0.208069
131.22 6.71092 0.349808
160.554 8.82893 0.471205
43.5586 2.30979 0.125612
217.807 13.0506 0.789509
196.04 11.5682 0.757439
115.908 6.79302 0.391316
67.6085 3.48279 0.207853
95.2837 5.7265 0.388812
33.4708 2.09654 0.145332
60.9105 4.07878 0.293996
79.6038 4.64076 0.284587
97.4966 5.26813 0.351959
146.351 9.40701 0.748138
116.291 8.13865 0.561447
80.1449 5.25947 0.420657
272.103 18.8562 1.38734
112.077 7.43523 0.501982
61.1484 4.73103 0.330503
48.9746 4.50063 0.409259
194.189 14.9868 1.10744
46.8335 4.02721 0.338242
106.479 8.47749 0.724862
96.2513 6.85635 0.488007
144.447 13.1432 1.09482
49.2701 4.37002 0.400128
99.1566 9.01438 0.772707
63.8799 4.83449 0.454819
93.8101 7.55257 0.633186
86.3147 7.9269 0.715534
56.3308 5.25649 0.575583
176.828 15.451 1.23695
198.456 19.1718 1.85455
162.355 15.4608 1.50472
64.1787 5.20681 0.446366
76.4457 7.19718 0.637238
111.933 11.3208 1.06912
150.346 14.972 1.5537
37.4132 3.5488 0.407077
107.05 11.1755 1.05473
144.673 15.075 1.47111
174.018 18.1145 1.78688
83.1123 10.4656 1.16027
144.217 16.3024 1.68218
173.389 19.5467 2.2949
100.774 9.51945 1.00161
76.3453 8.50726 0.955793
109.526 13.359 1.46448
61.2439 4.80668 0.384287
75.338 7.56532 0.80789
50.967 5.89284 0.688967
78.4222 10.4684 1.29749
152.389 19.644 2.38294
95.3879 12.529 1.63429
118.176 14.6617 1.80708
94.0872 10.7411 1.34526
34.9842 3.15417 0.403007
46.1313 5.39905 0.724516
72.5794 8.03808 1.00606
41.8077 6.09854 0.905827
159.407 20.9228 2.57606
158.705 24.3778 3.3324
167.048 19.3808 2.50608
105.27 14.6469 1.90357
63.7429 8.76309 1.28494
59.0602 7.70398 1.0429
75.619 10.5597 1.53755
97.469 12.9621 1.72815
39.5765 6.43397 1.11166
123.241 18.5374 2.77419
150.571 19.5718 2.75263
100.465 15.9177 2.41706
44.7646 6.38732 0.990383
50.771 7.18477 1.03505
65.9346 10.822 1.92809
37.6559 5.77177 0.922614
113.68 16.5742 2.55836
146.015 24.3814 3.77519
29.5095 6.41367 1.35845
83.7318 10.1909 1.35915
73.2959 12.0356 1.901
60.3898 9.47387 1.66995
54.9105 9.09136 1.43655
142.775 26.8555 5.05729
132.984 20.2107 3.29711
112.082 19.1063 3.32481
81.7534 16.5316 3.13296
111.86 17.9572 2.96637
78.1721 14.2218 2.80165
38.2472 5.31693 0.803902
26.1082 6.38216 1.37509
122.239 21.4798 3.92139
152.652 28.9723 5.8744
168.25 28.6789 4.94344
83.644 16.4105 3.05797
57.3611 11.3991 2.36268
94.954 19.9865 4.14599
111.148 18.9536 3.36779
73.7 14.5433 2.93091
57.5748 12.8898 2.79873
119.517 24.2048 5.02626
54.9056 10.2595 2.2811
77.0057 13.2819 2.45986
48.0798 8.33636 1.57922
48.5852 10.4085 2.25769
168.394 31.2062 6.13332
76.2467 17.5302 4.32901
28.864 5.55953 1.13591
37.0047 8.65913 2.01501
56.4082 11.2952 2.21136
48.7558 11.2384 2.57324
56.4415 12.6723 2.78453
17.4864 5.20138 1.43141
50.3849 11.2067 2.53632
50.6173 11.9986 2.63668
40.1834 12.0005 3.6827
130.997 25.8765 5.10239
26.9879 6.78 1.71693
95.341 24.5196 6.50677
48.5487 11.385 2.60122
74.2919 17.7369 4.13717
75.505 17.6509 4.27905
63.1897 13.3285 2.99023
28.4033 8.36384 2.5078
83.6838 18.6888 4.07229
59.5323 17.7034 4.84096
99.8599 28.1105 7.63858
68.5657 14.8089 3.85498
41.9007 10.1795 2.79186
30.2867 5.65651 0.942868
72.6092 18.017 4.10129
79.3768 24.0744 6.60213
30.8236 8.88109 2.93752
85.6394 21.3228 5.1737
77.2122 24.1077 6.89893
61.6114 16.1116 4.81494
15.3318 5.16477 2.0948
80.5302 24.3342 7.02324
86.5126 23.0402 6.09281
23.3951 7.25148 2.1925
89.6761 22.4526 5.22918
114.762 37.6479 11.6852
84.8548 22.0166 5.7312
39.2985 12.4564 3.69832
68.1366 21.6494 6.88944
32.7802 8.00576 2.04191
53.2144 16.4691 5.74476
48.4207 13.5402 3.59381
55.1143 18.783 5.50961
30.4011 9.72726 3.08947
38.9851 13.3279 4.40372
16.7219 4.65395 1.602
33.9888 9.46516 2.57647
29.7445 8.72974 2.91685
41.2108 14.4386 4.24889
30.8541 11.0826 3.64516
71.1375 26.4423 9.29995
32.1441 9.66152 3.7092
38.6369 9.10102 2.07727
27.3373 10.2802 3.88649
122.082 37.8373 11.5309
41.4832 16.832 6.87101
17.24 4.34585 1.28314
60.8623 21.7909 7.29958
45.196 18.1267 7.11046
75.2529 28.3842 10.9397
98.622 32.6453 10.9458
94.5948 28.697 8.01031
41.5176 17.6852 6.47831
9.08289 3.90081 2.03109
30.3801 10.9467 3.6402
59.4833 24.3507 9.53324
50.8674 20.5604 8.97887
71.6921 22.3378 7.11662
34.5852 11.8107 5.17474
49.8994 15.289 4.46145
16.0492 3.38262 1.02468
73.8197 26.159 9.3458
31.2387 11.0383 4.03673
45.7442 15.2384 5.2915
11.2746 4.18174 1.5518
21.6117 6.99192 2.34245
41.7808 16.9653 7.17575
35.7961 14.3596 5.33075
25.6974 12.5892 5.90289
37.744 13.5985 5.12619
27.6342 11.1389 4.25641
17.1272 5.84457 2.82236
122.092 48.2566 18.8324
26.9796 9.91827 4.34486
38.8801 16.6984 7.19137
57.463 21.7554 8.15589
16.2449 6.77583 3.27241
70.9479 31.6639 13.3511
39.0144 14.6983 6.08737
60.077 24.0662 9.82737
60.3296 25.6118 10.7557
16.5886 7.35879 3.29133
35.1122 14.8829 6.73492
50.8716 21.5466 8.43785
16.1451 8.8991 4.60988
57.2624 26.369 11.6601
28.3417 11.0359 4.92417
42.6988 16.319 6.58137
25.349 14.4845 7.94519
59.8039 24.8161 9.52658
83.1969 41.1164 20.0978
54.9654 20.7538 7.72903
38.8265 19.2001 8.5654
23.7934 10.7022 5.37619
80.9607 34.8851 14.77
13.0728 6.78439 4.36128
64.097 29.9431 14.0376
35.8278 17.7079 8.17263
20.8195 13.3458 8.21142
33.541 19.5263 10.7364
46.6811 19.5298 8.28329
70.1383 36.8724 17.978
90.2336 41.3131 18.4168
90.9751 44.6526 22.0939
50.6183 25.2738 12.0062
28.8937 16.1542 8.56738
47.5431 20.2729 9.30111
29.7808 18.0571 11.4721
51.031 25.5593 12.2505
32.4434 12.9096 5.51926
19.1734 14.1804 9.17523
71.8869 33.6794 16.6116
15.9292 6.01027 2.64507
57.2022 32.5767 18.808
51.4225 22.4331 11.2967
57.6436 25.6298 10.567
44.5319 22.6513 10.6333
32.1686 20.7253 12.4271
17.4101 6.98928 3.53215
42.1709 22.7144 11.3712
34.3593 21.5798 12.5849
51.7217 29.4314 17.5198
54.6682 25.3971 11.3825
37.3157 24.7164 16.5326
31.8288 15.5733 8.60422
23.8977 12.1991 7.13258
48.2056 28.8948 17.2214
56.7497 25.7919 10.3436
25.9628 15.1927 7.69224
11.5175 8.11173 5.46638
19.553 8.14059 3.6238
17.4248 10.2197 5.86962
19.4151 11.494 6.81091
27.5925 15.9836 9.52104
39.8402 25.4585 15.4809
18.6807 10.2542 6.2025
16.6219 8.37913 6.01362
32.8029 20.2651 11.6856
41.648 20.8603 10.3392
27.9548 20.0874 12.3327
24.4115 14.7365 9.15934
17.9938 12.5077 8.69025
20.6898 13.6443 9.48748
46.6222 23.4447 11.4832
39.4396 24.7239 15.5862
21.5115 13.394 9.29043
30.1493 17.1598 10.1315
16.1173 8.39549 5.64569
57.8282 38.94 24.7291
52.3008 30.0881 14.7877
33.0075 25.4123 18.1679
44.5049 33.1554 23.9668
17.7194 15.7589 15.2757
47.059 20.8818 9.18382
23.1042 13.5121 7.13953
22.4368 16.9825 12.4995
19.4526 13.1783 9.16039
26.0662 18.658 15.1736
50.8235 26.3545 12.2154
46.1644 31.1904 18.7915
21.4519 17.6826 13.146
26.6737 13.4214 7.05611
38.6336 26.685 16.7669
21.8383 18.9649 16.5468
39.0592 21.1106 10.6617
7.22295 3.97347 2.72555
24.7648 16.6111 11.104
30.7403 24.6982 19.6847
20.3321 15.7966 13.6507
45.9738 33.769 23.0805
14.891 7.41837 7.98119
48.9903 27.9711 13.4567
17.0072 12.43 7.50033
23.9184 17.6072 11.9138
20.145 15.1386 10.21
20.6638 14.799 10.4832
28.4884 26.2583 24.0666
50.4337 32.8205 21.6164
25.7245 18.4134 16.5435
51.7575 37.6374 26.4734
65.4678 39.798 22.8457
29.6603 22.3403 15.5869
21.5556 21.3378 20.0211
35.7769 17.4193 7.83982
36.2643 29.7347 23.9698
37.3233 24.2687 14.3807
16.2822 15.2934 13.0637
44.3457 41.5153 38.1983
41.7965 26.3917 20.6798
86.7648 66.6007 46.7673
37.8744 26.246 19.604
36.9742 22.4719 12.1506
25.0243 20.2913 15.9354
14.102 8.74328 6.36158
28.482 24.8056 18.1736
15.8986 16.8572 14.7363
17.7736 15.312 14.1208
19.2557 12.2424 8.3569
22.7012 24.2466 25.5054
22.2156 10.6669 6.55875
33.5409 28.6751 21.8141
20.2463 14.8463 10.9527
11.3328 6.93542 6.15226
28.7358 24.0621 18.915
11.4656 10.9599 9.80122
28.3878 30.1876 30.5837
42.1163 26.336 18.8815
30.1528 20.163 14.0304
26.5261 27.658 28.5048
38.3504 22.3452 13.5606
33.7819 24.5777 14.9876
19.7736 19.3202 16.1815
22.5116 18.8774 14.5202
33.0956 25.3915 18.2143
24.9335 21.9664 18.3299
11.3797 13.8406 15.0544
10.982 9.37223 9.94245
22.576 20.5712 16.8099
25.1857 27.7408 26.2442
23.7343 12.7615 6.94075
11.5499 12.4073 12.4905
20.2482 16.8936 15.0099
39.2603 37.9898 32.3948
12.6442 11.3371 12.602
30.5632 28.3752 25.4762
12.2303 10.3102 13.5627
27.2993 17.316 9.90209
7.45147 4.8162 2.67248
17.2349 20.881 22.6556
10.5341 10.918 17.2134
38.9111 24.8258 15.1928
26.4144 23.9324 19.1221
36.7034 30.5946 20.9182
23.777 29.8128 31.7415
18.2759 17.4782 18.857
19.7202 18.3522 16.9471
19.0784 15.8989 12.3688
13.7418 17.4441 20.1255
22.2908 18.6325 15.9492
19.1238 18.107 17.0233
8.36266 7.02208 7.85641
26.3659 26.2216 22.2811
3.43619 3.59199 6.08072
14.5158 16.2109 21.2154
43.6303 34.7018 24.3208
9.55263 15.0067 22.5579
36.8653 25.7915 16.1296
11.4565 12.5307 13.3296
20.7883 20.2308 17.4937
19.9371 23.1001 24.4872
32.6257 31.5966 26.2803
6.883 10.5457 13.5948
16.6664 18.0509 18.6749
3.0245 6.13465 12.1093
20.6572 23.4897 31.0082
30.3205 24.657 21.4276
22.7995 15.0689 11.1349
16.4029 12.9935 10.743
20.3373 20.4532 18.626
20.0766 17.0385 12.8179
14.412 22.4952 28.5069
26.3279 22.6284 20.184
4.05831 8.95808 17.08
20.5957 18.0091 18.8206
33.8653 40.2127 44.4387
40.8031 30.9581 23.5383
11.945 12.2079 10.4707
9.13083 9.55298 11.3746
18.1106 18.745 17.4015
16.6567 17.3931 17.9257
21.5959 24.6995 25.7488
5.36301 7.65004 13.0179
25.4284 23.4444 20.8972
12.4427 10.2452 7.68991
10.1996 14.434 17.8883
6.51184 8.24409 11.0419
24.2829 32.9072 41.0914
19.2948 20.5909 27.1564
27.1852 25.0523 20.8901
11.8691 12.5981 13.8312
15.5509 21.4163 26.5678
9.16731 8.60336 15.545
38.6931 30.916 19.9666
13.9925 20.5017 23.8525
13.2947 15.5923 18.3923
9.51328 11.751 15.6038
8.47325 8.9334 12.1117
15.8329 17.4723 19.5869
24.4984 28.1903 29.9082
10.6934 9.53229 12.9318
21.455 19.921 19.116
12.9388 10.8525 7.98686
24.1081 34.2046 37.4926
14.6755 24.6344 45.429
34.6589 22.7734 12.7073
30.7369 38.0476 36.0662
7.69669 11.525 20.1667
34.6047 36.7742 35.2001
10.9877 16.1779 23.7951
21.2185 21.8045 16.6807
11.5244 23.2961 33.9276
12.3126 15.7213 25.4768
31.1646 39.1825 45.9875
24.31 29.9217 38.8568
26.0527 25.9416 31.8851
19.7868 15.4279 9.91591
3.9303 6.8659 10.4511
13.2332 18.3413 24.7674
20.7487 19.0446 19.1366
12.9801 17.1935 22.5903
17.7231 18.7024 20.4666
8.20509 11.4405 16.0079
16.9737 19.9952 21.165
5.34334 6.06411 9.80677
13.2893 13.5668 12.3602
9.51304 13.8316 19.1077
4.9094 5.32999 7.69408
6.17551 6.24789 7.56287
8.12465 8.55428 9.32974
6.21058 6.85373 6.83848
6.63316 8.9011 8.77375
8.76077 14.8783 23.1207
12.7739 16.0704 19.1324
16.2757 19.2709 21.8644
15.0952 16.5535 16.3804
7.35358 10.9068 13.0744
11.9819 22.157 34.7301
10.0121 12.4909 23.7544
11.0009 9.72808 9.93313
8.86991 13.1392 19.3259
13.0784 13.6992 19.0763
21.7352 26.3986 30.1712
18.3528 18.5408 18.463
5.82715 8.82317 16.2905
28.4732 37.0111 39.8531
23.2253 32.7884 40.2323
7.1992 13.6132 23.5932
6.40255 11.9009 28.3162
18.1476 13.2287 6.55606
10.331 18.5217 23.9084
11.4022 17.518 27.1592
14.3471 12.644 11.5234
12.0409 17.447 24.1116
10.0948 17.9693 29.661
7.54497 5.84783 5.98867
7.18055 14.1459 24.3025
19.8932 22.989 22.4074
6.49494 11.6134 24.4009
19.9059 26.4032 28.5581
12.115 21.3324 36.9531
22.9719 28.8037 35.2439
18.7629 27.6218 38.2349
5.11349 9.06225 20.7817
14.7412 16.3176 21.1873
14.724 22.8329 30.0766
7.90371 11.6315 20.857
11.0053 10.2945 11.1442
9.81674 13.2606 19.6809
14.7373 19.2711 30.1901
28.1642 39.7381 50.1731
15.3622 18.9374 26.8648
28.2423 41.6735 58.5694
20.0782 29.3951 41.4808
9.99042 12.7957 22.2798
17.2694 23.6484 32.4949
12.296 13.1922 12.5629
9.64461 13.5631 20.1088
22.6732 35.4204 40.6042
15.483 32.9193 49.8292
10.5266 16.4956 31.4384
11.6639 12.9177 14.5327
8.1251 16.5245 33.1446
29.685 49.4167 78.0126
20.9643 22.087 29.8451
15.0035 19.6663 27.4923
14.2305 19.7205 21.9602
4.32093 10.1702 25.9801
24.0011 32.0668 37.1651
6.74287 15.9746 34.575
19.5208 25.9769 38.0621
15.5853 19.0621 27.0122
12.3105 13.6079 20.6971
23.5721 37.6158 47.8614
22.2432 33.8084 46.8587
10.8506 14.342 19.9487
5.88961 8.77172 25.707
43.2052 63.324 65.878
66.0641 173.467 331.029
60.9842 54.1067 73.5196
24.7557 20.0419 18.0908
11.2877 15.8244 27.3068
16.0667 21.9917 37.8491
20.2464 21.8431 17.1706
3.98505 7.378 16.0225
20.4612 30.4262 33.5278
5.78901 11.0888 17.6283
6.39054 8.81761 12.8826
10.3617 18.7096 26.5293
5.74157 10.2113 16.5508
3.65639 3.56951 5.22631
5.62665 10.7504 17.0392
3.78436 6.43049 12.182
7.87715 13.7214 18.9916
5.25153 14.4027 27.1975
6.50505 12.4779 31.9124
14.1926 18.359 27.15
10.8426 18.0985 27.8833
5.74177 6.6961 21.045
23.6221 32.1979 32.9986
8.65255 18.936 36.9841
13.3593 20.6442 30.0988
5.34646 9.20315 22.8048
18.4014 26.6631 38.4144
7.14679 8.47505 11.7827
1.90897 2.72804 8.86826
10.0285 11.9823 12.4182
10.0957 23.9232 42.1908
6.39841 9.47575 22.854
12.8289 15.2547 18.5811
13.3318 24.0545 29.5581
7.91013 14.6775 21.1421
1.63537 7.2592 21.4419
10.6934 17.5874 32.6401
10.4306 12.2482 16.8924
7.93912 11.8356 16.5432
8.1993 19.6958 41.7037
17.6739 27.6066 38.1472
2.86031 3.77553 10.5723
6.53683 11.0361 24.0413
16.0216 25.6546 30.9791
4.61967 13.883 29.3182
5.75838 11.4244 31.7362
11.4332 12.2359 8.25706
7.83426 24.0848 48.5965
13.1211 23.0893 46.3417
14.188 30.0017 65.0439
17.6268 21.1934 34.1548
12.7919 12.1894 14.6945
9.30843 12.9321 13.3618
8.10232 14.8618 23.8357
7.41896 17.1548 37.1004
20.8771 32.0179 37.4925
11.5081 32.1729 60.2112
7.7093 16.4175 47.014
12.2436 13.0682 15.9462
5.36818 8.81283 19.5593
7.29212 9.35909 15.4634
7.13728 12.8118 19.3664
6.8548 10.7959 18.3181
8.27669 13.5986 21.802
3.81254 5.99481 16.5438
13.7919 23.9051 38.1619
9.08459 14.2758 27.7379
14.7857 28.0847 41.5244
5.63665 12.9824 32.0542
9.23204 13.7102 22.7422
12.8141 30.1651 53.3805
6.64271 8.77391 25.9794
18.6485 29.4911 43.9693
8.06963 12.4138 18.9034
5.77504 13.5733 29.299
9.36175 14.2451 18.6974
14.7636 44.2882 96.0979
18.0804 22.4763 35.6094
12.855 15.7743 16.0731
8.02973 18.1142 37.1594
13.7096 20.7719 23.388
4.09311 11.7012 19.7136
5.76957 16.6285 33.0327
5.00068 15.4493 39.7443
5.00256 7.7276 23.0576
9.45306 16.39 27.6252
8.70746 15.6877 28.1503
12.3216 27.1601 41.4483
4.55261 17.7134 45.4879
5.87617 5.59299 15.1631
4.66541 7.63011 14.6333
6.01649 18.4286 50.3446
11.9377 15.7221 21.7297
4.52297 7.54353 22.2326
10.2189 15.8788 20.1947
6.47933 16.0939 34.6762
9.55602 18.3902 31.3744
6.51955 11.0292 17.8689
2.95042 9.93953 26.3588
7.54321 14.8954 35.9258
8.86481 14.7979 29.9287
7.85167 15.3663 28.4278
7.03586 14.4994 36.3655
13.823 26.6272 37.2957
4.00624 7.90586 20.6905
8.1318 19.1309 39.8016
8.39568 15.809 32.5202
6.89157 10.2587 19.3944
7.14235 10.2677 10.9279
6.24817 22.3142 52.036
6.3409 10.0245 33.4882
11.5198 16.0356 23.0055
8.7124 17.101 27.3066
4.53501 8.61132 13.1924
1.93585 5.30772 18.3411
10.2511 21.8082 28.5065
3.8881 20.9969 66.9366
11.6904 17.0673 29.4732
7.25054 17.6214 38.815
6.31606 9.89 22.4224
5.71959 11.9796 26.8156
5.38514 7.95574 19.9844
9.9874 17.3134 20.9019
5.65121 24.2993 60.8361
7.13445 9.56123 28.5304
7.72734 9.96409 12.4691
1.92265 5.85491 24.5588
8.68239 12.0853 20.4567
6.80293 9.57566 15.3753
10.2326 20.7765 32.2146
5.72081 15.3702 35.9809
11.9725 28.3952 56.917
7.87342 19.0986 39.1231
5.9445 16.7021 55.3671
8.52491 10.0738 17.1298
5.88277 14.1278 35.4403
10.5893 20.6085 41.7637
8.6307 10.0618 7.1382
6.38389 22.7502 52.1655
8.72414 21.0596 51.1805
11.5912 17.3947 25.5186
3.38742 7.69886 19.4482
10.8171 30.6062 56.5517
3.17271 7.39307 33.4595
7.72219 11.9928 33.9047
10.8923 18.5092 46.5974
18.0783 31.8738 45.791
8.66029 19.0714 32.5803
5.68268 15.7709 39.8306
4.6178 9.40685 22.5911
3.63386 4.10268 8.93073
5.13584 13.5729 43.4019
11.4007 18.2838 15.8995
4.02637 23.2224 72.4809
12.6923 18.1097 30.0222
5.00736 13.4078 39.8898
12.8243 27.3359 53.7923
4.9376 4.99917 19.36
9.83945 21.8575 40.4286
10.3531 20.6862 34.472
3.05468 8.79983 32.5298
8.12572 14.3404 24.4788
9.70042 24.6837 46.6636
4.61698 5.80585 10.2434
4.03178 11.9847 25.4718
3.18505 7.52169 29.5365
8.7074 17.7497 36.7087
7.19521 14.5398 32.8912
12.6099 29.9227 57.645
7.2674 14.359 33.5969
6.55122 11.7581 16.9339
4.14054 12.7127 32.8822
5.87747 10.9267 25.5869
11.4751 30.01 55.9727
5.29686 15.926 46.2575
5.88068 14.9985 47.9483
8.68384 14.5498 32.0519
12.0778 37.3927 87.6202
10.8635 19.2518 41.1086
3.44096 2.87351 10.0682
3.95746 9.05575 25.6989
4.0694 5.98376 9.37829
2.31649 6.88794 24.1173
6.25626 10.605 19.0108
7.7504 18.7672 30.0733
4.92441 20.3979 59.5813
7.27466 14.4867 49.1342
10.938 18.8499 36.4505
10.4085 27.8702 44.56
2.60451 5.62518 14.5984
3.92823 13.7054 35.6175
3.73962 7.60235 34.3788
9.7119 20.2636 46.9917
9.96344 21.395 41.3979
5.40664 8.13319 20.2976
9.67663 22.6409 44.4276
7.21189 17.7345 32.0745
4.03168 11.4199 21.1294
1.21265 4.72789 18.0479
4.68207 12.8316 35.7217
5.27333 9.27642 33.9472
11.764 24.8407 34.7878
4.45157 19.014 52.6238
4.66788 10.7487 46.2545
9.88374 20.4614 34.5487
7.24933 17.2039 24.3611
2.12321 9.47599 31.2496
3.9622 10.0059 23.4445
2.94784 5.4216 14.6215
5.28036 18.6043 52.1576
7.01071 14.0794 36.9177
5.65135 10.5493 18.4114
1.44939 6.8107 30.9227
9.70242 22.8258 52.1877
