# pn-170911/RbIIR-60-RbIIF-1280-1959.psd
# Power spectrum* (dif=0,1,2) (really just |FT|^2)
# NOTE: only the first half! (symmetric)
# weeks: 1280-1959
# 2504 clock-days, 39 excluded
# PSD: 1441
634.524 0.140968 0.0199194
26220.5 0.433422 0.0184764
130932 3.6359 0.0188001
21116 0.800505 0.0181221
61035.5 5.2105 0.0196927
7767.66 0.742062 0.0180788
7023.78 1.40263 0.0190105
3838.78 0.738157 0.0185134
3808.12 1.16281 0.018922
2415.15 0.706269 0.0189246
2110.2 0.90732 0.0191485
1589.71 0.765456 0.0192515
1607.39 0.913284 0.019037
1193.37 0.76406 0.0192456
1015.34 0.815604 0.0185228
935.001 0.812709 0.0188007
809.462 0.859502 0.0194535
705.549 0.825011 0.0194822
731.259 0.898451 0.0186411
607.972 0.878414 0.0204747
550.382 0.853452 0.0196516
513.849 0.881688 0.0196349
465.114 0.92525 0.0205988
437.676 0.92937 0.0210016
390.563 0.906324 0.0199214
372.165 0.966632 0.0211004
349.804 0.93183 0.0211207
338.424 1.00262 0.0216375
323.023 1.0529 0.0220509
300.857 1.06861 0.0218362
288.702 1.08421 0.0226278
287.745 1.12789 0.0240214
287.553 1.19189 0.02451
254.477 1.14979 0.0244027
253.306 1.24103 0.0253556
245.502 1.25953 0.0244004
237.111 1.2975 0.0259664
227.705 1.33987 0.0279185
223.635 1.33776 0.0283264
222.303 1.40876 0.0283129
220.888 1.46363 0.0295139
199.849 1.45005 0.0308108
202.728 1.50268 0.0302094
189.816 1.52161 0.0312517
190.585 1.57201 0.0333587
189.274 1.64108 0.0334966
184.126 1.69449 0.0355902
194.416 1.83619 0.0380674
178.361 1.74042 0.0374942
177.943 1.84066 0.0391423
169.727 1.84314 0.0410231
171.781 1.88133 0.0415132
170.974 1.99191 0.0436543
178.436 2.1193 0.0489256
165.742 2.10665 0.0463643
165.801 2.20227 0.0502281
166.145 2.27366 0.0518537
166.775 2.33273 0.0540209
156.695 2.29554 0.055579
152.482 2.37031 0.0561949
162.19 2.476 0.0605277
150.561 2.44917 0.0619864
153.172 2.55261 0.0670317
146.046 2.59562 0.0684891
147.518 2.69537 0.0711254
141.872 2.70015 0.0714965
147.011 2.82176 0.0775162
147.749 3.01634 0.083555
146.068 2.94424 0.0829819
143.928 3.02582 0.0883976
140.611 3.09071 0.0915765
142.775 3.28365 0.0969771
143.338 3.25611 0.0984279
134.236 3.18097 0.0979291
138.01 3.36038 0.10644
141.663 3.53456 0.112261
133.361 3.43614 0.112971
130.464 3.47105 0.119013
135.994 3.69 0.124182
138.912 3.95134 0.136905
131.917 3.81286 0.135999
130.603 3.89834 0.139579
133.877 4.15856 0.153606
128.994 4.00408 0.148988
126.813 4.08219 0.154615
128.885 4.20705 0.164808
128.125 4.30469 0.169224
125.162 4.2731 0.172811
123.625 4.37128 0.179898
124.069 4.48238 0.18765
123.678 4.53963 0.190835
123.494 4.68591 0.203791
123.025 4.78388 0.209808
121.718 4.84375 0.212968
120.867 4.89913 0.222378
123.429 5.05272 0.234818
118.748 4.93681 0.228629
122.133 5.19413 0.250927
119.059 5.21065 0.254646
116.277 5.17467 0.258686
116.999 5.3259 0.273306
122.197 5.61885 0.288087
119.557 5.61435 0.290797
118.311 5.68434 0.302627
117.467 5.77571 0.313758
116.667 5.83678 0.323647
116.379 5.90535 0.332835
111.927 5.83123 0.333766
115.174 6.13887 0.356855
115.198 6.32504 0.374582
114.043 6.27974 0.375693
111.222 6.26442 0.381894
113.232 6.57819 0.407196
109.779 6.50494 0.411452
111.631 6.67398 0.435921
112.495 6.81189 0.450255
106.068 6.56747 0.439855
106.872 6.71021 0.451625
107.12 6.88037 0.470275
107.853 6.97333 0.484859
103.838 6.91717 0.490246
106.065 7.19565 0.520612
108.363 7.36103 0.530157
102.417 7.11854 0.529781
104.454 7.38946 0.554
105.865 7.62369 0.580561
103.689 7.63775 0.588304
104.563 7.79597 0.608311
105.1 8.02966 0.6446
100.515 7.80362 0.630097
104.343 8.11801 0.665844
101.084 8.03113 0.674948
99.0208 7.90061 0.6691
100.821 8.11268 0.699493
99.5116 8.229 0.716769
102.225 8.54136 0.750175
101.032 8.53724 0.761884
99.6358 8.58603 0.78357
97.2523 8.51524 0.787719
98.8907 8.73217 0.814209
97.4084 8.79607 0.829686
95.3359 8.73214 0.840423
98.6718 9.16941 0.892428
95.2304 9.00849 0.882752
94.7591 9.06212 0.906166
96.3087 9.26743 0.942384
91.5139 8.94719 0.913301
95.5102 9.46068 0.981179
92.302 9.38202 0.998217
93.0329 9.43155 0.998674
95.9069 9.96217 1.07729
95.928 10.0053 1.08839
91.7382 9.76319 1.07525
93.9478 10.0956 1.12826
89.7342 9.75375 1.11033
91.7662 10.0548 1.15561
91.5327 10.2086 1.18537
89.3065 10.1894 1.20514
91.2376 10.5275 1.26155
91.8075 10.6459 1.27864
90.4952 10.7074 1.30966
87.6753 10.3793 1.27395
91.0952 11.044 1.3876
88.7925 10.9611 1.38214
88.6404 10.9238 1.40198
88.9641 11.0106 1.41783
86.8626 11.1025 1.46093
86.904 11.2246 1.49406
84.7784 11.0789 1.47741
84.8068 11.1942 1.51415
86.2148 11.5929 1.59185
82.3171 11.1904 1.55957
83.1831 11.364 1.61014
82.2041 11.3975 1.62897
81.3969 11.4878 1.65198
83.6638 11.8539 1.72634
85.0062 12.1131 1.77375
82.4146 11.9029 1.75993
85.0581 12.3965 1.86104
80.4191 11.8587 1.7998
80.889 12.0082 1.84978
80.076 12.0199 1.86692
80.988 12.3844 1.9495
81.976 12.5835 2.01355
83.6422 12.9246 2.06138
80.3182 12.357 1.98481
79.7865 12.6047 2.04976
78.7412 12.5838 2.09364
79.7048 12.9896 2.1717
79.3551 12.8423 2.16869
77.9183 12.8263 2.18802
76.3371 12.5686 2.15746
76.4031 12.8957 2.24138
77.4104 13.1817 2.30722
77.105 13.2097 2.33287
77.9524 13.6669 2.45731
73.2968 13.0472 2.37376
80.076 14.3812 2.61333
74.8812 13.4442 2.48018
78.4826 14.315 2.67568
73.067 13.5927 2.56489
73.8008 13.8643 2.6812
74.534 13.9975 2.69073
75.5978 14.3147 2.76202
71.5842 13.7713 2.69775
72.8542 14.077 2.78694
72.3033 14.1798 2.83003
71.9382 14.1666 2.85903
69.3458 13.7852 2.8146
71.0705 14.1407 2.88261
69.0695 14.0958 2.93375
69.2185 14.1616 2.94814
72.8804 15.1859 3.2313
68.3503 14.3108 3.06546
71.3476 15.0105 3.21749
69.7357 14.8916 3.23782
67.9256 14.5918 3.19032
69.3011 15.1132 3.34511
68.6297 15.0881 3.3802
68.1624 14.9248 3.34374
67.5368 15.0584 3.43063
70.6074 15.757 3.59069
67.8322 15.3382 3.52669
66.1656 15.2174 3.54863
66.5931 15.3399 3.61195
65.5303 15.2343 3.60647
67.4807 15.8112 3.75939
64.0589 15.2659 3.71958
64.3736 15.3063 3.74258
64.1446 15.4066 3.75867
63.4913 15.5234 3.86057
67.6524 16.5187 4.09111
65.7003 16.336 4.13501
62.8356 15.6222 3.94307
62.4034 15.9046 4.11269
63.3357 15.9166 4.0767
64.3241 16.5603 4.32638
62.771 16.0401 4.18488
63.1005 16.266 4.27998
63.0648 16.4205 4.36864
62.9735 16.721 4.50381
61.4511 16.3874 4.44736
59.3896 15.8346 4.31543
58.1963 15.9145 4.42791
59.0318 16.1938 4.50656
59.7187 16.3456 4.54356
63.8769 17.6552 4.93577
60.0183 16.6877 4.74853
62.7759 17.7302 5.06412
60.4808 17.1351 4.94999
58.0664 16.7865 4.93427
58.4213 16.8562 4.98506
59.8935 17.4281 5.1265
56.5561 16.5322 4.90258
57.2333 17.0074 5.13484
56.8029 16.7165 5.02095
57.0612 17.3245 5.27916
58.1658 17.5835 5.41085
56.1638 17.0563 5.26386
54.815 16.8302 5.22186
56.7224 17.4004 5.42098
53.1672 16.7395 5.32865
55.8396 17.5775 5.60327
53.6294 16.9862 5.45151
54.6202 17.3681 5.60619
54.3264 17.4906 5.73446
55.2082 17.9651 5.88841
54.2881 17.6702 5.81888
52.4286 17.4923 5.89341
54.6126 17.9741 5.99311
51.1178 16.9932 5.71858
53.4458 18.0209 6.1458
54.6032 18.4346 6.30147
51.098 17.4653 6.07514
53.7754 18.3234 6.37018
53.6357 18.5042 6.46828
51.4338 17.9353 6.36439
53.4502 18.6302 6.60337
51.715 18.0723 6.40743
52.7308 18.6624 6.68822
49.6621 17.5861 6.34581
49.879 18.0058 6.61299
49.1751 17.6537 6.4736
50.8356 18.593 6.90371
50.5159 18.4374 6.84456
49.0689 17.9736 6.66915
49.3067 18.5003 7.01052
48.5973 18.2396 6.98418
49.9388 18.7619 7.17159
47.7759 18.1332 6.99066
50.3705 19.0817 7.30997
47.3392 18.2802 7.16453
50.2138 19.4389 7.64918
48.4327 19.0333 7.56041
47.7417 18.4583 7.26765
46.0509 18.2812 7.38815
49.6678 19.8864 8.00081
47.0863 18.804 7.62702
46.0739 18.4125 7.48331
45.7175 18.933 7.8797
45.8776 18.5696 7.66114
47.7253 19.6151 8.16296
47.6977 19.8465 8.35356
47.1594 19.5734 8.24941
44.7787 18.8382 8.00757
44.9636 18.9556 8.07784
44.5908 18.8371 8.06555
44.7645 19.1705 8.26744
43.2985 18.717 8.21432
44.3364 19.1493 8.40327
44.0993 18.9994 8.32965
43.5656 19.0132 8.39975
41.4795 18.2748 8.18605
43.0795 19.2338 8.68141
43.5118 19.3328 8.75223
44.0668 19.7664 8.91424
43.2536 19.5878 8.9524
43.7541 19.8563 9.09663
41.0763 18.5934 8.5406
40.5806 18.7319 8.69119
41.3943 19.4431 9.19171
43.2952 20.0888 9.52633
43.0742 20.1688 9.5461
41.0915 19.3132 9.24098
41.3349 19.6651 9.49526
40.8529 19.4072 9.3686
39.7835 18.9727 9.20052
40.7396 19.7666 9.66795
39.0168 18.902 9.28789
40.3791 19.5823 9.57467
38.8498 19.1666 9.54293
39.9696 19.7582 9.84426
39.9487 20.0043 10.1503
39.1839 19.5234 9.80267
39.236 19.6424 9.98957
39.3688 20.2068 10.4579
39.0052 19.8066 10.2069
39.9071 20.0609 10.2571
37.9673 19.5806 10.1831
37.6152 19.5639 10.3591
38.4487 19.9197 10.5128
37.8973 19.7146 10.4595
38.9329 20.3585 10.7639
38.1047 20.0793 10.7138
37.4945 19.9715 10.7664
37.903 20.1648 10.8697
36.7806 19.6758 10.7229
37.2383 20.155 11.0306
37.1949 20.1494 11.1037
37.2978 20.292 11.1823
36.203 20.0101 11.1987
36.4018 20.0176 11.1467
36.674 20.3042 11.4271
34.7376 19.3508 10.9733
35.2447 19.7021 11.1752
35.4016 19.8171 11.2027
33.6928 19.2955 11.1587
35.4799 20.2527 11.6682
34.9634 19.9707 11.5202
35.2478 20.3131 11.819
33.6236 19.4267 11.5233
35.441 20.6087 12.0817
34.586 20.2071 11.9986
33.0732 19.5622 11.8077
35.4184 20.914 12.5066
35.0175 20.5451 12.2517
33.664 19.9325 12.029
32.8127 19.8364 12.1373
32.7324 19.8209 12.2093
33.115 20.0508 12.3093
32.7919 19.9485 12.3042
32.6424 19.9572 12.4103
33.0616 20.1193 12.4721
32.4667 20.1234 12.6868
33.3538 20.7883 13.0803
33.1158 20.8013 13.2443
31.9699 20.1165 12.7967
32.2701 20.2564 13.032
32.2577 20.469 13.1541
32.3369 20.5826 13.3139
31.8593 20.26 13.1057
31.7659 20.4867 13.4562
31.8625 20.5024 13.408
31.171 20.1756 13.143
30.1931 19.9149 13.2796
31.0763 20.434 13.5422
30.4038 20.2218 13.6654
30.7071 20.1503 13.4712
30.1437 20.1594 13.7132
30.4461 20.3004 13.7519
30.4665 20.4382 13.9381
30.1313 20.2117 13.7558
30.0855 20.4701 14.2059
30.8891 20.8718 14.3719
31.465 21.5974 15.016
29.77 20.5225 14.425
30.6976 20.926 14.5645
30.5957 21.1159 14.702
28.393 19.9886 14.2387
28.771 20.4361 14.6106
27.6609 19.4121 13.8841
28.7761 20.4735 14.7001
28.8118 20.5235 14.785
28.664 20.5942 14.9474
29.5036 21.5748 15.8561
28.5081 20.5224 15.1271
29.1489 20.8039 15.0586
28.6622 20.9698 15.6057
28.3725 20.7292 15.2924
27.5969 20.398 15.1238
27.839 20.7204 15.5613
26.1188 19.2199 14.5579
27.8773 20.7367 15.4976
28.1271 21.1419 15.9368
27.4899 20.8589 15.923
26.709 20.2535 15.5503
26.0912 20.0072 15.5723
27.4717 20.873 16.0957
27.2003 20.7785 16.092
26.7988 20.693 16.2298
26.7322 20.4236 15.8293
26.06 20.3641 16.167
26.6057 20.6691 16.336
26.2155 20.4469 16.2457
26.3689 20.6802 16.4083
26.1076 20.5974 16.5196
26.4395 20.8134 16.655
25.6204 20.2823 16.3111
25.2868 20.1893 16.4528
26.6715 21.1609 17.0326
25.5268 20.8303 16.977
25.9184 21.0878 17.3895
25.3925 20.4507 16.7307
24.7293 19.9944 16.3957
24.6517 20.44 17.0139
25.1302 20.7988 17.3332
24.6247 20.6803 17.4579
24.2249 20.0999 16.9625
23.9705 20.1101 17.1589
24.6142 20.5215 17.4019
24.3499 20.5761 17.5579
25.2909 21.4167 18.1721
24.3206 20.7627 17.8507
24.4237 20.913 18.0003
22.8052 19.8926 17.5674
23.9436 20.4446 17.8116
23.807 20.6 18.057
24.2166 20.8463 18.1668
22.8986 19.8774 17.5759
23.2185 20.5166 18.2518
23.3403 20.4099 18.1203
22.9579 20.249 18.0503
22.7024 19.7819 17.6801
23.3272 20.9737 19.0561
22.7278 19.844 17.8032
22.8207 20.6033 18.7059
23.0657 20.5845 18.4242
21.9013 19.9811 18.3517
21.6766 19.7148 18.298
21.6073 19.7195 18.3342
22.5817 20.4376 18.7371
22.7428 20.9007 19.3186
21.8468 20.1418 18.8303
22.1675 20.312 18.7219
21.9971 20.718 19.5305
20.9315 19.5393 18.5553
22.035 20.8691 19.8599
21.9439 20.7393 19.8831
21.5272 20.4255 19.7112
21.8522 20.4355 19.3748
21.093 20.0792 19.4209
21.2696 20.0956 19.2729
20.5053 19.7957 19.3435
21.0234 20.2923 19.8739
21.185 20.2277 19.6693
20.866 20.2733 20.0965
21.3277 20.598 20.1803
21.1585 20.3437 19.9086
20.8354 20.8968 20.8509
20.7428 20.3741 20.3534
19.5923 19.5448 19.9633
21.1118 20.5371 20.3713
20.7422 20.7609 20.8592
20.0574 20.1761 20.6927
20.5906 20.4276 20.5486
20.0074 19.8409 19.8254
19.6913 20.3174 21.0851
19.8437 20.1911 20.8784
19.487 19.5988 20.1157
19.817 20.2271 20.9699
19.3247 19.7508 20.6517
20.1649 20.7743 21.3856
19.5843 20.3178 21.242
18.8295 19.2859 20.0488
18.9386 19.8509 21.0257
19.1132 20.0213 21.2468
18.6333 19.4049 20.5916
18.3333 19.4664 20.9917
19.1188 20.0981 21.3242
18.8533 19.8988 21.2823
18.9215 20.2055 21.6606
18.4225 19.8892 21.6859
18.4544 19.4711 21.1184
18.609 19.8465 21.5214
18.4596 19.7395 21.4368
18.4165 19.8302 21.681
18.3124 19.7701 21.4566
18.4209 20.3479 22.6327
18.2947 20.1541 22.4902
18.622 20.5831 22.9352
18.0216 19.8252 22.3087
18.6207 20.2313 22.3286
18.1044 20.2502 22.9912
18.2654 20.1205 22.481
17.6205 19.7474 22.4002
17.7135 19.7588 22.28
16.9175 19.0501 21.6577
17.3047 19.8803 23.0727
17.4094 19.5278 22.3635
17.6386 20.206 23.5019
17.4644 19.6947 22.6589
17.5398 19.9681 22.9929
17.3906 19.7565 22.8669
17.0312 19.7378 23.0591
17.0754 19.6811 23.1111
17.137 19.9154 23.4375
17.0623 19.8014 23.1842
16.765 19.37 22.7366
16.1018 19.086 22.99
16.9113 19.8138 23.4564
16.618 19.462 23.2167
16.0038 18.9455 22.7912
16.501 19.4448 23.2941
15.6918 18.7966 22.9996
16.4416 19.4275 23.4808
15.9534 19.2366 23.4079
15.9442 19.0725 23.3677
15.7839 18.9308 23.1346
16.357 19.6484 23.5986
15.4023 19.0851 23.8762
16.0422 19.4896 23.9746
15.661 19.2264 23.9696
15.5382 18.7017 23.1331
15.5998 19.3872 24.5389
16.5445 19.9074 24.3059
15.6574 19.6862 24.873
15.5224 19.202 24.1003
15.4179 19.1204 24.0715
15.2662 19.3382 24.9293
15.6331 19.3541 24.4028
15.5652 19.7463 25.1115
15.452 19.6973 25.2032
15.0461 19.0022 24.6832
15.6356 19.7495 25.2981
15.0495 19.04 24.6363
15.2266 19.3696 24.7889
14.9617 19.3389 25.368
15.0995 19.582 25.4716
14.7072 19.0535 24.9348
14.9359 19.5418 25.6601
14.4903 18.7414 24.6763
14.7885 19.2802 25.3202
14.1179 18.7325 25.485
15.163 19.9184 26.492
14.6819 18.7993 25.0417
14.6329 18.9869 24.8675
14.3775 19.2183 26.0045
14.3515 18.967 25.3907
14.5203 18.9337 25.4726
14.4164 19.1229 25.6883
14.3465 19.1525 26.1697
14.422 19.1852 25.9676
14.5862 19.1446 25.7337
13.6417 18.7389 25.9101
14.5164 19.3184 26.7597
14.2559 19.0466 25.8759
13.7759 18.3111 25.513
14.3476 19.8461 27.503
14.6032 19.5401 26.9377
13.6786 18.81 26.2646
14.0563 19.3854 27.3988
14.057 19.2879 26.89
13.7476 19.0816 26.8499
13.6009 18.7962 26.3141
12.7837 17.8052 25.6203
13.8296 19.4027 27.5029
13.3842 18.8704 26.8137
12.9998 18.2221 26.0966
12.7939 17.9551 25.9157
13.1416 18.433 26.0807
12.6256 17.9978 26.0128
13.1793 19.2374 28.0951
13.2513 18.7465 27.1787
13.4499 19.2125 27.7576
12.981 18.7616 27.6849
13.2459 18.9628 27.3984
12.6561 18.3575 27
12.6566 18.1888 26.5015
12.5128 18.3872 27.3571
12.604 18.4382 27.4466
12.84 18.3949 26.9823
12.9367 19.1427 28.0873
12.4484 18.4573 27.9448
13.009 18.9062 27.9333
12.7707 18.8234 28.0107
12.6238 18.7314 28.0753
12.576 18.6966 28.3301
12.5838 18.615 27.9304
12.1361 18.1969 27.766
12.3385 18.6671 28.4463
11.962 17.7878 27.3049
12.3852 18.61 27.9227
11.5866 17.7321 27.8357
11.811 17.5945 27.0651
12.0573 18.3865 28.4402
12.38 18.9268 29.2559
11.8874 18.0573 28.0139
11.6707 17.7455 27.5977
11.9646 18.5732 29.0197
12.033 18.5898 28.9658
11.7763 18.1041 28.088
11.491 17.77 28.0173
11.714 18.3768 29.1068
11.4271 17.6979 28.1126
11.7295 18.2931 28.8808
11.5622 17.8362 27.7623
11.0482 17.7388 28.9292
11.6054 18.2388 29.1555
11.651 18.046 28.3503
11.0156 17.298 27.2226
10.4978 16.6106 26.9468
11.1035 17.9141 29.0117
11.0401 17.7128 28.4226
10.5296 17.1141 28.4302
10.9038 17.2457 28.2278
10.9531 17.3311 27.4611
10.6911 17.9301 29.5626
10.5451 17.1561 28.8665
11.028 17.4514 28.541
10.7361 17.5306 29.0165
10.4201 16.6776 27.6051
10.6644 17.1746 28.1325
10.9288 18.172 29.7471
10.4905 17.3348 28.9625
10.6251 17.576 29.3965
10.3703 17.285 29.2402
10.8003 17.9414 30.3129
10.851 17.9942 30.4181
10.7966 17.6684 29.1341
10.0782 16.7507 28.5734
10.1436 16.9597 28.9397
10.379 17.1212 28.7085
9.89311 16.6451 28.4521
10.172 17.3983 29.9756
10.1157 17.0226 29.5425
10.3885 17.2725 29.3176
10.0991 17.2183 29.5592
9.97699 17.1026 29.9183
10.163 17.1294 29.6892
10.247 17.4781 30.1645
9.8542 16.6242 28.6405
9.76917 17.0093 30.0135
10.04 17.281 30.3104
10.2732 17.5197 30.5227
9.83503 16.7685 28.9558
9.47536 16.5751 29.2274
9.45722 16.6772 29.7611
9.56679 16.6501 29.5534
9.56764 16.6808 29.8972
10.0182 17.515 30.7793
9.81394 17.1745 30.5603
9.7626 17.0887 30.007
9.4115 16.6832 29.74
9.27265 16.5489 30.0093
9.61812 16.844 30.1835
9.46521 16.8414 30.4109
9.18425 16.1893 29.4617
9.48363 16.8761 30.3594
9.2462 16.47 29.6441
9.29392 17.0916 31.6341
9.55442 16.8234 30.5746
9.15762 16.5175 30.2005
9.17035 16.638 30.9447
9.23507 16.6311 30.6849
9.21465 16.363 30.2107
9.01693 16.0896 29.5885
9.11102 16.591 30.3437
9.04794 16.6104 30.7202
8.90325 16.2084 29.9764
8.72988 16.3579 30.6126
8.70512 15.863 29.52
8.7113 16.0874 30.0493
8.68768 16.4149 31.292
8.77954 16.0076 29.6889
8.63214 16.1753 30.3768
8.48644 16.056 31.4164
9.09843 16.4749 30.6017
8.80327 16.6878 31.5656
8.89645 16.3412 30.3649
8.10615 15.5019 30.4231
8.60812 16.0327 30.7369
8.62403 16.2963 31.5187
8.67391 15.8817 30.3318
8.74849 16.7402 31.8915
8.6339 16.4178 31.5014
8.3123 15.725 30.8364
8.46906 16.0051 30.5957
8.1303 15.5279 30.3827
8.30257 15.8843 30.8963
8.29222 15.6678 30.4376
8.14205 15.8015 30.9796
8.35371 16.0543 31.5279
8.4118 16.0127 30.7764
8.34371 16.4714 32.4613
8.12451 15.639 30.8988
7.92605 15.3995 30.8375
8.20794 15.9206 31.1652
8.11552 16.2731 32.6928
8.03542 15.4718 30.6661
7.94031 15.6946 31.8471
7.84099 15.0243 29.9964
7.84311 15.2386 30.6634
7.99512 15.574 30.7635
8.13388 16.1712 31.576
7.47211 15.1735 31.4177
8.13036 16.256 32.3731
7.83723 15.9161 32.8085
7.82361 15.2473 31.0784
7.90431 15.9301 32.1065
7.80161 15.5729 31.9493
7.67496 15.1441 30.7464
7.62585 15.4826 31.6496
7.71621 15.3572 30.938
7.33802 15.0737 31.3601
7.41993 15.0892 31.2156
7.30476 14.6841 30.6744
7.5128 15.1245 31.3886
7.74664 15.7308 31.445
7.25934 15.1933 32.1825
7.42017 15.2436 31.9827
7.42611 15.1108 31.6293
7.29473 15.1167 31.8256
7.3277 14.5768 29.9551
7.42518 15.6424 32.6382
7.16992 14.924 31.632
7.28404 15.0702 32.1514
7.60529 15.6696 32.4872
7.40173 15.6685 32.6986
6.90965 14.6274 32.2244
7.35274 15.1231 31.9364
7.32024 15.4636 32.9672
7.31539 15.2701 32.9509
7.24721 15.0542 32.2228
7.23848 15.1312 32.1449
7.1275 15.2936 32.7769
6.93342 14.5286 31.5174
6.94485 14.8138 32.3795
6.98628 14.7029 31.8208
7.27422 15.6067 33.659
7.17961 14.9272 32.3036
6.93923 14.7925 32.5169
7.13337 15.3326 33.471
7.17713 15.167 32.5381
7.17376 15.4555 32.9185
6.67542 14.3984 31.8755
6.88664 14.9361 32.4305
6.57337 14.2694 31.9029
6.80388 14.8182 33.2184
6.87997 14.9053 33.4043
7.07378 15.1331 32.9941
6.76621 14.6179 31.8789
6.62606 14.7203 32.6888
6.40872 13.7156 30.589
6.60289 14.794 33.1636
6.68885 14.5829 32.5371
6.67095 14.8879 33.5854
6.69444 14.5912 32.5643
6.53505 14.3722 32.7493
6.78135 15.1349 33.3172
6.37754 14.0263 31.6299
6.36617 14.3897 32.9537
6.51329 14.2659 32.2455
6.5155 14.6352 32.9528
6.36297 14.182 32.651
6.61052 14.7185 33.2898
6.30785 14.01 32.0704
6.33539 14.228 33.0702
6.5289 14.5617 33.3866
6.5434 14.7284 34.1837
6.64762 14.8264 33.4403
6.39102 14.3658 32.8006
6.35037 14.3815 33.0713
6.21266 14.0317 32.3218
6.2129 14.1746 32.7681
6.19736 14.4777 34.4274
6.53013 14.8504 34.2142
6.22019 14.0369 33.0335
6.18309 13.8315 32.1236
6.30909 14.9583 34.9029
6.19827 13.9491 32.7872
6.09037 14.0503 33.0899
6.14925 14.0146 32.2239
5.85461 13.7519 32.7443
6.0118 13.9004 32.5881
5.89769 13.7315 32.6777
6.17923 14.6707 34.2416
5.93853 14.0336 34.3111
6.06556 13.9454 33.4538
6.06391 13.9214 33.0529
6.07654 14.2919 34.293
6.24072 14.5722 34.29
5.97591 14.1709 34.3455
6.15456 14.3389 34.2754
6.01254 14.1065 33.5121
5.91365 13.9481 33.1768
5.72127 13.7069 34.2104
6.0919 14.1461 33.6092
5.78694 13.722 33.4484
5.92585 14.1806 34.3615
6.05778 14.2754 33.9582
5.80356 13.8866 33.7941
5.95927 14.5182 35.5981
6.05082 14.333 34.6486
5.75831 13.6787 33.9292
5.85044 13.9117 33.6503
5.65887 13.5959 33.1941
5.63587 13.5902 33.2859
