# pn-170911/RbIIA-34-RbII-1280-1959.psd
# Power spectrum* (dif=0,1,2) (really just |FT|^2)
# NOTE: only the first half! (symmetric)
# weeks: 1280-1959
# 285 clock-days, 49 excluded
# PSD: 1441
60727.3 1.4277 0.0208991
2.19204e+06 53.5962 0.0332808
2.94258e+06 50.5134 0.0356709
974704 21.6875 0.0324226
588453 18.8579 0.0383709
375168 14.1574 0.0321346
237327 13.2552 0.0371625
169421 12.1746 0.0335636
124702 12.6815 0.0417628
108131 12.8293 0.0393067
81118.4 11.5107 0.0453318
75769 10.735 0.0393956
57790.1 10.2701 0.0438232
58903.3 10.8059 0.0424238
48430.1 11.3126 0.0531447
40060.5 11.2856 0.0444187
32530.9 9.7651 0.0485289
35872.6 9.89091 0.0512318
27202.8 10.1188 0.0586149
24383.5 10.1329 0.0545233
18056.4 9.8063 0.0620804
25318.5 10.2565 0.0578029
22624.1 10.3969 0.0633942
14963.9 9.68962 0.0582554
14154.1 8.88431 0.0583754
13507.4 10.2234 0.0641121
11920.1 10.7237 0.0871861
12574.7 9.8631 0.0748275
11586.9 9.89049 0.072141
10790 11.3094 0.082917
8819.84 10.3424 0.0836693
9486.69 10.2912 0.0880379
8878.97 11.916 0.0943577
7203.57 9.51438 0.0855899
8970.34 10.6062 0.0952787
6928.49 10.2979 0.093901
6647.86 10.3132 0.099996
7080.92 11.3593 0.11004
6400.07 10.7409 0.108168
6477.13 10.8704 0.130751
5604.38 9.91754 0.120113
4879.73 10.511 0.109944
5334.17 11.23 0.135203
4674.17 10.0774 0.147788
4122.64 9.97115 0.135925
4281.79 11.5091 0.140803
4195.7 9.75484 0.118991
4093.21 10.1483 0.151105
3348.78 10.6402 0.161168
3636.9 9.94081 0.156914
3728.28 9.88247 0.165265
3621.2 10.1114 0.156234
3535.94 11.9343 0.194776
3150.55 10.1678 0.181825
3101.12 9.93201 0.176953
3225.51 9.71063 0.169678
3047.34 10.5923 0.204785
3028.29 9.49892 0.201462
2736.63 10.0905 0.207942
2907.07 11.3698 0.231452
2444.09 9.73515 0.195088
2443.42 10.5292 0.222125
2563.42 9.59618 0.215798
2991.73 11.6872 0.270495
2447.85 10.9569 0.269625
2290.89 10.8872 0.256158
2477.7 9.80079 0.283373
2574.65 10.7862 0.287766
2011.43 10.0309 0.290262
2039.88 11.0408 0.285114
2086.08 11.2102 0.334894
1850.57 10.1021 0.315156
1872.57 10.536 0.326882
1813.57 9.91375 0.321847
1777.86 9.95031 0.302171
1703.35 10.3777 0.344515
1939.89 10.3049 0.318566
1737.11 10.7638 0.381795
1547.62 9.02863 0.316637
1529.56 10.814 0.408376
1405.23 9.83846 0.381791
1413.75 11.3154 0.393748
1366.82 10.4595 0.403741
1361.62 10.6409 0.437669
1400.46 10.7225 0.400019
1451.95 11.104 0.41569
1115.49 10.6488 0.421996
1145.84 10.599 0.466433
1245.09 10.5811 0.422909
1050.81 9.76036 0.430965
1067.71 10.0178 0.420791
1107.74 10.1305 0.46205
1043.47 10.0585 0.450002
983.606 8.82521 0.399692
1001.29 9.43732 0.457845
1144.08 11.0843 0.540404
889.063 10.2601 0.497639
1080.93 10.8638 0.515329
1080.78 10.6806 0.559781
911.767 11.4268 0.591368
920.203 9.93425 0.505119
1132.96 10.7825 0.587557
914.915 9.31877 0.496559
943.381 10.7499 0.563999
945.134 9.57336 0.538697
925.154 10.1619 0.564466
668.455 9.29311 0.534348
988.785 9.88917 0.580771
724.095 11.5642 0.651104
773.807 9.32241 0.566518
794.087 12.0283 0.781638
757.765 9.70778 0.600372
769.134 10.8946 0.702253
631.102 9.93721 0.663214
758.219 10.9358 0.707439
792.842 9.60638 0.63547
584.711 10.0768 0.667288
609.815 10.3726 0.708928
733.545 10.6103 0.735222
675.654 9.41188 0.668162
778.459 9.89339 0.704345
596.865 9.87131 0.695656
643.419 9.56798 0.726757
768.108 9.94372 0.759422
684.095 10.4381 0.78188
650.865 9.94983 0.761328
606.245 9.30299 0.731106
541.074 8.91602 0.689612
582.723 9.85326 0.783197
602.658 11.1818 0.906901
540.084 9.80286 0.850447
551.555 11.2109 0.980763
531.935 10.209 0.952952
523.973 9.28332 0.802589
535.518 8.5739 0.763693
558.153 9.5789 0.872339
597.46 9.08835 0.857445
467.705 10.0295 0.936779
515.428 10.3751 0.948235
517.269 9.57593 0.885531
450.109 9.09751 0.910129
458.774 9.71271 0.952846
432.387 9.93184 1.00698
438.38 9.46781 0.992426
471.359 9.97556 1.0494
441.872 10.3496 1.0661
418.131 10.3609 1.08647
428.324 10.824 1.20298
399.964 9.87857 1.03889
434.858 10.1287 1.11415
425.954 11.4969 1.26039
405.577 10.583 1.17137
468.725 9.67903 1.07145
454.024 11.7446 1.35046
417.624 10.942 1.3095
373.454 10.2491 1.16899
381.75 10.1463 1.19196
363.866 10.7992 1.28653
380.733 10.2486 1.23081
358.875 9.69861 1.26521
361.53 9.51204 1.19402
334.803 11.1559 1.43867
383.091 9.51228 1.18862
364.29 9.5319 1.25721
434.298 10.6531 1.3875
440.071 10.9411 1.42115
363.777 12.3894 1.58623
324.561 10.4212 1.42042
419.188 10.025 1.34195
335.852 10.7705 1.43337
359.639 10.2148 1.37399
281.291 10.6177 1.52964
284.079 11.9365 1.63799
344.443 10.3886 1.46712
304.195 9.91586 1.42452
273.065 10.3599 1.54668
325.685 11.4978 1.73091
321.413 9.97677 1.49949
330.956 11.9582 1.84728
319.656 10.8002 1.69657
292.435 10.8915 1.72474
372.611 11.5316 1.89683
237.519 10.6481 1.68376
312.49 10.6848 1.68165
303.711 10.7622 1.72995
310.936 9.11693 1.53101
300.973 10.8207 1.75666
314.285 10.6093 1.82114
278.522 10.8454 1.78944
254.002 10.3391 1.78333
272.845 9.75585 1.67999
304.678 11.1588 1.91121
245.439 9.7172 1.67841
302.045 10.5085 1.83142
246.571 10.2183 1.82949
263.036 10.6325 1.85766
238.328 8.67595 1.56302
263.981 10.3299 1.88221
235.6 11.3282 2.10374
239.379 11.0172 2.05811
246.481 10.2248 1.89352
241.222 10.763 2.07
227.944 10.4009 2.06393
275.369 12.399 2.48355
267.904 9.97528 2.00737
239.13 10.5594 2.10704
265.588 10.073 2.00031
250.733 10.0287 2.04466
232.07 10.6619 2.21166
243.493 10.749 2.27271
248.461 10.5087 2.13598
251.197 10.543 2.16065
251.151 9.11054 1.90613
239.247 11.2206 2.41978
217.891 10.3313 2.2358
216.674 10.3995 2.30918
233.328 10.3311 2.27699
218.927 9.96918 2.20064
212.484 10.3697 2.3463
223.929 10.6138 2.44149
207.28 10.434 2.42074
232.688 10.2911 2.4317
233.303 10.5324 2.43704
192.835 10.2306 2.44105
207.861 9.76795 2.32747
228.006 11.0971 2.66033
196.676 10.3062 2.48643
171.825 10.877 2.67421
182.808 10.669 2.70795
200.91 11.6368 2.82191
180.084 9.03845 2.25512
183.902 10.5645 2.67597
191.789 10.0066 2.6221
198.483 10.6688 2.63717
173.655 8.76337 2.34655
184.827 10.5697 2.70404
173.909 10.6336 2.76948
171.426 9.95765 2.6615
179.813 10.5131 2.87279
191.262 11.5169 3.08796
149.077 9.91951 2.73995
164.923 10.107 2.77338
183.452 9.95686 2.65479
146.362 9.71632 2.72788
148.554 10.5759 2.93873
162.56 11.6582 3.29715
172.13 11.137 3.24712
158.91 10.5499 2.99773
164.456 10.5505 3.04282
172.462 10.2944 2.90087
164.735 9.69253 2.90336
182.558 12.1572 3.63265
149.408 11.2432 3.21935
149.492 11.1839 3.4559
165.235 10.1893 3.03063
130.74 9.89708 3.07775
157.217 9.4154 2.95972
168.417 11.1054 3.50284
139.167 10.8911 3.42136
142.078 10.315 3.28877
168.169 12.2113 3.81046
151.652 9.78797 3.1571
123.514 10.4535 3.41898
141.997 11.1577 3.609
136.949 10.7377 3.43085
123.557 9.71294 3.27752
164.679 11.2455 3.62724
151.028 10.4749 3.40867
124.786 11.8053 3.90913
150.535 10.9042 3.70826
143.959 10.9556 3.74143
145.655 11.5362 3.89341
116.208 9.85734 3.40293
115.704 9.58218 3.3575
143.958 10.8359 3.82666
149.818 9.59705 3.35871
120.828 10.4941 3.72943
145.953 11.2314 4.00768
132.124 11.3863 4.03222
120.807 11.3793 4.13136
103.87 10.0403 3.76167
126.767 10.3429 3.79615
119.196 9.06491 3.41564
108.35 9.88062 3.70643
103.905 10.4571 4.06679
99.9482 10.084 3.87788
85.2472 10.3708 3.80567
129.932 10.5471 4.07268
100.911 10.4131 4.03888
86.6643 10.9651 4.19976
108.357 11.6253 4.43909
106.6 10.4612 4.12142
102.168 10.7604 4.16975
116.272 10.1743 4.06814
119.175 10.8732 4.4008
105.765 9.91329 3.93392
110.998 12.3701 5.27252
102.975 10.123 3.9977
97.0239 10.2027 4.16489
118.001 9.33442 3.75326
110.47 10.6883 4.55953
120.2 9.50409 3.98109
106.243 10.5789 4.3629
116.379 12.0672 4.98912
110.728 11.6485 4.87312
120.873 10.024 4.33065
100.578 10.0592 4.40345
87.334 10.2615 4.37798
92.4544 11.6256 4.89347
124.305 9.86617 4.37269
114.286 10.969 4.76348
92.605 11.1616 4.99396
89.1427 9.67087 4.46426
92.6301 11.0612 4.99674
84.2382 10.5296 4.78771
92.9717 10.2435 4.62855
94.3961 10.2345 4.81315
92.6021 8.97011 4.274
87.3278 10.2422 4.85284
110.222 9.38334 4.43944
95.2554 10.3561 4.891
92.2047 9.7616 4.6963
116.204 10.4247 4.95897
86.4515 9.84969 4.85567
89.4244 10.2089 4.85317
87.8654 9.97107 4.77852
92.5445 10.0747 4.94124
90.6462 10.8571 5.37748
95.2094 9.7952 4.89996
83.6317 10.7708 5.3416
95.835 11.7839 5.69479
82.1691 11.7011 5.88394
79.8577 11.4968 5.5906
83.2236 10.5684 5.47729
81.4534 11.0182 5.65851
93.1819 10.2949 5.27702
68.5595 9.51408 4.95323
81.6194 9.91397 5.01448
97.4823 11.7266 6.18543
96.1189 10.8024 5.63064
84.9572 10.5685 5.64566
69.8479 9.70329 5.14031
79.9461 11.1935 6.0801
82.8418 11.7556 6.33821
76.1896 9.09511 4.94007
79.3366 9.78784 5.24368
84.4958 10.0219 5.39967
83.9081 9.94322 5.60506
79.1301 10.6939 5.89978
80.3353 9.6271 5.39601
83.4926 11.0992 6.14095
95.7808 10.8928 6.27064
76.5317 11.4006 6.39751
83.9073 10.8894 6.07285
92.7879 9.39721 5.4435
100.939 12.0283 6.93682
80.6591 11.3926 6.60591
96.4154 10.403 6.11943
82.6963 9.49783 5.55948
86.2579 9.89136 5.86168
78.5238 10.6213 6.02901
75.4895 11.7824 6.98377
85.272 10.5525 5.97554
79.2662 11.1184 6.80951
82.3126 11.1622 6.68641
78.5197 9.31961 5.42239
79.2851 11.1516 6.71998
74.7591 10.4881 6.31599
79.2293 11.7117 7.38306
71.8884 10.5139 6.38648
64.8385 9.52459 6.13555
74.822 11.174 6.92931
77.8058 11.312 7.13246
81.828 11.2534 7.23202
56.4997 10.0937 6.31355
79.9099 12.4479 7.72388
77.84 11.854 7.55843
67.7372 9.93872 6.31513
66.2265 10.4954 6.77329
65.6042 10.3606 6.79546
73.3252 12.8408 8.15785
65.0756 10.8241 7.02675
71.1264 10.6479 6.84754
71.5389 9.94859 6.64655
57.2868 10.0223 6.87123
73.2297 10.5278 7.17374
73.1152 11.0606 6.97189
60.7943 8.58346 6.02783
69.2549 10.2611 6.75642
89.4218 11.2985 7.85254
72.0347 10.6144 7.59142
71.8478 11.0186 7.73588
70.7039 9.97287 6.95802
71.6079 10.4104 7.16436
57.4748 12.3083 8.43937
70.6889 10.8268 7.65883
57.381 10.7554 7.87249
71.8957 10.9842 7.67154
65.3311 10.4608 7.61395
73.0883 11.4815 8.00713
70.8709 11.0699 7.98339
59.0363 10.8594 8.25469
67.7363 10.5222 7.42096
74.5384 11.7639 8.68616
56.2223 10.2951 7.3997
57.9411 10.8227 8.04086
67.5096 10.251 7.55973
66.5158 10.3234 7.51748
66.1255 11.0815 8.33515
58.8791 10.7271 8.08291
65.471 10.7177 8.1174
72.0823 10.6911 8.32864
62.6234 12.3724 9.10119
68.3505 11.215 8.9817
61.3705 11.5343 8.52479
56.8216 9.95846 8.176
67.5985 10.6786 8.33723
61.277 10.3838 8.19488
57.7344 10.7803 8.26682
60.0327 11.1041 8.31383
57.2337 11.0106 8.38572
58.3493 11.2989 8.8868
52.2393 10.8807 9.09014
60.301 11.2254 8.93408
61.2094 10.3511 8.04402
47.203 9.74248 7.98061
52.5652 10.657 8.43261
55.6166 11.7996 9.59927
58.3729 9.72395 8.00413
55.5473 10.9754 8.78304
47.7454 11.2268 9.32696
53.8804 10.854 9.22148
56.8705 12.1204 9.95383
54.7544 12.2426 9.60909
58.1555 10.7548 8.87622
58.791 11.4437 9.82315
52.4953 10.4002 8.81419
58.4429 9.25566 8.06924
62.8116 11.492 9.09991
57.8671 11.922 10.6535
63.9158 10.8083 9.23042
65.7017 12.2208 10.5735
57.912 11.5411 9.6057
57.0066 11.3276 9.86251
55.7089 11.0805 9.90275
49.2708 11.6597 10.0105
49.212 11.6013 10.3202
52.631 11.1573 9.93175
50.9372 10.5056 9.20961
45.1355 11.7712 10.7261
56.1234 11.9464 10.3174
55.6878 11.1566 9.30852
68.6848 12.3547 11.1459
59.3159 10.0595 9.0297
43.3212 11.0014 10.0412
50.4067 11.8951 10.9209
68.9514 11.4373 11.0082
54.4439 11.8345 10.5292
58.901 11.9876 10.8417
46.4687 11.0388 10.1025
44.3311 11.7924 11.2105
56.6586 10.2371 9.23733
49.3923 10.8857 10.2907
42.42 10.0824 9.7255
44.2568 11.5408 10.6771
52.9292 9.74811 9.09299
49.2855 10.9788 10.5858
48.2609 10.4142 10.0807
52.2422 11.2379 10.198
60.1639 10.7652 10.1779
41.0471 9.5626 9.56655
53.6749 12.3203 11.8505
50.5471 12.6241 12.0836
54.7818 11.3978 10.814
49.7817 11.5643 10.9656
46.4399 10.9954 10.6182
43.3932 11.7333 11.4223
45.0203 12.4967 12.0797
49.25 10.9929 11.1166
49.2298 9.97171 10.2416
42.7668 11.9665 12.2299
50.1782 11.228 11.2775
43.6957 11.4799 11.6431
45.0732 10.7679 10.968
44.7027 10.7797 10.8387
51.0669 11.76 11.8771
47.9754 10.3409 10.5349
44.8649 12.1499 12.4454
44.166 12.3714 12.4691
42.2068 10.4768 11.3636
41.8828 10.4362 10.8434
49.5071 11.1626 11.9358
52.3288 10.8694 11.1806
46.4957 11.4591 12.0215
50.7771 10.9106 11.1407
46.5249 10.6145 11.2801
45.5028 11.2437 12.1446
50.8097 11.5318 11.9975
45.3765 11.2262 12.3827
49.6111 10.9395 11.5486
50.3764 11.6172 13.2613
49.2443 12.0338 12.7385
41.9985 10.8567 12.0206
47.7262 12.7428 13.4889
46.3869 10.4143 11.9053
43.1354 11.465 12.8826
45.1859 10.1135 11.6182
40.1421 11.5953 12.3921
40.7881 11.3305 13.1698
43.4051 11.4488 11.6811
40.7804 10.3393 11.8159
39.1384 11.6103 12.9585
40.217 10.2035 12.0595
42.5809 10.9247 12.1695
47.8159 10.8619 12.6259
38.9112 13.0306 15.1677
39.4089 11.2846 12.4045
39.6224 11.3437 12.9673
39.0993 12.2445 14.5553
41.3456 10.29 11.7027
43.115 11.2528 12.8346
46.0417 11.3991 13.9466
40.1178 11.0966 12.5327
43.4438 12.1834 14.0131
39.2595 10.4412 12.2253
39.1881 10.3822 12.3215
37.4994 9.87303 11.3548
44.7844 10.2914 12.1707
40.7974 11.1846 13.4434
39.9499 12.2516 14.407
42.1526 11.8528 13.6027
36.1191 11.8976 14.3256
36.1351 10.8966 13.0891
37.78 11.3348 14.0666
38.9483 10.5187 13.2151
37.8996 11.838 14.6011
40.2263 11.2505 14.7832
46.6046 11.0094 13.7133
41.559 10.6919 13.1317
46.9932 10.9655 13.6055
37.5008 11.2022 14.338
39.8661 11.1772 13.6488
41.0903 12.2394 13.8851
33.8607 11.09 14.9409
36.407 11.0132 13.753
41.1329 11.799 14.073
38.7843 10.9876 14.1352
37.8322 11.6588 14.5588
42.2438 11.6542 15.0592
36.2119 11.3806 14.9012
34.4027 12.3471 15.231
40.6017 11.98 15.2599
34.5591 12.4269 16.1638
32.9945 12.6157 16.9017
43.1784 11.1596 14.1778
40.7141 11.9748 16.0253
31.5265 11.0281 14.066
43.9774 12.9194 16.7063
38.5649 12.8072 16.211
39.545 11.9576 15.7884
31.383 11.587 14.8975
33.9147 11.4023 15.8081
42.5554 13.2865 17.2022
42.5979 13.1293 17.5743
37.9349 11.2915 15.5513
40.4942 12.054 16.5231
39.8207 13.4936 17.6563
31.961 11.7919 16.3394
30.4476 12.2435 16.1254
39.0473 11.9831 15.8421
34.7726 13.2447 19.1709
31.0107 12.4446 17.1025
34.24 12.6336 17.2055
30.8687 12.2188 17.2897
30.3988 12.0148 16.2958
45.3441 12.0837 16.3644
31.0476 14.3364 18.8227
27.9519 12.8021 17.4064
35.7219 12.6208 17.8734
34.6404 10.3256 14.6634
36.7364 12.5829 18.6915
35.4382 11.322 15.4473
34.6637 12.1119 17.1278
35.1813 11.5175 15.2677
29.7398 12.374 18.0033
29.1419 12.3642 17.7716
33.7549 11.2239 15.3755
29.0352 11.1804 16.374
28.2814 11.6824 16.742
33.6113 12.9256 19.0649
34.6383 13.1631 19.0233
31.8341 11.5662 16.4506
31.2701 10.9453 15.9758
37.1336 11.2862 16.8741
28.6421 13.0879 19.1497
27.6157 12.5349 18.5584
28.7264 12.4766 18.8266
34.2118 11.8626 16.8517
31.0575 11.7985 17.3712
29.861 12.9383 19.5382
27.7791 12.2329 18.8476
31.0473 14.8121 21.5292
29.8028 12.8673 19.2814
30.5663 13.1646 19.873
31.0977 11.9814 18.2876
29.5411 12.3666 18.3088
22.7235 11.4835 16.8556
30.4334 12.636 18.4616
29.9911 11.9628 18.722
33.1332 12.2144 18.0502
32.7279 13.697 21.5347
30.4591 12.4391 19.4964
32.6068 11.1958 17.1141
26.8253 10.9635 17.0582
29.2007 11.4225 17.3019
26.1423 10.9337 17.2195
27.8467 12.0353 17.7404
29.7349 10.9436 18.3179
32.7225 11.7029 17.553
25.3988 12.0576 19.545
29.7329 12.99 19.9532
32.1775 11.4911 17.9918
28.3769 12.129 18.4237
30.5653 12.9893 20.601
25.457 12.372 19.3829
28.9108 12.0486 18.7039
29.7157 11.2769 17.8968
32.9189 11.6599 19.8429
30.3811 12.3634 18.3357
25.3229 12.2366 19.963
29.6157 11.6163 19.552
30.8716 12.5992 19.9195
27.2703 12.4104 20.0079
28.2128 12.3185 19.5296
30.9605 12.9264 21.8128
31.2263 12.6728 20.6352
30.0411 13.1576 20.4175
30.5039 12.368 20.5037
30.2659 13.3271 21.3288
32.5951 11.3799 19.541
24.2583 10.1354 16.8253
27.0636 12.5463 20.5053
30.7262 11.0121 18.6572
30.702 13.0107 21.3098
29.5138 12.2015 21.4818
32.3811 11.4438 18.9471
27.4895 12.069 18.601
28.6336 12.7884 22.8941
26.8084 10.6457 18.1887
25.0522 12.0854 20.7669
27.75 11.0457 20.0363
28.2595 12.8839 20.6731
29.2721 10.6292 18.473
23.713 11.7247 21.3585
25.915 11.3934 19.6229
25.122 11.6228 19.896
28.6085 11.9699 19.8845
24.2177 12.6237 22.1415
25.6597 13.1777 22.8991
28.3927 13.5629 23.5933
28.3221 12.168 21.0733
29.3458 12.6353 21.3228
24.3883 11.1622 20.9758
32.8406 13.274 22.3684
28.7718 11.9169 21.3523
25.0955 11.2004 19.6189
28.2854 11.1538 19.0936
29.326 12.0453 21.1126
26.4428 11.4414 20.9162
24.3448 12.1942 21.2405
30.7974 12.6107 24.086
29.4616 14.1368 22.9373
24.277 12.4793 22.4957
26.3013 13.3752 22.9646
30.1935 14.184 25.3263
24.8311 12.0012 20.9478
29.2583 11.6296 20.5752
29.3326 12.1308 22.9257
23.6408 11.8436 20.6951
26.0493 10.6304 19.849
28.165 12.4215 23.1877
28.302 11.7429 21.1408
22.4908 12.0075 21.8787
25.8139 12.0809 21.1622
25.1268 12.3069 23.8372
26.174 13.0204 25.2823
24.86 11.4402 20.9016
28.6314 12.3857 23.0869
29.6722 13.1916 24.3876
26.6509 13.4825 24.0247
27.5743 12.0706 23.4365
24.9898 10.7647 19.8898
25.9272 13.5987 25.5023
25.8411 12.7401 21.2909
23.5834 12.4209 24.1484
26.6969 13.825 26.0462
23.847 11.3737 22.6396
24.3117 13.0281 24.6277
25.6963 11.7925 23.6743
28.8204 12.5099 22.4652
23.2799 11.3746 22.4352
25.8818 11.4766 22.0265
25.2541 14.0376 25.8732
25.2312 11.3196 21.8076
24.2744 12.5837 23.8378
27.4187 12.353 25.5599
25.8693 12.8223 24.7484
26.1886 13.2343 26.0936
25.5274 13.0782 25.2053
26.3625 13.5042 25.9576
22.7368 12.3787 22.1879
23.7282 11.7324 24.6052
26.8008 12.6669 24.6551
20.7208 12.2364 24.5333
25.8255 11.9878 24.4112
26.2452 12.5493 22.7041
25.4325 11.6405 23.1442
24.1497 13.0726 26.4769
21.7448 13.3775 26.215
25.4836 12.996 26.3091
22.8054 13.4298 26.8895
25.0319 13.4009 26.5871
25.5279 12.4625 24.1905
21.8934 13.4182 25.5808
23.9016 13.7719 27.0627
23.8172 12.0934 25.5137
23.407 12.0645 24.9034
23.06 11.88 24.7614
25.3805 12.2527 24.3648
26.0552 12.7786 26.3259
23.5169 11.6024 23.5392
23.3966 12.6405 24.5143
24.1897 11.763 24.9073
21.9972 12.2316 24.6121
23.83 12.2527 24.9696
21.2304 12.3684 25.7252
23.4464 12.1887 25.2277
20.8715 12.5329 27.9956
24.5177 13.4013 28.1088
22.1548 11.6954 23.4865
28.6416 11.9172 23.3146
22.7492 12.9992 27.2519
20.7277 12.7536 24.1378
22.1974 12.2842 27.8418
30.4624 12.9856 28.062
22.071 13.3957 26.8391
24.0044 14.6261 29.2351
21.3248 11.8484 27.8118
22.4667 12.3998 26.3604
21.4166 12.5143 26.9709
22.5409 12.487 25.1087
20.4221 12.1828 27.2446
19.731 12.8143 26.5859
23.7267 12.6294 26.5243
23.842 12.9761 26.8397
19.8051 10.953 24.8885
24.0493 11.5201 26.4532
25.2039 13.4793 30.1815
19.6712 13.5094 26.3068
19.2723 12.634 26.5967
22.1732 14.6439 31.6195
24.917 12.3579 26.4215
19.6407 12.6592 28.5823
20.8231 12.8517 26.4749
23.5547 11.7202 25.8142
20.9184 11.693 25.7894
22.0085 11.9823 26.671
24.5803 11.9253 23.4288
20.5126 13.7761 30.1665
23.3673 11.9193 27.0101
19.8622 12.5121 29.0217
21.0824 13.1447 28.1067
19.0378 11.7118 25.8932
23.1996 11.6663 27.4925
26.6667 14.1493 30.5288
22.6512 14.4022 30.6821
20.0088 12.3925 28.0932
22.379 13.8791 33.1052
22.2458 13.2211 26.8237
24.9269 11.3779 26.8166
22.5986 12.5931 27.167
22.5891 12.087 27.5464
28.9782 12.0945 27.7368
27.0146 13.0641 28.2975
22.8842 13.4726 31.4941
27.6764 12.8914 31.7764
23.8747 11.4832 26.0793
27.7877 13.9035 31.8543
22.4848 12.7695 27.3298
22.665 12.6706 30.8515
20.6675 13.6753 29.9678
22.0282 11.3973 25.69
21.0276 12.2165 29.3848
21.2016 13.3543 31.1906
20.7567 13.6062 28.6482
21.1744 12.9596 32.061
20.5098 12.0598 31.3614
19.9377 12.8861 29.7875
22.2125 11.5737 27.993
20.341 12.8881 29.4376
20.5741 13.0169 28.404
23.4732 13.8298 32.2225
23.7574 10.9383 24.5762
19.1255 11.7953 29.277
20.4317 12.6429 30.8275
23.393 13.6771 28.9523
19.6213 12.833 32.1596
18.2126 11.3545 29.5917
22.2419 13.5814 32.5568
23.9438 11.6376 28.3979
20.148 12.2523 28.9788
20.2438 12.9753 30.2973
20.9989 12.0302 29.2311
21.3009 11.7469 29.3344
18.7694 13.9721 32.7645
22.3927 12.6495 30.2926
21.6872 14.1484 30.587
19.7548 11.1776 27.5899
20.3919 13.4699 34.8367
19.3318 12.69 30.3725
17.4623 13.2342 31.7079
19.5217 12.4421 28.9829
25.2644 11.6275 27.8429
19.9505 14.4029 34.6915
18.7924 11.2207 30.8531
22.5108 14.58 35.6058
20.8213 12.3592 29.1672
23.6682 11.8184 29.5514
20.3422 14.7047 35.8651
