# pn-170911/RbIIR-47-RbII-1280-1959.psd
# Power spectrum* (dif=0,1,2) (really just |FT|^2)
# NOTE: only the first half! (symmetric)
# weeks: 1280-1959
# 324 clock-days, 14 excluded
# PSD: 1441
58366.6 1.17211 0.0283276
2.23942e+06 56.184 0.0563296
2.85868e+06 48.7 0.0594701
851887 16.3546 0.0644676
601230 19.0375 0.0644025
341765 9.19755 0.0652026
229954 8.82742 0.0565516
164910 8.10614 0.0601827
131086 7.97662 0.0685453
104394 7.35165 0.0647515
77456.1 6.65795 0.0692856
77630.9 6.88638 0.0635109
52403.9 6.54593 0.0599481
53601 6.50174 0.066703
42691.1 6.26508 0.0713026
42357.2 7.11935 0.0596713
32088.4 6.86333 0.0891456
32336.7 6.36138 0.0793153
29624.2 6.51877 0.0733335
26191.6 6.56907 0.070535
17014 6.14257 0.0769269
26809.7 7.3978 0.0777604
21999.3 6.94068 0.0965858
15468.8 6.2304 0.0739079
14676.5 7.51688 0.0805717
14073.7 7.82964 0.0831143
11582.5 8.10773 0.0863974
12514.6 7.85184 0.091697
12184.7 9.40918 0.111558
10253.1 9.33784 0.0965914
8855.17 9.09955 0.101667
9250.19 9.02276 0.10471
8976.05 9.27152 0.101185
7233.05 9.56523 0.117852
8942.11 11.9364 0.119531
7759.91 11.011 0.128708
7205.37 11.3457 0.12108
7412.25 13.9564 0.13546
6457.37 12.5334 0.129893
6514.31 11.1234 0.149961
5680.66 10.849 0.140037
5147.92 13.205 0.16295
5373.52 13.652 0.155619
5090.48 13.1273 0.175499
4678.01 14.889 0.186709
4681.76 15.2621 0.186388
4583.55 13.7015 0.181957
5035.57 17.2693 0.244077
4438.15 19.7673 0.271967
3996.31 14.0896 0.216553
4625.89 16.5613 0.232745
4670.68 19.2795 0.262883
3737.85 17.4088 0.263789
3898.34 18.1401 0.299226
3821.65 19.4779 0.323928
3634.05 17.8498 0.303485
3862.24 21.0439 0.35794
3746.14 18.8684 0.354243
4160.99 21.8789 0.414396
3221.89 17.9596 0.359762
3443.59 21.3191 0.434425
3393.31 20.1327 0.403373
3356.11 20.8093 0.429659
3447.46 21.4194 0.48288
3401.51 24.9002 0.564717
3163.54 19.6402 0.478049
2978.72 22.3417 0.588429
3271.61 21.7531 0.533531
2562.33 18.6236 0.515633
2931.2 24.6995 0.616761
2629.76 25.1426 0.672202
2388.57 23.2705 0.628783
2668.28 28.2888 0.772132
2193.36 23.0055 0.618727
2420.98 25.7922 0.753516
2247.25 22.5666 0.669447
2365.58 26.5329 0.779896
2228.47 25.8682 0.795172
1973.78 25.2568 0.791768
2158.05 24.3344 0.830816
1976.05 25.8031 0.842659
1793.23 22.857 0.739174
1918.37 23.6049 0.826172
1648.66 23.576 0.83641
1944.74 27.5828 0.977823
1936.22 25.9258 0.963664
1566.59 27.408 1.01033
1602.21 25.9397 1.0383
1647.03 25.1781 0.969745
1547.97 25.4766 0.999729
1413.06 26.381 1.06802
1673.39 26.5501 1.16063
1478.22 26.4394 1.13515
1453.75 25.2957 1.08306
1552.9 24.7827 1.15122
1624.35 28.4755 1.26268
1492.32 30.8805 1.43134
1534.8 26.8061 1.25871
1522.9 30.6599 1.41345
1244.44 26.1496 1.29625
1335.55 28.0063 1.37042
1468.8 23.3721 1.19123
1361.48 28.863 1.5127
1280.48 25.7419 1.30071
1258.74 23.3374 1.30617
1263.08 27.4223 1.49485
1026.65 25.1039 1.39514
1255.61 26.7449 1.50916
1131.79 27.7417 1.60641
1145.02 25.0481 1.48199
1056.78 26.2625 1.59851
1101.29 23.4294 1.39889
1093.88 22.7039 1.40068
927.894 27.5967 1.77265
1027.98 24.4989 1.5875
1120.2 26.4743 1.73092
818.48 23.337 1.54787
804.096 21.7939 1.50388
903.797 25.091 1.69433
858.073 25.7266 1.78964
975.637 25.0732 1.74997
830.098 27.6404 1.96948
819.103 25.0554 1.82687
1000.95 25.5471 1.86252
866.043 24.3486 1.78956
841.496 23.5715 1.79526
824.273 23.7306 1.82565
776.58 27.034 2.09461
710.146 21.0041 1.65584
724.605 23.7908 1.93825
713.901 21.8768 1.78839
715.718 22.3946 1.87095
657.982 21.4568 1.89457
714.791 23.1171 2.01281
758.271 26.2081 2.2498
716.659 22.5893 2.00114
740.866 21.9046 1.98614
658.188 27.1343 2.44021
619.713 22.8314 2.10161
625.276 19.198 1.78888
692.796 24.8898 2.3976
648.026 23.0582 2.21247
567.358 21.3313 2.11949
664.986 24.7505 2.4618
659.712 24.4508 2.40027
611.074 22.6202 2.29386
554.501 22.1002 2.29956
586.992 19.8545 2.06992
557.62 20.2825 2.10632
541.166 21.1075 2.3212
577.147 26.4504 2.88967
516.302 21.1194 2.30138
567.465 23.497 2.59491
581.174 23.2783 2.59926
527.472 20.5186 2.36913
577.96 24.9843 2.8155
494.835 24.1616 2.84563
580.322 26.242 3.03761
460.534 21.9034 2.65114
470.927 23.3671 2.83186
428.528 20.9167 2.59011
417.44 21.8826 2.79083
484.337 22.421 2.74845
473.206 21.5489 2.77671
534.067 21.9326 2.76527
535.978 24.7235 3.19532
436.137 24.3175 3.15873
388.905 22.9092 3.0283
537.1 23.1028 3.10258
436.429 24.1021 3.18432
420.325 21.0874 2.83731
331.855 21.4778 3.0116
379.953 25.6593 3.51123
434.328 20.6567 2.98945
392.822 21.2066 3.12625
387.237 25.944 3.7791
410.859 21.6343 3.10035
415.145 22.5651 3.40502
380.152 21.1815 3.21933
408.053 23.1192 3.48451
369.616 20.5884 3.18582
417.625 22.5467 3.69366
342.806 21.7641 3.2341
387.772 19.9347 3.2554
411.822 23.6862 3.80305
413.764 23.3589 3.75657
400.268 22.3702 3.613
406.661 18.6968 3.09645
349.029 21.556 3.62019
308.4 21.9528 3.64724
357.886 21.5724 3.67677
409.203 24.4478 4.23773
337.319 25.2072 4.39854
401.979 20.9076 3.61745
339.307 19.9826 3.64145
338.858 19.1646 3.37769
313.209 20.2405 3.749
392.12 22.5499 4.15134
300.198 23.3527 4.31574
297.103 20.6997 3.93541
349.336 22.5609 4.15635
289.922 21.6613 4.09906
270.945 21.8746 4.2227
349.355 22.2096 4.36434
312.694 24.4975 4.95279
284.284 19.5555 3.83064
331.427 22.8601 4.64398
293.608 19.3012 3.84294
297.099 21.3719 4.36489
296.673 22.1521 4.53975
304.291 21.4314 4.367
298.329 19.4142 4.09509
287.75 19.5719 4.24901
279.509 23.6706 4.94574
291.074 22.9453 4.87275
256.542 19.6561 4.2303
286.34 22.6433 5.09562
285.258 22.8489 5.08557
265.331 20.7679 4.56346
277.204 20.6125 4.83041
252.852 19.8149 4.46764
288.014 21.266 4.71498
259.176 20.2553 4.72163
283.866 20.9478 4.97769
288.191 19.1327 4.39408
250.756 20.0176 4.78988
275.465 23.0784 5.60807
246.612 20.8505 5.06302
245.941 19.3166 4.87205
248.88 23.0848 5.69406
265.581 21.8073 5.27876
229.779 18.8496 4.86283
237.111 19.346 4.82062
233.818 21.5043 5.64245
229.256 21.7304 5.63857
228.597 21.1965 5.46156
211.862 20.8498 5.44134
236.623 19.7368 5.14606
258.178 21.4204 5.46086
236.247 23.3442 6.26913
201.796 19.8596 5.22186
224.157 21.8217 5.86872
224.254 21.7063 6.00053
197.867 20.8307 5.55964
207.529 21.088 5.76197
196.432 19.8609 5.82115
215.866 23.2306 6.413
186.871 20.3538 5.92827
183.875 20.0828 5.79794
222.947 19.453 5.64187
209.377 20.8591 6.24314
225.896 20.9919 6.14848
172.345 19.6067 6.06897
209.277 24.008 7.21615
228.548 22.3674 6.71749
160.15 17.9327 5.45602
206.034 19.919 6.05058
179.363 19.3864 6.11943
196.126 22.4513 6.87543
176.234 20.8358 6.42432
198.498 18.9686 6.20467
189.662 21.8825 6.7312
155.464 19.1621 6.16294
180.277 24.0981 7.95405
165.344 18.95 6.10272
188.072 24.171 7.99297
221.089 21.7815 6.94117
210.886 21.1077 6.85239
165.587 21.7162 7.2864
196.158 19.0968 6.50138
189.101 20.7478 7.11648
191.002 24.5708 8.29277
160.785 18.723 6.74616
172.384 20.9215 7.20573
159.353 17.8181 6.13133
180.329 19.1035 6.51588
151.785 19.1851 6.8485
181.765 21.9037 7.7385
157.55 21.559 7.67685
167.569 22.242 8.04981
146.736 19.4884 7.20186
158.643 21.0786 7.78502
161.056 20.3074 7.43813
153.965 20.6944 7.72518
145.245 20.4204 7.54548
119.665 19.5391 7.47084
116.464 22.5727 8.49494
180.479 21.9968 8.58466
140.248 25.1576 9.16981
110.98 20.1534 7.89646
134.355 21.9712 8.29991
115.626 17.2384 6.7886
137.201 20.721 7.9847
135.94 18.4527 7.36466
148.989 19.0741 7.53998
144.443 19.6662 7.77774
142.223 20.7966 8.47483
130.584 18.5463 7.57387
131.131 18.3647 7.46103
147.521 19.8147 8.22278
121.079 20.7053 8.5407
146.632 19.667 8.12758
122.279 18.6727 7.84083
132.352 20.0208 8.2694
123.731 20.9778 9.03143
138.029 19.9709 8.65706
142.146 21.4352 9.40311
128.586 20.2167 8.61344
114.355 21.2853 9.20012
163.009 21.4245 9.34758
139.289 19.6479 8.79898
123.871 19.508 8.80825
117.227 19.1777 8.37383
122.113 19.5615 8.97349
116.152 21.2179 9.57479
129.566 22.4803 10.2228
130.414 20.1777 9.49456
119.86 18.9183 8.82657
107.553 18.6204 8.7765
137.414 19.9299 9.27875
121.649 19.2904 9.03504
113.688 19.7257 9.55599
132.043 21.0238 9.97397
128.993 19.0677 9.18536
120.954 21.7842 10.1923
117.164 21.1294 10.2497
113.493 17.8457 8.71803
114.59 18.7849 9.00671
103.732 18.9938 9.55307
106.012 21.8443 10.4269
104.254 19.9833 10.1382
106.518 21.7887 11.0571
109.587 22.8841 11.1682
100.552 19.2411 10.0006
110.303 21.8874 11.0584
111.313 19.4297 10.1391
100.329 20.7036 10.6797
92.5627 20.9474 10.7602
118.627 21.8242 11.2142
114.952 21.8307 11.1582
92.5047 20.3017 10.5591
99.7424 19.3193 10.5778
93.4609 19.4208 10.3294
118.328 21.6015 11.1662
93.9282 19.805 10.7205
110.033 18.6398 10.1134
120.134 20.9205 11.683
108.927 20.355 10.6808
109.074 21.8305 12.0861
106.742 17.2732 9.72238
106.249 20.1523 11.1697
110.527 19.7196 11.064
103.865 20.5309 11.5585
114.253 20.398 11.3602
105.871 18.4843 10.4362
116.963 20.2844 11.6754
103.619 18.9411 10.813
109.101 18.9997 10.9215
105.125 19.8037 11.7891
108.484 19.3278 11.2748
97.1816 20.3804 11.7265
85.2148 18.1871 10.9916
101.29 19.9963 11.4867
100.765 19.6819 11.8136
102.51 20.0117 12.1502
92.2317 19.3771 11.2279
89.9795 17.9618 11.0158
94.8937 18.9773 11.5049
91.9949 20.2741 12.4088
80.7272 18.3394 11.2467
80.8671 18.4416 11.2433
87.6675 19.1024 12.2316
89.3375 17.7701 11.1382
94.8056 21.3772 12.991
74.7951 18.8043 12.4603
89.1221 21.2792 13.2834
99.0507 18.5193 11.7083
89.8414 17.9256 11.8092
80.8789 19.5224 12.3514
93.3792 20.495 12.9621
86.7021 21.5446 13.9462
85.7633 19.6625 12.5662
83.695 19.025 12.4708
90.71 21.1842 14.5715
84.3723 23.8203 14.8303
84.612 18.6937 13.0768
83.6355 18.6423 12.1587
79.9691 18.1063 12.5875
88.3116 18.6338 12.7679
97.0411 20.0573 12.9424
85.5371 19.3502 13.5054
91.0476 19.2093 13.3718
81.6173 18.9431 12.8407
89.9998 18.8985 13.4784
76.9191 20.6366 14.7648
95.6233 19.4958 13.4165
82.997 21.23 15.0428
88.7118 20.0097 14.4632
77.5445 18.158 12.8463
92.5782 20.2443 14.1993
86.852 18.0506 12.7895
68.4288 17.3179 12.531
77.7739 20.1223 14.5082
91.5993 18.9977 13.7769
74.2413 19.9729 14.6917
70.9522 19.1327 14.2138
86.2481 19.4531 14.3665
82.219 19.951 14.6605
79.9393 17.6554 13.3893
73.9007 20.6945 15.9625
81.0544 19.6155 14.0777
82.8869 18.9377 14.6784
70.738 19.9815 15.2315
80.4268 18.1462 14.1738
72.0022 18.8411 14.1469
73.6063 20.4224 15.9952
72.7351 18.19 13.9002
67.7791 20.2103 15.6632
75.2909 19.3394 14.6524
70.6916 16.9918 13.2623
68.1939 19.9764 15.753
64.9985 19.4215 15.6758
66.6178 18.3342 14.6423
66.6799 17.56 13.7058
71.5949 19.3025 15.2616
68.9765 19.1453 15.3972
66.5073 20.2549 15.9115
65.6599 19.1226 16.0369
74.1952 18.7738 15.3147
72.6296 17.9969 14.0424
58.2417 19.5453 15.9774
70.328 17.8686 14.6059
73.2043 19.2238 15.7588
70.2241 20.7986 16.4972
71.7638 20.8004 17.0334
67.5708 18.4612 15.4325
64.0068 18.9115 16.4304
73.4253 20.6566 17.0378
69.915 18.6567 15.5059
68.1525 17.6418 15.3397
71.4003 20.0093 16.5851
74.5306 18.6448 16.3335
65.7365 18.8156 15.8888
75.975 20.0381 16.8897
64.4298 18.1718 16.1354
63.3169 18.1364 15.2382
61.2457 18.5753 16.5628
58.2439 18.1773 16.7539
63.0293 19.9685 17.2509
55.3901 18.3627 16.4385
65.0018 19.7425 17.0515
60.8614 19.893 17.9861
81.0975 20.6219 18.9409
73.5393 18.4585 16.2246
49.096 18.3829 16.6707
57.4248 18.1509 16.2421
80.3912 19.3676 17.5681
59.9166 19.137 17.1909
61.3397 18.2454 17.0103
55.1741 20.0474 18.4318
56.3631 20.3691 19.4237
70.5803 17.6588 16.6853
60.0289 20.649 18.3338
50.3737 17.4993 16.7995
57.1598 20.4592 19.2183
61.5323 18.8459 17.6145
58.31 19.5704 18.5477
58.0003 18.2354 16.7567
62.2427 19.8782 18.5446
65.5636 16.726 15.7939
48.7186 17.6587 17.8926
64.9883 18.4278 16.9729
57.6929 19.8792 19.4132
58.7851 18.7044 18.591
62.5448 19.1954 18.8571
59.9306 20.1504 19.9955
54.1537 17.8677 17.0229
50.5493 19.2851 19.5347
58.1784 16.5314 16.5958
62.1425 19.1167 19.8157
55.8784 23.2779 21.4574
57.1037 17.9313 18.1663
60.1805 19.5776 20.2292
55.2508 18.6993 18.8633
56.9451 17.2362 17.2219
64.9549 16.8741 17.1397
52.6973 18.2372 18.4953
51.3318 18.4176 19.8087
53.6387 19.367 19.1335
55.2829 18.1912 18.9607
53.098 18.1037 18.0822
55.3364 16.6932 17.6762
54.8123 16.8232 18.0376
48.275 17.0492 17.876
54.5558 17.3807 18.1893
60.1245 19.521 20.7698
54.3435 17.8099 19.6111
59.2546 20.3881 20.8332
57.3616 18.1546 19.6206
60.9913 19.8909 20.4968
55.4365 19.2121 20.5051
47.1456 17.6965 19.5418
49.5084 19.5331 21.4227
50.1835 18.7519 20.6988
55.2541 19.8954 22.0687
49.291 16.6114 18.7409
49.8223 17.3609 19.8954
48.1228 21.4325 23.3947
50.6166 18.079 20.5501
52.2638 18.6796 19.5797
47.29 17.9134 20.7494
59.956 19.9551 21.4794
56.1732 18.5013 19.9989
49.6219 18.9905 22.6044
56.0589 17.315 19.5391
51.098 20.6114 23.026
48.4337 18.9538 21.7482
53.135 19.2421 22.1562
47.5668 18.9302 22.018
51.3928 16.1884 18.3025
51.9328 18.5718 21.7737
60.1224 19.6494 22.2173
45.8049 17.5532 20.9044
46.6367 18.422 21.1341
48.8716 18.1483 20.6617
49.6683 18.8803 22.3108
44.9806 18.6448 21.9863
53.0313 17.6049 20.5029
47.2714 17.2556 20.8694
50.8265 17.5045 20.539
48.699 18.5207 22.7136
42.8163 19.5388 23.6904
45.9336 19.5054 23.8775
46.3218 19.0845 23.05
41.4635 17.9296 21.6048
45.8359 18.0279 21.5979
47.568 18.9481 24.1315
51.9992 19.3002 23.0494
45.3374 17.9408 22.603
50.8629 18.7737 23.4088
45.4048 17.6715 22.0623
43.7989 18.9604 22.9288
46.2603 18.0759 22.5511
45.251 19.3737 24.173
43.5491 16.4517 21.3041
48.7365 17.3096 21.6743
47.5871 19.4853 22.7342
40.0358 18.1727 24.0639
51.9853 17.733 21.8146
44.3505 18.261 23.1956
38.1077 18.3413 23.5068
47.1523 18.5327 23.8356
37.8183 16.3785 21.998
37.8612 17.9177 22.7808
48.8735 17.6347 22.4895
44.9995 17.087 23.5187
40.7046 19.5306 25.117
52.8137 20.5222 26.2651
44.8421 19.9204 25.8395
44.1529 18.6344 24.199
40.2154 17.6801 22.8587
43.6527 18.7053 24.7397
46.1539 18.2164 24.2698
48.194 19.5177 26.3931
44.8899 17.6437 23.7593
48.1949 20.0938 25.8328
41.223 20.0499 26.708
40.0493 16.8138 23.9007
42.6829 18.8713 25.3949
43.0445 19.1689 26.1734
43.0121 20.2141 28.2367
41.5002 19.934 26.3503
40.9898 20.274 27.4708
35.683 18.1133 24.8114
35.0664 18.8525 26.0038
54.7155 19.9568 27.8498
36.2505 23.79 31.5287
34.9804 20.0851 26.7557
40.8714 18.5691 26.4344
39.8578 17.9919 24.5552
40.1407 17.7337 25.1078
38.9413 17.4067 23.9518
36.5373 17.2071 24.664
37.0647 18.8303 26.7991
38.0783 18.8308 26.1166
32.5334 16.3006 23.3126
36.5246 16.5135 25.8828
36.7924 17.0555 23.7833
34.1679 18.0291 24.9369
36.3671 16.851 25.8022
36.947 18.173 25.4968
38.8352 19.1244 27.7051
33.1509 17.617 27.0169
41.7441 18.4577 27.0952
37.7025 19.017 26.7071
33.9055 17.9149 25.3327
34.1894 17.9369 27.1332
39.0998 19.1158 26.9835
37.7912 15.3477 23.6415
39.4416 18.5089 27.3463
35.6066 17.157 25.19
36.7909 18.9081 29.214
34.6746 18.0285 26.512
36.2398 17.1236 26.0687
38.1165 18.1212 25.9782
35.4576 17.7411 25.8846
28.1591 17.2514 25.5641
38.2211 17.0206 25.1537
36.9675 17.6784 26.9676
35.2995 17.1765 26.1439
35.6649 17.9225 29.2616
39.6729 19.2874 27.9507
35.6562 17.2417 27.3278
36.9615 17.4245 26.1299
34.3403 17.8998 28.2775
35.5138 18.9974 29.0834
33.4671 16.6165 25.0628
31.8807 15.7006 25.1651
35.8243 20.2886 31.186
28.2263 16.0882 25.5087
34.3942 16.2617 24.419
36.5667 18.2787 27.5348
33.2206 17.2713 28.1493
32.6353 18.9855 29.7408
31.7309 18.6534 29.5039
32.2017 15.8399 24.8496
35.2617 17.8965 28.1543
36.566 15.9751 27.6621
31.8377 18.1452 28.6365
34.4724 17.6626 27.3034
31.0132 15.7091 26.3784
34.5191 16.6508 28.4161
32.0341 17.333 27.9005
35.4228 18.7249 29.1226
36.3057 17.8114 29.5688
34.7725 19.271 31.3236
34.8024 19.1832 30.3507
37.0581 18.668 30.0778
36.3466 17.6876 28.2624
35.755 18.7739 31.5948
32.3062 18.4128 29.7954
33.2268 16.4521 28.4046
34.0886 17.4699 28.7705
37.5344 19.4386 32.252
34.1423 15.9908 25.8879
34.4403 16.5072 26.6231
32.1586 15.9512 28.4005
35.1796 17.0513 27.5857
33.8914 16.2281 29.5652
27.9591 15.9257 27.7915
36.7104 16.8508 28.2628
34.2369 16.6926 27.2995
33.0732 14.9533 27.4491
29.6866 16.6949 29.0746
34.5217 17.0782 26.445
29.182 16.7663 30.2253
35.0451 17.9076 28.7367
28.4604 15.481 26.894
31.0627 17.0419 29.5312
31.9844 17.6833 31.4692
31.6007 17.8606 30.6881
32.4683 16.5794 29.1688
29.1067 17.0244 28.9113
34.2841 17.0249 31.4775
30.8684 15.5994 25.9013
26.8009 17.729 30.2648
29.617 17.9467 33.3523
36.1197 17.6885 29.6865
30.0174 17.3061 31.2196
27.2474 17.7588 32.4586
34.1421 17.4165 32.8232
33.5156 17.5754 33.6627
31.5431 21.7022 34.4956
29.4236 18.9094 33.5864
32.4439 16.7818 32.0336
26.1943 17.6684 31.6352
32.0216 16.0098 28.9401
33.9694 17.0258 31.3978
29.7019 17.4805 29.5541
28.484 16.2066 31.206
32.3153 18.9291 32.7369
30.749 18.0438 31.1411
27.1274 15.9979 29.6968
30.1101 17.3004 31.5184
31.4278 18.3058 33.3917
30.2296 16.6649 34.5559
30.4144 16.503 28.4616
36.4908 15.8575 29.4314
33.9935 17.553 33.0946
29.7822 17.4733 32.7325
33.8467 16.9313 31.1082
29.9065 16.8067 31.204
30.312 15.5341 29.7466
29.869 17.7129 31.7113
28.1504 17.2222 32.335
27.2765 17.1329 31.4103
26.1774 15.8443 30.3527
26.6067 16.0132 30.1277
30.225 15.8548 29.2901
31.676 16.9892 33.4111
25.2281 17.1803 32.214
29.5126 14.1827 28.5063
27.9615 17.7101 34.5581
29.3325 16.2952 30.9449
26.9355 16.1083 29.5049
30.2893 15.8051 31.7399
29.1479 16.4733 32.5368
28.5841 18.949 37.1738
25.9693 16.8233 33.2162
30.95 16.6623 32.3262
24.6502 15.3628 29.4093
27.7728 17.8328 33.5018
27.0468 16.5975 33.9176
22.9809 16.7889 31.9081
26.079 16.3255 32.7268
28.1113 16.6042 31.454
30.0174 15.0029 29.2787
29.0746 15.4853 30.8915
21.8102 15.1387 30.8047
31.7944 16.5905 32.3996
26.6043 16.1593 32.294
28.0104 16.6916 35.8902
29.6371 17.339 33.5496
25.975 16.1527 32.5595
27.5803 16.8797 32.0854
26.2841 16.4054 32.8062
26.7117 16.0725 31.7855
26.4925 15.9366 34.9034
27.9777 17.3845 34.4201
30.5018 18.105 36.3641
27.7278 14.9515 30.2693
27.201 17.0571 32.5291
25.5469 15.0999 30.0283
29.9499 15.8609 33.5273
28.1471 15.5998 33.1668
27.553 16.8941 33.4239
25.5582 16.2991 36.0355
24.3273 14.5601 30.26
26.7729 14.8923 32.4945
24.4887 16.0332 32.8458
29.945 16.4943 33.3737
28.243 15.7596 32.8597
24.6747 15.7683 31.7763
26.2968 17.3722 36.4839
31.7702 15.4497 32.3714
25.0276 14.785 30.7232
25.9292 19.0336 39.1298
24.2276 16.2065 35.7907
23.0941 16.8977 34.7963
24.2592 16.5295 35.4842
23.7804 15.0104 32.1757
24.263 16.4185 33.9619
20.9251 16.5958 36.5091
24.6374 15.5232 30.3726
24.652 14.8613 32.9558
24.1471 13.9475 29.4877
26.5537 15.943 34.6105
26.4289 16.9787 36.6636
22.1392 16.8876 35.8715
23.6908 16.7277 34.5101
24.1366 14.991 33.1773
26.7196 17.0713 38.2844
21.5302 14.9519 34.5639
24.0173 15.34 32.334
26.0102 14.5003 30.6948
24.4925 15.7001 34.8117
24.5206 15.1017 32.7029
27.2504 16.2393 37.3835
24.2211 19.9221 40.8234
26.1495 15.4871 35.0207
24.4528 15.0871 34.3804
24.1981 14.5789 33.5253
24.5318 16.3113 34.0899
29.2785 15.7785 35.0248
25.6483 14.6893 32.8835
24.5939 14.5783 32.8101
24.5056 17.7877 39.7448
23.6361 17.9093 40.0146
24.1235 16.4799 34.3495
28.6131 16.2389 41.8436
23.7833 17.7316 40.8374
24.6149 14.5686 31.8419
30.5153 15.4914 33.8372
29.3216 14.8891 33.185
24.5537 16.006 34.378
27.4292 14.3576 34.6011
25.4036 15.2102 33.4624
29.7203 13.7296 34.5363
21.7922 15.2233 34.6403
23.9381 18.1527 39.5692
24.8546 14.9942 34.4987
24.0507 15.4492 35.3374
22.9174 13.4332 31.0144
24.6415 13.915 29.1132
21.2208 14.961 36.1613
22.6812 15.2702 36.1414
21.9074 13.3233 34.8622
22.3536 14.9784 35.1004
22.1502 13.0049 29.2722
22.9813 13.5789 31.7537
20.4447 14.5341 32.1286
22.9895 15.3347 37.8928
25.6242 15.8961 36.7802
20.5906 13.9353 32.4701
22.7309 13.4982 31.6967
25.0085 15.4798 35.2997
22.1029 16.3295 39.7534
18.8722 14.4823 36.1412
21.2024 15.3977 38.0013
28.4007 14.1696 32.8381
21.1533 15.3597 34.4556
23.2943 14.5087 36.9956
22.9919 16.3857 41.0718
26.7199 15.4546 36.7042
22.0537 17.787 41.4885
22.1759 16.0266 37.6077
24.9995 16.1148 36.8129
23.2317 14.6022 36.0603
22.1328 15.951 39.1969
24.6262 16.2642 39.6063
22.5094 17.0291 39.4867
22 15.0757 36.6601
25.7714 14.0835 35.0768
23.3505 14.595 33.7525
20.4548 14.4779 36.7739
24.7028 15.2623 36.9723
22.8611 14.7231 39.9557
26.5831 14.6913 34.4752
22.6906 15.225 37.2378
20.4217 16.3356 39.0859
20.9267 14.4803 36.8999
