# pn-170911/RbIIR-52-TWTF-1280-1959.psd
# Power spectrum* (dif=0,1,2) (really just |FT|^2)
# NOTE: only the first half! (symmetric)
# weeks: 1280-1959
# 6 clock-days, 0 excluded
# PSD: 1441
1272.58 0.0202542 0.0209109
32216.4 0.548105 0.0223919
102012 1.53179 0.0227462
13749.5 0.53634 0.0223023
31662.4 2.21374 0.0232787
5477.64 0.649525 0.0229012
4505.01 0.506086 0.0222173
2954.03 0.560735 0.0207905
8637.56 2.10558 0.025348
2073.79 0.698044 0.0223773
1210.36 0.674054 0.0232653
2009.76 0.662156 0.0220319
739.332 0.840664 0.0212201
917.522 0.485299 0.0233067
556.971 0.576274 0.0246967
758.981 0.677602 0.0184752
875.071 1.34619 0.0243804
306.978 0.482823 0.0259176
494.08 0.761863 0.0239833
358.708 0.471362 0.02583
413.527 0.83756 0.0221135
309.51 0.25735 0.0208176
219.915 0.413162 0.0263894
308.635 0.805853 0.0217732
204.11 0.563665 0.027833
353.072 0.924466 0.0207599
172.855 0.527052 0.0206603
263.422 0.9728 0.0283708
468.338 1.24628 0.0242982
387.747 1.37811 0.0380056
478.47 1.50528 0.0359326
403.462 1.88482 0.029967
189.764 0.896581 0.0308879
295.367 1.9475 0.0264358
156.968 1.19297 0.0288393
204.995 0.970703 0.0220842
336.619 1.4875 0.0302567
184.108 1.17945 0.0286334
273.952 1.29765 0.0268428
202.468 1.65977 0.0445033
181.942 1.18832 0.0228746
254.959 1.97245 0.0386359
341.702 2.54533 0.037584
251.649 1.66126 0.0346586
289.717 2.54903 0.0459899
197.784 1.47495 0.026673
276.216 3.10948 0.0321395
236.856 2.61904 0.0405913
192.399 2.20286 0.0419735
120.971 1.62192 0.0570328
157.24 1.66755 0.0350051
96.5237 1.38755 0.0630339
138.675 1.44979 0.0202705
230.606 3.02704 0.0972682
265.981 2.77834 0.0830972
121.676 1.75537 0.0621439
350.19 4.19387 0.085942
69.8243 1.14627 0.037318
229.512 2.96753 0.050957
94.024 1.54665 0.041543
155.694 2.34941 0.0822097
215.171 3.26556 0.044716
171.3 2.63628 0.0968226
142.276 2.4733 0.0956726
144.044 2.61618 0.088314
121.459 2.62752 0.092042
240.397 3.95426 0.0888426
153.27 3.89275 0.0985654
115.044 3.13813 0.109577
104.462 1.68239 0.0660583
65.5958 1.90241 0.103802
147.412 3.98315 0.127224
92.3735 2.43188 0.0594526
185.611 5.08752 0.16795
167.466 3.93718 0.148573
127.437 3.91404 0.11848
193.634 5.86095 0.207836
206.951 5.1754 0.201388
90.9715 2.29738 0.116454
156.102 5.49432 0.253301
441.172 10.7171 0.352373
172.807 4.60484 0.137158
173.168 5.87402 0.225202
96.6325 2.72396 0.140062
163.008 4.13411 0.163491
272.38 8.663 0.307997
120.984 3.64579 0.141443
53.0809 1.60031 0.0475212
110.197 4.45551 0.17604
84.8965 2.75465 0.0893752
80.9648 2.63245 0.103761
136.37 4.48938 0.176441
83.171 2.81971 0.0999924
115.885 4.58616 0.140937
153.736 6.46505 0.362773
155.75 6.30225 0.267466
176.199 8.53048 0.3792
121.627 5.14103 0.27059
131.005 5.87724 0.402274
99.926 5.58119 0.336564
55.6654 2.76717 0.204504
62.7536 3.3665 0.192006
248.889 10.1421 0.430854
88.1882 4.39524 0.281771
110.274 5.04055 0.193064
178.471 8.89282 0.599665
97.218 5.07156 0.410314
122.775 5.90084 0.362712
122.005 5.67597 0.310649
78.2249 4.40649 0.311861
137.611 7.06435 0.373712
152.916 10.2996 0.585698
235.926 14.9662 0.84631
244.295 12.1028 0.658872
91.4172 5.8513 0.468128
140.234 8.52405 0.526346
119.944 7.51509 0.479931
45.451 2.7654 0.221203
220.461 14.4005 0.91059
134.194 8.33674 0.545249
61.4509 4.72367 0.348458
96.0071 5.85468 0.40264
191.449 13.3756 0.817342
158.729 11.3095 0.976338
135.737 10.0248 0.716486
55.4121 3.04186 0.250897
57.202 3.91582 0.268842
68.9706 4.94068 0.527967
103.693 8.14952 0.764013
164.315 12.7133 0.893138
138.579 12.0128 1.1083
50.7898 3.98917 0.340046
106.11 10.3398 0.879917
79.658 6.34209 0.576488
111.532 9.67801 0.904963
100.987 6.98843 0.47407
147.77 11.9715 1.03111
252.621 23.5187 2.08352
81.8883 8.61787 0.963023
75.1714 6.79707 0.537595
91.0529 7.61742 0.823493
62.5054 5.34147 0.393418
138.002 14.2828 1.16617
109.285 9.43415 0.933359
228.134 22.4322 2.37969
158.064 14.6276 1.38233
113.082 12.168 1.31084
57.0342 5.59076 0.660215
109.896 10.4467 0.98793
76.9677 8.46501 0.99976
93.8471 9.60177 0.967176
182.149 19.7718 2.20224
112.353 11.4526 1.17336
91.2206 11.0053 1.35334
23.7347 3.04074 0.448717
141.793 15.4105 1.67248
134.965 16.7473 2.14823
74.4272 10.2313 1.43186
157.539 17.6259 1.9824
163.977 19.1465 2.11427
74.8345 10.4702 1.42182
104.226 11.249 1.37684
101.423 11.4968 1.39716
116.872 13.4288 1.51657
36.4954 3.71799 0.379069
71.7126 8.4669 1.18605
87.607 10.7528 1.37208
108.887 14.5768 2.10246
174.255 23.0678 3.12001
116.64 15.3755 2.0785
39.7371 5.01685 0.611461
87.6088 12.3216 1.73563
120.196 16.8616 2.28379
110.548 17.2089 2.55033
110.155 13.561 1.77923
92.791 14.0226 2.13534
29.5414 4.94199 0.674266
60.8236 9.04119 1.2462
99.2379 14.4033 2.1506
77.0488 11.1314 1.57901
114.903 17.894 2.82217
71.4114 12.4326 2.18391
56.8283 9.14312 1.44426
164.063 28.2768 4.52441
63.1433 11.3992 2.31828
62.5471 9.1663 1.54668
118.965 16.3564 2.33843
59.1808 7.52682 1.30768
78.2318 11.2728 1.56238
80.3738 14.2291 2.41688
134.842 20.3637 3.31976
35.613 5.56148 0.785016
184.694 31.02 5.16327
100.541 18.4791 3.40017
40.1025 6.94785 1.267
76.9466 13.4468 2.24945
67.2911 13.4888 2.57565
94.2946 15.5309 2.63867
83.303 15.3471 2.87631
81.6907 14.688 2.60552
33.7534 6.58855 1.30743
68.695 12.4345 2.61316
94.4439 17.6019 3.26443
76.5832 14.7391 3.0314
82.868 15.6392 3.24701
111.025 22.4698 4.33998
72.0155 17.4605 3.91763
56.3524 12.4681 3.02233
52.2951 9.32358 1.52124
120.196 26.3716 5.35377
74.3112 12.2325 2.29744
95.9231 20.6848 4.16396
90.7014 16.6947 3.1462
70.5201 15.3983 3.26747
56.0665 12.8068 3.27523
69.822 13.4188 2.33134
71.1304 14.0991 3.02131
83.2802 17.7291 4.2677
62.9593 12.9746 2.54793
98.7698 21.7666 4.89239
43.5653 9.30304 2.2468
51.5487 10.7434 2.69726
148.062 31.7058 6.32961
60.197 15.784 3.83531
88.4131 22.3112 5.33153
42.0033 11.4927 3.21482
93.4816 17.9571 3.60087
84.9368 19.3573 5.11059
104.426 23.8034 5.54594
22.5356 6.04067 1.73786
75.5895 17.2479 4.00869
64.7282 19.3469 5.51019
78.3222 22.8175 6.41322
52.0789 14.9063 4.08062
88.7778 23.1239 5.78225
78.8233 16.9501 3.75374
71.0885 22.3363 6.42676
85.3507 21.7933 6.01667
43.6037 10.4421 2.68851
98.7552 25.5965 7.04031
47.5015 10.55 2.7475
73.5117 17.7824 5.08386
29.5778 10.1411 3.42342
78.8738 18.419 4.71949
119.783 28.6892 6.43112
72.1856 20.4241 5.79995
31.3349 9.12644 2.91516
81.8724 24.7489 7.33777
103.267 28.7431 8.06609
77.2541 21.5059 5.59284
46.1674 13.5099 3.89914
54.188 16.0363 4.64278
58.614 16.8666 5.08699
83.051 24.9941 8.14093
52.5837 13.8188 3.95097
80.4132 25.0434 7.43343
47.6057 14.4142 4.00624
46.1507 13.7287 4.35759
33.6622 11.1274 3.93786
96.4144 30.6487 10.5147
50.9811 12.5921 2.94423
67.9709 23.9187 8.38125
58.1024 14.8064 4.19225
58.3859 19.1038 6.57318
87.8463 24.4253 6.79725
50.0202 17.9301 7.16108
48.4172 16.277 6.07375
56.7501 15.5879 4.34774
36.4345 12.1013 3.98701
45.3548 14.5784 4.71127
63.9457 25.4196 9.80064
54.996 17.2052 4.93643
55.771 18.7698 6.15358
34.1133 12.5591 4.32153
18.5895 4.93152 2.30971
49.1309 13.1662 3.40561
61.8903 22.6928 7.1881
67.1031 24.2338 8.13531
63.0338 28.5689 11.5729
87.7052 35.1342 13.7113
76.6774 24.3972 8.08338
71.0099 23.6837 8.64021
40.1559 16.2023 6.0786
44.3696 15.6128 6.50265
57.999 18.2542 5.02872
58.9538 24.3676 9.37108
46.5554 16.9916 6.45395
99.0784 36.452 13.4358
67.8717 23.8784 8.74837
34.1688 16.3446 7.9577
43.0074 17.8278 8.67278
90.2073 29.4132 9.09233
58.6556 20.8891 6.50039
32.7342 13.5667 5.35695
44.1577 18.7321 7.78966
38.9139 13.9817 5.25615
24.8601 12.8512 5.96394
40.3457 17.8786 7.77357
34.8696 13.6541 6.57131
77.9 32.5609 13.6463
54.1385 20.8722 7.71744
11.8095 6.10305 3.94506
93.7687 34.3428 11.4138
30.8413 13.6879 5.47034
44.9773 19.7796 7.62646
61.8815 30.7563 13.8307
37.0587 15.682 7.26592
53.6537 24.3485 10.8738
37.1334 12.6744 4.34742
39.4814 20.4015 9.7729
33.8449 12.7981 4.74616
53.6676 26.9298 13.2535
71.7647 31.1442 13.1294
60.0682 27.0013 12.3479
46.4851 22.0021 9.43014
49.2435 21.0353 9.37966
51.2011 24.5803 11.5547
60.2947 27.9389 13.7827
34.0626 13.9807 6.28572
24.3652 9.08672 3.57326
29.4116 14.9379 7.49713
72.4257 32.4413 14.9895
19.9164 6.733 3.31371
46.3198 20.8272 9.67413
54.8498 26.8013 13.3618
42.4164 16.1925 6.976
62.7185 30.3347 14.0299
34.5886 16.8603 8.55543
39.2431 19.9203 10.1592
53.1143 25.1891 11.7899
24.534 11.7643 5.30542
21.7731 9.89825 4.83762
35.7114 16.915 7.97207
24.0882 11.3292 5.95123
59.1721 28.643 14.308
36.0912 21.0727 11.9769
31.4328 12.778 5.56349
28.2009 16.9449 9.59163
38.9997 19.1618 8.92254
38.8557 18.7775 10.045
31.1401 19.6694 12.0271
49.0335 30.1916 17.5873
41.59 17.6378 8.66922
43.2745 23.0317 12.5903
38.0068 16.6405 7.20983
43.1452 26.3083 14.7551
23.2241 14.8626 9.00302
40.2078 21.912 12.3116
23.2547 10.0043 5.82087
55.6375 31.6361 15.9723
50.6879 26.1591 13.7626
21.0589 11.083 6.30005
41.7965 20.7484 10.4258
64.9539 39.7443 23.4348
33.4064 20.0438 12.5307
34.5174 18.1246 8.83112
41.614 30.9722 21.0095
43.1811 20.4168 11.5163
16.3583 10.7705 8.17429
39.3226 17.5077 8.3819
23.6417 12.0633 6.35561
34.5978 18.6201 10.1178
40.2919 21.5193 12.0982
14.9611 8.63972 5.53642
43.7706 29.1732 19.6407
32.4722 17.7918 9.89857
35.0251 23.691 16.1903
39.0578 21.1301 11.2848
53.363 39.7826 29.8213
62.3651 31.2369 15.9808
26.9629 17.3885 12.1585
50.2932 27.886 15.158
27.3602 18.8433 11.2788
37.2426 26.4756 19.5267
55.6792 31.6043 16.3578
30.2057 21.2523 15.6791
39.0668 25.8479 17.7308
74.9308 44.6611 26.5081
30.1211 17.748 10.8146
33.9816 22.0433 13.8271
40.5871 26.3665 17.4443
47.1269 28.8126 15.4929
23.1013 18.0381 12.7517
26.4098 14.775 7.73494
23.3264 14.972 8.35939
27.4407 19.1282 11.6689
30.4791 21.5917 14.7815
16.9607 11.5845 8.06269
27.0266 24.0139 18.3518
42.5388 24.1148 14.6916
33.0861 23.7368 19.1334
30.6681 18.7857 12.9802
34.3736 23.5105 15.438
31.7986 21.2169 11.8863
7.39909 7.87365 7.58913
20.578 11.0541 4.85749
20.1667 16.5359 10.618
23.7497 18.171 11.8951
23.6683 19.1112 12.9886
29.0221 25.2866 19.7066
35.4011 26.7938 19.5106
29.8878 23.0275 18.6179
31.9921 21.452 15.4881
19.21 18.0052 16.8682
42.387 31.5592 23.4076
48.3828 36.4611 26.6099
35.1679 19.6553 11.7845
16.1449 10.7243 7.80571
35.368 25.8385 18.2502
16.8305 9.42018 6.038
19.0215 13.6191 11.125
25.0787 17.4014 12.6615
14.7778 11.5132 9.50961
32.2854 24.3154 19.5074
40.1539 24.3841 15.4518
28.7216 28.1505 25.3316
31.6216 21.66 16.5996
27.8254 18.4365 12.0122
20.989 18.5541 14.8538
20.0369 13.2511 8.69409
28.2335 30.5294 30.7365
27.3423 16.1535 11.0849
21.859 13.9205 9.84428
22.0042 15.4352 10.606
16.937 12.2996 10.3773
24.3079 17.7561 12.5807
24.6471 19.142 14.9121
25.8831 19.3862 14.6045
24.019 18.3653 14.4161
24.915 24.1807 21.8742
41.4269 34.0245 27.2068
28.725 20.5436 16.4776
89.5872 83.6114 74.062
23.1884 19.7653 25.4427
100.653 71.8585 46.7216
39.2202 40.9238 38.2747
26.3312 22.5026 19.8841
22.2519 18.1913 17.1046
31.4401 23.5153 17.1083
13.6833 13.4559 13.745
26.2506 19.6192 12.8438
12.3753 15.564 17.3019
31.3032 28.3418 25.0339
11.8522 6.34255 7.56089
25.6401 15.4079 9.20888
22.6901 23.323 23.5854
55.7258 41.4859 28.7641
18.8864 23.7005 26.9271
20.8552 13.4964 8.61554
8.30342 8.50768 9.16897
29.2157 28.8936 27.0505
25.3729 21.6851 20.6139
20.7614 16.9612 15.5995
13.7194 9.81209 8.38374
33.8797 25.9615 18.654
45.585 44.5737 39.0249
28.437 27.8076 27.6152
21.357 15.2525 10.4737
22.9912 27.057 29.0009
29.0381 21.3768 16.5908
30.3103 33.4244 35.7003
21.3339 19.8099 20.648
30.9697 23.9132 17.9724
20.3157 16.1893 13.1422
19.069 17.2189 15.4047
22.6347 24.714 27.809
19.7154 16.7652 14.3094
15.9572 16.6423 17.2592
30.7778 32.5666 30.1871
12.1775 8.05404 7.39065
16.5611 16.7699 19.0514
39.2056 34.6407 27.1657
9.90184 10.1751 9.97025
22.9422 23.5169 21.8204
14.7484 13.0967 13.044
15.3025 12.5191 10.2531
19.4015 23.4261 28.3005
36.1428 36.7387 33.585
31.3841 29.0659 25.7651
8.91287 13.3325 19.8553
20.8505 15.9157 12.1118
7.53182 6.19149 5.16652
10.7961 13.3288 15.4058
15.9472 16.2252 17.7624
14.1103 13.8824 15.0527
28.904 24.1396 18.1989
19.4218 27.2743 32.9739
25.9866 22.6839 20.0711
16.155 21.2567 26.5158
23.776 17.9637 14.1347
12.6567 15.5467 17.2819
9.39585 7.85625 8.69641
18.8734 17.191 16.5776
16.4476 19.9513 23.219
20.0216 18.7941 20.9227
21.6225 23.4551 23.0448
24.5042 23.5335 23.0556
19.465 22.6537 24.9894
21.6827 24.7318 27.3904
21.3716 20.0382 17.335
11.2813 15.567 19.8168
19.8473 22.9414 30.1929
28.3005 23.8166 19.118
14.2553 19.55 26.5508
15.0853 14.2665 11.8055
10.3946 12.2478 13.4233
16.2592 18.4328 19.7853
8.99604 9.81833 11.5902
15.1987 19.3358 24.2635
23.8131 30.4821 36.0551
32.2349 25.398 18.5743
13.3189 18.8282 21.6068
12.1165 21.076 32.0592
20.9607 17.282 14.7895
21.4623 28.8657 32.5372
9.63563 9.30457 11.0705
22.8259 26.7522 29.799
28.6334 34.5235 40.6884
16.1925 21.8396 28.4382
17.9619 20.957 27.1235
8.71759 8.55014 14.2665
14.1748 10.3757 12.8025
39.9243 45.3095 43.9578
41.0777 52.9761 60.8205
27.5887 34.6332 43.3931
26.2136 23.9424 21.1217
12.5708 13.2693 15.5484
6.15121 6.48449 7.86655
8.46396 10.6248 12.4998
12.0561 19.4796 30.6162
19.6191 19.5427 21.041
18.3099 18.959 17.201
12.0957 19.5652 24.0535
22.5646 32.3133 42.3635
15.6583 15.2102 20.1231
12.0282 10.0329 12.44
20.5009 22.9808 24.4806
18.9035 23.6922 22.021
13.2261 26.7828 43.0281
20.1149 19.3912 21.7934
13.8044 14.4779 13.003
17.1831 31.9293 48.9406
9.93445 4.75994 8.93236
23.6968 23.0361 18.8988
12.5708 21.3313 29.5468
13.8671 13.565 16.7978
17.965 20.7137 22.8274
21.9692 26.1212 29.9898
8.18728 8.09721 8.87596
14.8114 21.073 27.5911
15.0255 21.1313 26.9357
9.58919 14.6418 21.8223
8.21511 11.8041 20.1668
15.8114 17.0305 16.669
10.5863 14.1137 15.1166
11.3011 21.2988 35.6718
25.1448 30.3769 31.1498
6.12105 8.83616 13.9112
11.0629 18.5929 31.1669
12.5113 10.1277 11.1291
25.5321 36.5348 47.8801
21.9535 34.3404 45.8283
10.2246 13.9433 27.3497
14.9413 16.342 26.3595
18.5623 17.207 16.7764
14.6733 17.8339 18.258
17.6086 27.7286 43.6916
32.2472 40.185 40.7457
9.62832 20.829 34.664
9.66851 10.3794 13.784
6.30982 6.80464 9.50469
9.37033 16.3778 25.841
15.4425 16.6954 18.6279
8.48125 10.476 12.2445
11.9078 16.0668 18.9165
9.0221 12.0482 13.5887
13.0896 23.4549 38.0939
14.2191 17.6765 22.4889
11.7297 19.9686 32.6314
24.3132 27.4034 27.3743
11.7303 22.5812 33.4834
14.7337 26.0417 45.6623
20.7466 28.0158 45.2471
19.4197 19.6201 16.31
7.07663 14.2154 25.61
11.347 11.3284 12.4203
8.51346 14.2266 24.6704
23.6002 31.6519 32.773
13.7061 26.0055 39.9316
8.51459 12.2702 21.6123
9.13159 11.5653 22.2428
18.2729 22.3826 18.6435
10.1901 21.1175 28.672
6.29346 12.8351 25.0114
25.0376 49.5304 87.5522
34.8288 39.0775 46.0771
22.0494 27.987 34.6761
13.1891 22.7956 35.8921
11.8331 16.3279 22.3957
16.0342 30.7529 47.4524
13.9232 15.7654 19.6966
17.5151 33.405 52.3714
8.08619 9.56763 27.6408
29.6903 37.6395 46.4325
19.149 28.7221 33.3202
18.1298 37.5331 57.7492
14.0565 20.1952 30.7713
11.1371 21.7923 36.2915
4.27427 11.1246 33.9306
17.7512 21.1085 34.0378
20.2985 28.2701 42.5288
17.5714 17.4102 20.2343
14.1069 23.2297 36.8794
9.62789 13.5295 24.0135
12.7821 14.8616 21.018
14.26 18.928 25.4995
11.9228 18.7685 34.279
12.2115 13.889 19.285
14.6384 19.6067 25.0985
15.8425 27.4519 47.601
21.1669 30.8124 47.0676
26.5383 34.0712 33.0156
9.48207 19.1158 35.4926
16.0587 23.6629 29.8412
14.4456 30.3461 55.2153
19.4714 34.8221 51.226
8.86844 12.8473 23.1834
7.20305 9.94524 20.7354
12.8873 24.1748 41.3151
14.9853 18.6912 25.0986
9.72091 17.8272 29.0985
10.0852 14.0526 18.0581
10.2745 22.6449 40.3792
18.8581 34.9335 63.1831
16.1878 16.6348 17.8295
18.6261 34.4528 49.5768
12.0216 22.8644 38.4562
12.4778 19.5419 23.252
4.84277 16.0164 35.6256
11.3744 17.2646 29.1991
8.61315 13.0477 26.6117
8.37062 8.55438 12.2394
8.45392 10.9297 13.0704
4.04502 6.39453 10.4804
7.82169 13.6404 20.7935
5.51346 12.7877 29.1793
16.1143 30.9118 52.2567
13.9149 23.6251 37.2311
6.52547 10.8576 21.3514
7.74232 12.2744 24.4608
9.12696 14.3862 25.3673
9.63173 14.4599 21.4788
10.9126 21.2003 35.2264
6.19747 7.00858 8.87912
7.81469 22.4054 50.5995
17.0816 27.6052 44.9678
12.352 18.0494 26.0184
6.89281 12.3471 20.6772
8.11038 15.7676 28.5873
7.83554 13.3384 26.7749
10.1247 12.8906 16.3883
7.44489 16.0727 26.563
11.3698 21.4644 36.2402
5.39971 7.64644 12.6876
5.43102 15.7514 37.2964
9.48166 17.7381 37.8522
12.9282 23.3297 55.5259
27.656 38.3729 36.7293
6.2823 19.1213 47.0666
11.2139 11.2335 13.7054
14.7479 28.8475 45.1473
4.61635 10.599 31.1387
14.8562 26.3443 38.2726
7.01474 11.641 24.8832
14.7308 32.7251 58.3507
6.95848 10.2311 23.9336
7.60929 11.426 19.3468
7.42426 13.7009 24.5109
13.2775 25.7338 43.946
10.6275 21.5954 35.6824
5.61318 10.5505 26.4375
8.49649 15.3988 38.674
16.8731 23.793 26.8053
9.05464 26.1416 51.2053
9.35336 10.5442 18.2146
5.85009 8.21418 10.547
8.62439 25.6309 54.6765
14.4328 22.5426 35.4995
13.2796 31.8437 57.8174
10.8165 23.6614 53.3515
8.47126 9.73826 31.0095
20.6869 30.1232 32.2435
6.26043 15.6087 32.6954
9.06826 14.7906 22.418
4.51911 7.59563 12.2696
4.14539 12.0589 29.9055
7.25125 12.5482 22.3545
6.45462 10.9393 20.8229
4.31772 7.9161 20.0423
9.98699 22.2877 39.0893
6.51685 8.47481 12.9056
4.27741 9.52477 20.2571
6.98095 17.4643 38.9919
8.998 11.7917 19.8211
7.61388 12.4128 15.8728
3.54643 11.8582 31.7884
9.50323 16.5429 29.9908
7.58956 11.0148 18.191
6.44838 14.46 24.364
4.84299 15.2646 41.2632
8.92271 11.1687 17.5121
6.59125 17.1904 38.3863
7.37674 18.2276 45.1806
6.32778 9.94849 36.2366
15.8485 21.0865 25.8853
8.27147 14.5234 24.1378
5.25794 12.6492 25.3841
5.40327 13.4095 35.6465
7.34259 8.98823 23.6367
15.3113 30.2985 46.1357
3.81101 5.88501 20.1439
10.0802 15.6558 27.5864
7.88823 12.8139 22.8619
8.25059 17.6416 36.3004
7.879 15.5219 32.4469
5.7474 8.09457 16.5326
11.0475 22.1588 33.9004
7.62689 18.2817 32.0394
7.71054 21.6221 46.8286
8.35065 16.9064 37.9058
6.25534 12.3762 34.1742
10.911 15.0776 23.9376
11.177 24.1834 47.6002
8.51373 17.9555 38.8102
7.62154 11.5993 18.0574
5.40895 17.3616 49.1156
11.7333 17.8365 26.0373
4.55001 8.81323 20.5416
6.61633 12.2677 20.5546
4.51593 8.92208 20.8512
7.42021 14.996 23.9473
4.2087 12.6213 34.1026
7.06382 18.9501 56.3545
13.7928 22.8257 30.3077
1.87234 4.17209 20.2014
9.92197 20.4053 27.1973
1.80379 5.94854 19.134
4.12044 6.66389 18.1471
4.80654 9.43729 23.218
7.80504 16.4468 27.2231
6.35022 19.4304 45.3359
4.48131 5.34198 16.8012
8.21256 17.0547 32.3208
6.77757 14.0452 28.8834
6.44334 14.6472 31.7756
6.42859 15.922 41.9558
11.503 23.1474 41.0201
4.22736 5.74566 16.1065
7.88009 13.7088 21.1809
7.0485 18.3316 27.9938
3.59692 11.9061 37.3923
10.968 24.2752 47.9776
6.06225 16.1995 47.3505
8.09383 8.90128 9.9646
4.2912 12.8688 34.7056
11.3159 19.5717 27.516
5.68421 19.406 43.0969
5.79886 14.7882 39.359
8.44971 19.2153 52.6453
9.87212 17.1941 34.1586
8.39954 17.2053 28.3678
3.91797 11.9955 39.1303
7.1466 12.6291 21.392
5.93537 14.6645 29.6645
4.31675 10.0904 31.2483
13.3163 31.8868 59.4138
6.33561 8.23353 10.8172
3.06453 10.7365 24.7747
3.99842 9.44624 17.9345
3.12126 12.6576 41.9665
7.18251 13.6624 37.1739
8.08394 19.7191 48.0697
7.91389 15.8053 29.2012
2.8051 3.88963 11.4741
4.13243 8.58328 13.6433
2.72796 7.57555 20.7364
5.12367 15.0856 48.0232
15.889 38.2072 75.2689
11.2263 24.9902 60.349
10.6021 25.354 47.2713
6.65456 15.527 30.7045
2.75893 10.8242 42.8605
7.56428 10.3952 26.4297
6.28839 9.6955 14.2976
4.67384 15.4237 39.6664
5.22567 10.008 31.361
13.4787 34.9232 68.6409
6.97867 13.2203 28.9995
6.98581 21.5762 56.2621
8.71698 11.7181 14.0184
3.44795 12.5242 30.3551
5.66011 15.4118 41.0083
3.29934 8.06865 40.4447
12.3137 29.6459 55.0796
9.4552 22.9799 44.1057
6.34285 19.6971 46.1641
3.99303 10.817 46.1641
10.5901 18.1211 36.5256
7.30495 18.5629 39.7637
4.73846 8.58455 29.182
8.53587 19.5095 38.534
7.11419 17.0136 39.5977
5.19865 12.5914 31.9559
6.15755 12.2796 23
3.91503 19.8183 72.9448
11.1286 16.452 34.0591
4.78835 9.73106 38.1796
11.7503 19.8112 14.4099
4.81819 23.9163 55.2555
2.23946 4.20149 28.2979
6.64028 16.8035 34.4948
3.31291 7.63526 23.3277
3.38714 9.9784 40.1313
9.41539 13.1722 17.8774
2.6495 6.65424 23.694
7.05215 16.5053 28.158
2.42281 8.48213 29.745
