# pn-170911/RbIIR-51-USN7-1280-1959.psd
# Power spectrum* (dif=0,1,2) (really just |FT|^2)
# NOTE: only the first half! (symmetric)
# weeks: 1280-1959
# 414 clock-days, 122 excluded
# PSD: 1441
189.036 0.120789 0.0426672
12435.9 0.358747 0.082266
54819.9 1.16707 0.0898958
15766.7 0.713063 0.0929206
39549.7 3.067 0.0834441
5896.04 0.705153 0.0860314
5185.36 0.870017 0.0809745
3274.8 0.755208 0.0867254
3560.52 1.07106 0.0844007
2353.97 0.87026 0.0949067
2261.68 1.06594 0.079227
1720.44 0.941232 0.0885811
1704.99 1.12508 0.0902606
1527.72 1.17308 0.0936906
1513.39 1.41237 0.0862164
1344.69 1.40102 0.0935967
1468.81 1.70169 0.0869438
1311.64 1.81336 0.0925193
1223.38 1.84352 0.0861174
1183.09 2.0275 0.0999468
1092.05 2.08999 0.0858409
1202.43 2.5885 0.0979382
1262.06 2.8427 0.0896554
1171.23 2.94295 0.0932731
1199.79 3.23373 0.094507
1167.26 3.4072 0.100801
1256.42 3.95739 0.0973149
1087.12 3.79965 0.0995989
1183.39 4.3317 0.105092
1145.97 4.54393 0.110097
1043.25 4.45485 0.0994034
1128.77 5.04184 0.108363
1110.76 5.31136 0.106641
1140.52 6.04678 0.119977
1174.55 6.29945 0.121929
1203.43 6.87901 0.139544
1098.29 6.8604 0.122997
1129.91 7.2733 0.137033
1097.9 7.41638 0.131351
1168.22 8.33713 0.149912
1242.19 9.23219 0.157571
1225.68 9.72643 0.161088
1154.94 9.69211 0.16885
1023.51 8.96029 0.166957
1108.9 10.145 0.177791
996.361 9.47049 0.18327
1104.06 10.9102 0.199895
1097.92 11.6766 0.208708
1042.83 11.3106 0.200862
1019.51 11.7556 0.226926
1072.43 12.5474 0.246405
989.149 12.1231 0.244929
1029.26 13.184 0.241965
1024.27 13.6691 0.274939
959.742 13.2634 0.265085
1015.47 14.4883 0.288359
887.043 12.9794 0.293954
952.086 14.5814 0.320669
905.548 14.3966 0.313471
912.314 15.1508 0.331833
910.014 15.4234 0.360019
823.008 14.4373 0.36222
921.82 16.6182 0.370083
878.806 16.5375 0.395078
817.107 15.8631 0.396434
752.186 14.9594 0.373695
794.914 16.3106 0.41953
824.501 17.5967 0.434842
810.891 17.6675 0.486522
852.751 18.8441 0.503636
754.987 17.5102 0.501777
728.214 17.2134 0.479421
849.027 20.7799 0.564038
748.56 18.7261 0.543496
672.446 17.3573 0.551188
702.072 18.4151 0.585865
697.444 18.8004 0.610265
659.543 18.5249 0.593051
650.981 18.6872 0.631665
600.17 17.7275 0.608727
606.066 18.111 0.655036
683.742 21.0733 0.68952
594.989 18.8313 0.698114
622.782 20.1599 0.770768
660.35 21.8354 0.791354
558.401 19.1792 0.691723
574.985 19.7751 0.770791
561.624 20.1694 0.765936
530.004 19.5217 0.809913
528.857 19.706 0.794522
503.721 19.4397 0.828091
540.33 21.1911 0.918457
497.325 19.8317 0.868304
468.895 19.2288 0.864013
537.221 22.4584 0.974811
479.793 20.9644 0.967986
470.827 20.4865 0.977513
471.208 20.7047 1.00075
468.89 21.006 0.991147
462.081 21.2679 1.06921
467.774 22.2277 1.15549
457.824 21.8753 1.12307
394.286 19.1448 0.994399
406.459 20.2377 1.0682
405.038 20.6221 1.12288
387.69 20.2387 1.10113
388.72 20.8505 1.20191
390.788 20.9189 1.21636
382.547 21.1524 1.21523
406.015 22.4469 1.32959
351.307 19.9031 1.1801
384.657 22.2832 1.35038
365.297 21.4517 1.34871
342.27 20.5475 1.26114
355.09 21.6295 1.39494
324.411 20.191 1.32034
331.468 20.9742 1.42123
326.23 20.8915 1.39785
346.264 22.753 1.58986
324.053 21.7289 1.50085
304.89 20.7497 1.4431
305.11 20.8418 1.53297
315.552 22.3833 1.61848
282.357 20.3393 1.53132
307.445 22.2735 1.67509
293.598 21.3662 1.58227
274.019 20.3898 1.58
263.984 20.0486 1.52954
261.93 20.6894 1.70376
278.001 21.5776 1.78456
224.884 17.7327 1.5295
263.167 21.3476 1.7614
276.649 21.9978 1.88294
247.704 20.0651 1.73072
244.95 20.5565 1.78747
256.516 22.1437 1.95445
219.363 18.833 1.6904
244.208 21.6572 1.97822
230.857 20.4413 1.82811
237.479 21.3202 2.00591
227.791 20.9336 1.97685
218.809 20.4757 1.93094
202.653 19.1357 1.8376
197.076 18.9749 1.83542
193.627 18.8447 1.9248
179.294 17.4446 1.74033
202.345 20.0563 2.02165
200.185 20.3019 2.06994
190.179 19.5779 2.09836
201.532 20.8737 2.22398
185.312 19.4472 2.1127
194.02 20.8841 2.2213
187.038 19.9333 2.17971
192.965 21.3591 2.35896
170.595 18.5526 2.09077
171.006 19.1345 2.11503
174.893 20.3737 2.34023
161.572 18.6218 2.22596
157.866 18.2226 2.12151
154.791 18.5764 2.2698
164.432 19.5189 2.31656
163.477 19.9213 2.45904
151.904 18.2349 2.27298
156.475 19.6277 2.48573
161.541 20.1893 2.62014
153.095 19.6736 2.52946
141.453 17.8722 2.35171
142.952 18.4762 2.47047
139.787 18.7127 2.46525
156.358 20.5401 2.79416
155.716 20.7101 2.83167
134.647 18.1658 2.5233
128.677 17.7941 2.50327
131.122 18.5801 2.67621
127.236 17.679 2.51751
135.909 19.7673 2.90897
138.563 19.4316 2.73495
134.173 19.454 2.88933
125.72 18.9111 2.89459
133.337 19.8199 2.97321
131.077 20.0594 3.05718
116.074 17.8038 2.75411
128.929 19.78 3.09515
131.643 20.4808 3.1885
116.453 18.4765 3.00607
128.206 20.41 3.291
116.561 18.8616 3.08434
116.569 18.9046 3.10924
123.278 19.944 3.33639
104.366 17.5277 2.9892
115.088 19.2808 3.24511
106.341 18.277 3.18424
117.695 20.1486 3.43862
110.443 19.293 3.42272
115.588 20.4188 3.62211
106.804 18.7184 3.35329
119.372 20.7363 3.74761
112.412 19.7971 3.51341
99.268 18.2871 3.4097
99.5993 18.3334 3.41251
104.551 19.548 3.75742
92.904 17.1034 3.12226
104.051 20.2671 3.99286
99.9481 19.1359 3.61084
98.2738 19.0939 3.7554
96.0507 18.7144 3.71798
96.9512 18.853 3.62986
94.8269 18.7548 3.74956
93.5318 18.7964 3.81245
89.8932 18.2352 3.73405
96.4547 19.7614 3.98872
96.952 20.1742 4.27953
89.1217 18.9892 3.98019
88.1312 18.1422 3.84924
87.0798 18.5795 3.9968
86.4329 18.4427 3.94686
93.3393 19.965 4.40155
86.0028 18.5855 4.01786
93.8278 20.8409 4.59948
83.954 18.7774 4.2037
85.2826 19.3279 4.35304
85.4398 19.107 4.30867
96.6134 22.0851 4.99039
80.8685 18.4979 4.28798
82.8478 19.3916 4.57355
83.6492 19.7493 4.68176
84.1123 20.1323 4.83115
81.0047 19.2182 4.68066
76.7928 18.6466 4.55435
82.0806 19.4868 4.70093
82.7543 20.6238 5.07528
86.6055 21.2733 5.18648
75.2611 18.4921 4.70359
79.5118 19.9618 4.92643
77.8663 19.4887 4.92578
80.4021 20.4319 5.29858
81.8717 20.8411 5.39618
77.9841 19.9944 5.19976
74.7725 19.3094 5.04453
72.5301 19.5536 5.26021
73.3941 18.9513 5.01616
69.7752 19.1033 5.21483
66.741 18.0688 4.87825
72.3706 19.5638 5.2621
74.6864 19.8975 5.42588
67.7827 19.2023 5.43033
67.2053 18.8786 5.37431
73.1714 19.7035 5.41004
66.1102 18.8085 5.33926
68.8108 20.1482 5.79766
67.0022 19.1412 5.55564
68.7853 20.0975 5.85912
68.6786 20.5446 6.1153
64.9023 18.8928 5.69174
72.1795 21.6796 6.4703
64.4261 19.2292 5.87629
69.542 20.5771 6.23247
61.5844 18.5179 5.72405
59.046 17.9417 5.50036
62.355 19.5303 6.02927
70.6497 22.1143 6.96754
62.4681 19.4282 6.1427
68.0147 21.9542 7.03116
67.8257 21.299 6.74607
62.4758 20.0923 6.44467
66.4785 21.5106 6.95653
66.5291 21.5743 7.08077
61.4245 19.9623 6.65582
57.9624 18.7567 6.2265
62.9387 20.6805 6.9267
62.9841 21.0573 7.2447
61.4569 20.4546 7.03718
59.3952 20.4049 7.01505
58.9897 20.1087 6.8386
52.7973 18.4514 6.55626
57.0987 19.6744 6.89356
59.7415 20.8115 7.31318
61.3924 20.658 7.25188
60.1092 20.9497 7.54516
64.2351 22.4384 8.03403
57.9662 20.7781 7.66972
56.4906 20.266 7.34504
60.384 21.8132 8.05407
54.4004 20.3151 7.71146
58.3518 21.0925 7.60638
52.6625 19.7142 7.40236
57.1091 21.6366 8.21327
56.1742 21.0462 7.99641
59.0588 22.7411 8.7126
59.2346 21.9085 8.18896
58.7002 22.5958 8.68839
57.6256 22.1534 8.64944
51.1876 20.4782 8.26274
57.1648 21.6978 8.42242
47.3626 18.5779 7.39615
51.9511 20.9909 8.39634
52.1792 20.3812 8.15135
55.558 23.0155 9.31639
49.6371 19.7322 7.98713
49.9092 20.7415 8.73105
52.3245 21.3574 8.77098
50.8564 21.0307 8.87673
47.8485 19.4822 7.97131
53.3981 22.7372 9.57283
49.748 20.8655 8.9097
52.1216 21.8824 9.30328
47.4113 20.1177 8.69703
49.7509 20.9798 8.93484
52.7648 22.3621 9.48758
51.131 22.4472 9.95463
50.0639 21.3505 9.24286
48.6139 21.4913 9.43536
46.6514 20.7263 9.20958
44.8876 20.0789 9.00222
51.3412 22.9309 10.3655
50.6583 22.9208 10.2827
47.3779 21.7528 10.0982
48.9925 21.9876 10.0803
47.0217 21.7726 10.1273
47.0718 21.6721 10.1715
49.4874 22.492 10.3224
44.0384 20.4667 9.59543
43.2876 20.826 9.99326
49.5891 23.1885 10.8623
46.5614 22.2295 10.7049
45.6302 21.9086 10.772
47.1534 22.0614 10.569
42.7217 20.408 9.93633
42.4584 20.5059 10.1293
45.1753 22.2064 11.0403
44.0243 21.5205 10.5897
43.5729 21.2656 10.647
44.511 21.8674 10.704
39.949 19.9304 10.0609
44.1166 22.8558 11.8276
40.6031 20.4287 10.5753
41.2799 21.1745 10.8778
41.0008 20.9715 10.7383
44.2345 22.8777 11.932
40.3734 20.7902 10.8977
40.8162 21.4128 11.2152
40.1647 20.9733 11.027
43.4625 23.2811 12.4588
40.809 21.0237 10.7825
39.2245 22.0982 12.398
39.8648 21.194 11.6045
42.5848 22.595 12.3284
39.1978 21.5611 11.9397
40.4038 21.7729 11.8383
40.4559 22.4118 12.5086
40.5174 22.1795 12.2815
39.3896 21.384 11.7406
41.3129 22.2406 12.012
38.738 22.4232 12.8497
41.5484 23.3508 13.1608
39.5334 22.5581 12.8946
39.6824 22.3584 12.8894
37.8662 21.5819 12.5483
40.412 23.5043 13.9206
41.127 23.1739 13.2771
38.351 23.1863 13.8407
36.135 20.5303 12.0973
40.3674 23.5771 13.6838
38.0014 22.1053 13.1469
37.9981 22.6938 13.4258
39.1618 23.6167 14.2428
39.2426 23.1365 13.9953
36.9061 22.5734 13.86
35.162 20.6577 12.3673
34.6867 21.1576 13.0021
32.4616 19.7448 12.1035
35.8581 22.2613 13.8535
35.7677 22.5826 14.1588
34.867 21.2623 13.3975
35.4146 21.6142 13.3921
36.7754 23.6762 15.4299
36.7465 22.9344 14.3867
35.3484 22.1141 14.1445
32.6165 20.7886 13.4336
35.8497 23.1412 14.754
32.7755 21.1658 13.8977
35.3866 23.1286 14.9274
37.8154 24.3767 15.8457
33.6862 21.3777 13.9795
36.6363 24.6488 16.2945
33.7562 21.7567 14.472
33.6246 22.7464 15.6389
32.3926 20.9871 14.194
36.5906 23.9328 15.9442
36.5752 24.6907 16.7123
33.9886 23.101 15.9049
34.7844 23.1353 15.7926
36.2604 24.5261 16.6875
34.7143 23.5912 16.2313
33.9851 23.337 16.2493
33.5247 23.0632 16.0397
33.1227 23.4289 16.7638
34.9717 23.6115 16.1107
31.4623 22.0939 15.8752
31.2322 22.225 16.0999
31.5765 22.216 15.5822
31.4226 22.7413 16.7228
32.8735 23.1458 16.6067
32.3585 23.6917 17.2432
32.5158 23.1348 16.5646
29.9781 21.488 15.662
31.2623 22.05 15.7954
32.2493 23.9607 18.1459
31.5189 22.9058 17.0987
33.3911 24.1274 17.8295
32.152 24.6015 18.3565
31.7415 23.631 17.5288
30.8722 23.2228 17.906
29.7211 21.7261 16.4149
30.5833 22.6062 16.9409
30.373 22.8216 16.8229
29.8614 23.8563 19.0459
33.5107 25.2892 19.4039
31.4554 24.4706 19.0361
31.7311 23.9924 18.5371
32.2567 24.6515 18.848
31.807 25.2048 19.7581
30.6915 23.3026 18.4467
28.7229 21.9991 17.4702
30.1487 23.7628 18.8738
30.6139 24.1154 19.2225
31.0309 24.4279 19.2076
27.5515 21.8318 17.4198
28.2445 23.5167 19.5636
29.3835 23.7388 19.4981
28.7741 23.1637 19.2602
28.927 22.431 18.1659
28.2259 23.2404 19.3461
27.8973 21.8059 17.3417
28.9302 24.6026 20.6357
29.1559 24.0798 20.2045
28.0609 23.3518 20.1568
30.7967 25.0226 20.7613
30.2302 24.7725 19.9218
25.2763 21.4545 18.3801
27.4201 23.3731 20.2153
27.8849 22.9457 18.9588
25.4392 22.1067 19.947
28.7984 24.1247 20.5085
26.0155 21.8944 19.1272
27.0853 23.2865 20.0903
26.0278 23.3456 21.1288
25.6219 22.0385 19.7683
27.7456 23.7472 20.6924
26.3579 22.9078 19.7467
25.2161 22.9602 20.809
25.0192 21.4552 18.9068
25.1764 23.3402 21.5763
25.0169 21.5365 19.3769
26.1805 23.1794 20.414
25.4504 22.6081 20.1943
26.2206 24.3987 22.2349
25.2339 22.6 20.7005
26.3672 24.5683 22.9551
26.057 22.4377 19.861
25.4581 24.6311 23.7195
24.5258 21.9432 20.5885
26.083 24.3288 22.3866
23.4691 21.2004 19.9845
26.1028 23.6566 21.6477
25.1967 23.4853 21.9339
22.9865 21.8444 20.916
24.01 22.3324 21.3118
25.8895 24.6328 23.1474
24.218 23.3086 22.8738
24.9626 22.8129 21.641
24.6231 24.1955 24.2045
25.718 23.7334 22.3044
22.5434 22.2647 21.9535
23.0389 22.815 22.7794
24.3741 23.5542 22.7306
25.3054 24.6027 23.8814
24.0066 22.8241 22.5656
25.9821 24.9163 24.0303
23.9179 23.9203 23.6606
23.8627 24.0934 24.8
26.0364 25.5378 25.6161
24.4636 23.864 24.1565
22.8873 22.1252 21.9498
23.0941 23.4976 23.9747
23.5371 23.5845 23.6867
22.3943 22.7864 23.2455
21.1125 21.3503 21.971
21.7764 22.7733 24.2364
23.3114 23.6359 24.8128
24.1014 23.3389 23.1249
23.0328 23.7141 23.9942
21.1723 21.9932 23.1169
21.672 22.4453 23.2429
20.7117 22.0801 24.3768
24.6138 25.3201 26.0097
20.1715 21.3274 23.2566
21.8184 22.4995 24.0024
22.8662 23.6325 24.9017
22.0892 23.2541 23.9697
20.3582 21.5178 23.7662
21.4259 23.6515 26.096
20.9705 22.2226 24.2736
22.7656 23.7523 25.0385
20.5676 22.6367 25.4739
22.4428 24.1918 26.6303
22.9317 24.5142 26.1622
19.9216 21.493 23.5367
21.1094 23.5902 26.3562
20.3652 21.861 24.1353
20.5691 22.2673 24.7648
20.833 23.1518 25.8813
20.0049 22.1001 24.8295
19.091 21.2737 24.5578
21.4705 23.6748 26.4272
19.9047 21.4433 23.7625
18.7983 21.4125 24.6554
21.3645 23.9889 27.1232
19.7495 22.7631 26.4842
20.9225 23.5805 26.8316
20.2441 22.9207 25.9251
19.9058 22.8807 25.896
19.123 22.658 27.2443
18.9295 21.2368 24.8541
20.5534 23.2117 26.0236
18.4635 21.9724 26.0662
17.6828 20.66 25.0521
19.6846 22.7811 26.251
17.6339 20.5863 24.8189
18.5298 22.0529 27.0067
17.5234 20.3507 24.4643
15.9923 19.2217 24.0606
19.4933 23.2364 28.0092
19.3308 21.8514 24.7613
19.3125 23.8722 28.7815
17.7466 20.5006 25.0377
17.9411 20.9737 25.7763
19.7148 23.6543 27.7773
17.0065 21.4067 27.9359
18.8869 21.1777 24.992
19.2844 23.8196 29.4985
18.271 21.8318 27.2903
18.2131 21.6162 26.1523
17.4247 21.4411 26.3068
16.6903 21.0902 26.792
17.5209 21.4068 26.6886
16.853 20.3938 25.6307
16.68 21.032 26.868
16.736 21.2489 26.9465
17.2439 21.8194 28.2494
17.4284 21.3241 26.5366
16.6269 20.9529 26.6313
15.8975 20.6617 27.3991
17.1881 21.5971 27.475
17.9897 23.474 30.0055
16.8948 21.7877 29.4081
17.8706 22.3576 29.1131
17.3229 21.8994 28.3106
16.404 21.1566 27.9849
16.818 21.4485 27.9298
16.8514 20.779 26.9008
16.2066 21.1248 28.0391
16.3213 20.5223 27.1895
19.185 24.2311 29.7761
15.6414 21.4204 29.417
16.3363 21.6169 29.1906
16.1056 21.6324 29.0075
15.108 19.7313 27.0467
15.1504 19.4862 27.1051
16.9517 22.3888 30.374
15.7572 20.2459 26.4678
14.6471 19.6277 26.8042
15.8737 22.8623 32.7116
17.5575 22.0554 29.5399
16.9931 22.3172 29.657
16.9729 23.0446 31.8065
16.5125 21.6534 29.1445
15.4817 21.1237 29.5544
15.5952 21.6408 30.9227
15.5554 20.6742 28.1666
14.7668 19.782 26.9395
15.711 21.6496 29.7281
15.0536 21.7341 31.8368
15.7159 21.4023 30.3779
15.9035 21.8362 30.2373
15.4852 21.8068 30.4362
14.8574 20.4679 28.4099
13.3495 19.5015 29.7175
14.949 20.1312 28.0738
14.6325 20.5882 29.9576
14.5378 20.1017 28.9345
14.2831 19.9605 29.0649
14.9207 21.6857 32.4275
15.4908 21.4845 30.666
15.7967 21.6448 30.5339
15.0969 22.3583 32.7786
16.2166 23.0398 33.0511
14.1809 19.6623 28.422
15.0412 22.0135 31.5769
13.3577 20.3642 31.648
14.428 19.7875 28.0553
14.1932 21.4777 31.9149
12.9915 19.7735 31.0261
14.8868 20.5081 29.4779
13.3656 19.4646 29.1774
14.4259 21.8708 32.9034
13.9891 20.3109 30.3984
13.5964 20.6272 32.355
14.6189 20.8104 31.4448
14.5467 20.24 28.7569
13.679 21.118 32.336
14.5794 22.0947 32.7109
12.8045 19.2992 29.8897
12.8705 19.3569 30.4794
14.0376 21.7494 33.0664
13.7394 21.0418 32.4967
13.399 20.2188 31.5294
13.8491 22.0014 33.9542
13.939 21.0237 32.2764
13.9444 22.0368 34.9188
12.4489 19.0313 30.779
12.2565 18.3505 29.5971
12.9616 19.66 30.2171
11.8758 18.1709 28.7671
13.0768 21.1694 33.1009
13.4528 20.4833 31.8276
12.6591 19.8755 31.5339
11.4514 17.8207 28.7616
12.0051 19.1611 31.8372
13.385 20.387 31.597
11.9539 19.3848 31.395
12.1214 19.2659 30.8185
11.5653 19.0585 32.525
13.0936 20.1115 31.7689
12.486 20.4405 33.2829
12.4667 20.0011 33.7798
13.1224 20.8502 34.155
13.3678 21.3367 34.7086
12.4385 19.787 32.3328
12.988 21.1605 33.8512
11.8178 18.9337 31.4286
11.7836 18.8109 31.2926
11.3246 18.5025 31.0246
13.5827 22.7485 37.1093
12.7906 20.7549 34.7133
12.1986 19.4996 33.1276
12.3815 20.9026 35.6959
12.2166 19.8686 32.9945
11.2322 17.7171 30.8864
11.9625 19.5167 32.8679
12.3972 20.1698 33.336
11.456 19.2176 32.9141
11.6295 19.7708 34.1276
11.8993 19.9846 34.2836
11.4836 18.7424 31.9919
11.1701 18.6126 32.4338
12.4277 20.5824 34.4314
11.4052 19.2764 31.8492
10.9391 20.4867 37.2395
12.2264 19.6331 33.6
11.0631 18.2688 31.8348
11.895 20.4937 35.5605
12.5101 21.0414 35.0691
11.3045 19.5976 35.1936
11.7924 19.3245 32.8226
10.5247 17.4622 30.6582
10.9015 19.7118 35.2772
11.8239 20.8375 36.9618
10.2529 16.8522 30.8934
10.9321 19.3901 36.1154
12.1151 20.0333 35.2944
11.1868 18.3374 31.6736
11.1558 20.1485 35.9324
10.821 18.717 32.5028
10.1074 18.0798 33.14
10.8958 19.4142 34.9578
10.5818 18.5282 32.6812
10.1226 17.9256 32.6049
9.73882 17.1373 32.3819
10.904 18.8489 33.3492
10.4986 18.864 34.2879
11.0937 20.9267 38.479
11.8362 20.8169 37.0501
10.6025 19.7029 38.0724
11.7407 20.9629 37.7977
10.2497 18.3319 35.2568
10.9957 19.1847 35.1137
11.0716 20.5559 38.2881
10.895 18.9539 33.982
10.7328 19.7385 37.0813
10.7233 19.8928 38.0176
10.7186 18.2863 32.3388
9.716 18.7231 36.3577
10.4917 19.0945 35.5691
9.65722 17.2572 33.2701
10.5199 18.9775 35.18
10.0865 19.077 36.293
10.1329 18.854 36.2799
10.3996 18.9357 36.3826
11.1195 20.902 40.4106
10.7059 18.3478 33.3814
10.2649 19.671 36.7182
9.75355 18.8399 37.9282
11.074 20.1122 36.1844
9.56906 18.6369 36.6773
10.0503 18.2547 34.813
9.4011 17.8802 36.3687
10.3158 19.4233 38.328
10.0098 18.3431 35.7294
9.95934 18.5069 35.2627
9.36387 17.387 34.0877
10.3678 19.7929 36.7036
9.08711 17.0638 33.7445
9.13863 17.8953 36.435
10.1447 19.1256 37.45
9.83038 18.6837 37.0893
10.2314 18.8707 35.488
9.26725 18.1953 36.8253
9.54338 17.9786 35.9126
10.5715 20.6818 39.6764
9.26359 17.3106 35.573
9.72869 18.5045 35.6362
9.89614 20.0117 37.8049
9.09107 19.1852 38.6999
9.02629 17.7062 37.0808
8.78789 16.607 33.9982
9.11874 18.2911 37.231
9.62167 19.2632 38.5989
9.56744 19.2898 38.6717
9.42388 19.5355 42.0772
10.0957 18.976 37.3129
8.79368 17.4139 37.8579
9.48078 18.7005 38.8474
9.314 17.7408 36.6251
9.34555 17.8852 35.2501
9.00172 18.0284 36.4944
8.61274 17.4111 35.8298
8.6154 16.9853 34.1894
8.48978 17.4544 38.1725
9.12035 17.9859 36.4987
8.73052 17.9356 37.4112
9.07551 17.9426 35.1227
8.18361 17.7902 39.0232
8.7996 17.6925 37.646
8.80287 18.0607 38.1115
8.53834 17.0389 35.557
9.06209 19.1655 38.9055
8.67498 18.0149 38.2307
8.41982 17.458 37.2756
8.50851 16.781 34.4595
8.18547 17.549 38.1886
8.75411 17.8842 38.2227
9.03811 18.9677 40.0311
8.71531 18.4574 39.125
8.68374 18.2028 38.7569
8.2137 17.4596 39.6908
9.1811 18.5281 37.4267
7.62526 15.8726 35.3857
8.02913 17.3655 39.4444
8.35888 16.9247 37.6809
9.17606 18.9975 40.2392
8.4337 17.9054 39.12
8.00175 15.8358 35.3063
8.61945 19.5135 42.9558
8.53511 17.5602 39.7037
8.61802 17.8948 38.7575
8.3597 18.0366 40.3065
8.25266 16.6143 37.6005
9.14775 19.4185 41.668
8.32361 17.6947 38.4084
7.79177 16.3188 35.7892
8.16173 17.3417 37.2867
7.36976 16.3711 38.0895
8.1905 17.1063 37.6471
7.93739 16.6407 35.6414
7.60316 16.561 37.4683
7.67318 16.9772 36.669
7.49902 16.9914 37.4505
7.55233 17.5981 42.3051
8.5653 17.818 39.1954
7.86656 17.2674 39.0901
7.59807 15.9604 35.4425
7.37862 16.5469 38.4922
7.94933 17.275 38.5822
7.357 15.8867 36.4984
7.61635 16.6095 36.7809
7.16757 16.1135 37.6254
7.6953 16.609 36.8342
7.064 15.6925 35.7601
7.31881 17.3631 41.8831
8.08637 17.2634 40.2309
8.42871 18.1627 38.575
7.45175 17.8342 42.6967
7.55138 16.0823 36.5386
7.04325 15.7063 36.8027
7.17222 15.7334 36.4665
7.02768 15.4312 35.354
6.90736 15.7084 37.0524
7.21134 16.617 38.8686
7.38641 16.8153 39.7195
7.84989 17.633 40.228
7.3544 16.6455 38.5659
6.91703 15.6367 37.8133
7.0073 16.0645 38.3127
7.00881 15.6182 37.2752
7.44747 17.0559 39.813
6.96917 16.0686 38.4706
7.18326 16.5693 39.7425
8.00113 18.4187 42.6861
7.76673 17.1631 39.0512
6.61995 15.7902 39.2324
7.18574 16.2867 37.5704
6.64012 15.5214 39.338
7.25724 16.5166 39.4511
7.46286 17.3869 40.3412
6.8476 15.8939 37.636
7.1742 18.2568 44.8041
7.36855 16.8407 40.526
7.07261 16.3278 40.2659
6.81133 15.4005 38.2328
7.41873 17.5633 39.8223
6.00993 14.6682 39.7823
7.33482 16.7951 39.8341
7.09849 16.4338 38.6135
6.61302 16.6027 41.802
6.94202 15.1965 37.3386
7.38821 17.0513 40.767
6.84823 16.4207 39.9573
6.98325 16.284 38.5008
6.32196 16.0954 42.8233
7.09092 16.3593 38.7501
6.23247 15.012 38.6496
