# pn-170911/RbIIR-61-NIST-1280-1959.psd
# Power spectrum* (dif=0,1,2) (really just |FT|^2)
# NOTE: only the first half! (symmetric)
# weeks: 1280-1959
# 6 clock-days, 0 excluded
# PSD: 1441
11.8237 0.0223381 0.0226401
8060.95 0.3955 0.112895
15952.8 0.472501 0.057432
20110.1 0.77185 0.0536641
13540.7 0.897825 0.0646127
13675.2 1.81742 0.0928804
4136.59 0.52952 0.0842811
2606.6 0.583853 0.0378525
3308.38 1.34345 0.0293553
1882.6 0.635449 0.0754683
1897.38 1.04721 0.0871429
2023.14 1.61512 0.0515297
1704.81 0.948664 0.0413189
1425.91 0.545961 0.0406678
1402.58 1.09141 0.093219
841.256 0.433532 0.0646087
698.511 0.595549 0.0747127
420.864 0.407004 0.048813
449.411 0.795881 0.087797
428.714 1.13576 0.0629313
1042.47 1.11004 0.115551
423.146 0.955222 0.0810627
243.248 0.328136 0.054698
511.744 1.00429 0.0669359
101.589 0.224579 0.0726365
302.07 1.22271 0.08422
104.889 0.422447 0.0478139
378.45 1.25564 0.0350768
313.479 0.803675 0.0594627
514.175 1.42389 0.0810742
456.767 1.91474 0.0520614
234.016 0.950825 0.0562733
186.2 0.564368 0.0503254
150.892 0.581171 0.0967778
307.538 1.25389 0.064286
174.505 0.667208 0.0829096
54.9093 0.270782 0.0593875
171.672 0.967185 0.0735982
379.15 2.14732 0.10209
253.074 1.18144 0.0951965
217.683 1.3874 0.0968478
148.937 0.8413 0.0651957
133.01 0.93213 0.0668309
287.403 2.24471 0.0722825
189.089 1.61323 0.167821
105.241 0.993527 0.0569211
251.344 2.35907 0.0928915
197.57 1.73785 0.081028
127.774 0.936053 0.0819054
127.401 1.57448 0.111654
179.218 2.21653 0.0806107
109.745 1.17401 0.0710891
260.322 3.04672 0.0968151
145.977 2.70856 0.0902486
187.081 2.23013 0.118929
128.549 1.75998 0.0995639
67.6558 1.00157 0.0754832
132.077 1.94966 0.178022
95.7533 1.7137 0.110118
282.895 4.89586 0.0817467
109.23 2.1298 0.100876
159.645 2.58268 0.119868
135.065 1.99976 0.168241
69.3796 1.25149 0.150215
80.9272 1.4074 0.125369
170.859 3.48879 0.0822175
175.274 4.03168 0.159414
107.534 1.97435 0.146893
247.328 4.9767 0.210802
131.578 3.05854 0.0868094
139.27 2.94815 0.153081
192.817 4.85806 0.160811
88.7963 1.9543 0.116014
118.037 3.06665 0.131156
130.997 3.42198 0.258214
64.3536 2.01761 0.0672626
107.797 2.76332 0.146451
98.5961 2.33965 0.0589707
184.534 4.76062 0.237338
88.2294 2.6354 0.125914
223.32 6.97842 0.166903
130.811 4.37456 0.201361
69.8819 1.98475 0.12131
204.373 6.44974 0.160584
172.304 6.10393 0.293733
90.3801 2.85592 0.203242
110.635 3.01012 0.173652
129.364 4.00286 0.223617
129.493 4.69142 0.112646
141.685 4.85635 0.27374
186.463 7.48207 0.324843
87.0265 2.97827 0.175818
120.919 5.07557 0.18146
154.015 5.50292 0.252782
40.1035 1.68814 0.127159
75.8512 3.26353 0.16825
111.238 4.42205 0.172281
118.553 4.26701 0.213272
157.804 5.81206 0.436661
47.5624 2.46716 0.146884
180.38 8.27027 0.501157
79.831 3.63467 0.283879
115.71 5.16749 0.355415
85.0338 4.24556 0.254123
114.574 6.34632 0.289173
87.7418 3.35571 0.163546
77.8564 4.0022 0.400508
94.8971 5.16297 0.292368
46.4763 2.95112 0.149411
182.15 9.85825 0.488108
146.544 9.81773 0.762917
91.8972 4.76766 0.395816
176.343 8.34175 0.306415
191.792 9.40036 0.605353
229.336 14.1576 0.959096
75.5207 5.07393 0.337634
106.658 6.03154 0.413454
149.474 10.1082 1.03116
126.285 8.00333 0.55016
97.9805 6.49884 0.692699
107.801 7.65771 0.541736
134.973 9.97758 1.14128
102.849 5.57264 0.445519
61.6502 3.94876 0.482158
112.222 9.66434 0.714408
182.862 13.1908 1.2299
93.4053 7.63772 0.633529
89.9776 6.55601 0.541662
30.354 3.10543 0.389298
104.216 9.0323 0.703591
81.2301 6.9129 0.734746
76.5923 5.85242 0.519933
88.3609 8.10656 0.554791
162.912 14.1713 1.30655
61.2703 4.87639 0.472326
81.6007 6.66662 0.625376
200.123 17.345 1.74126
78.2665 7.01867 0.724218
84.2395 7.08774 0.688235
77.3402 6.46082 0.695303
48.1719 4.68621 0.380523
61.1146 4.81733 0.533484
60.5425 5.84444 0.724051
122.109 10.0136 0.909826
110.791 11.0018 1.29514
127.826 12.2919 1.46972
82.7636 7.24836 0.930352
96.0648 9.90191 0.939358
72.9804 7.29488 0.865157
172.945 17.2106 1.91042
78.9975 7.78119 0.955922
99.7441 11.8211 1.55231
129.615 13.3718 1.48809
82.0224 9.27844 0.949272
78.9661 8.82039 0.965495
135.654 14.8418 1.5391
67.3923 6.01527 0.73725
73.0396 8.0349 0.972062
39.2101 5.39168 0.444872
109.652 12.0189 1.43448
84.032 9.29107 1.12489
60.2783 7.82149 0.938998
60.9477 7.06028 0.976147
112.223 13.5099 1.9654
145.419 18.3879 2.65821
79.9339 8.33005 0.863636
40.6938 5.19631 0.839873
60.3247 7.80351 0.835032
60.3394 8.3064 1.06416
31.8482 4.95299 0.514435
34.754 5.78121 0.793489
101.481 11.9592 1.67397
57.9186 9.41955 1.29693
124.212 17.4297 2.0942
68.2895 9.69451 1.55077
50.0381 8.35539 1.16751
70.4552 11.0397 1.68492
56.8614 9.90484 1.51234
76.1442 14.5655 2.21558
70.119 10.7212 1.95143
55.4074 7.4237 1.1242
26.9095 3.7086 0.677404
35.7843 4.40374 0.619355
75.1673 10.9328 2.00409
72.1758 12.7491 2.26752
61.1237 9.3013 2.30804
79.7189 13.0352 1.97021
80.1568 13.2307 2.45198
60.7085 9.46461 1.70035
54.9464 8.83403 1.82898
51.6835 8.46426 1.45944
68.3584 10.6467 1.60053
68.512 12.4115 2.19337
75.9785 11.7751 1.60312
95.832 18.9174 2.81209
127.536 22.3173 3.86616
63.3544 12.1701 2.09182
15.5757 3.40537 0.775988
27.6144 4.62697 1.32702
49.99 9.83762 2.22843
81.6413 13.573 2.14693
55.9392 10.4967 1.86813
77.6982 15.5857 2.89441
68.6837 11.7074 1.80012
47.016 9.11071 1.99616
59.9317 12.492 2.12926
93.3167 18.8419 3.7646
48.5152 8.26841 1.36698
90.5387 19.2891 3.71902
131.446 29.7656 6.27693
51.3961 10.4382 1.98186
47.4838 10.3069 2.68804
30.7594 6.58536 1.27676
24.0135 4.74216 0.828701
77.4619 16.1494 3.65821
68.4005 16.0658 3.78305
46.0253 9.60178 2.59981
65.3541 12.9017 2.68099
51.5454 12.305 2.86386
71.7896 13.1186 2.41503
52.7875 12.0946 1.99672
29.4402 6.56784 1.79573
89.7784 20.6702 4.58106
34.013 9.64622 2.79497
41.1857 9.12044 2.67463
58.3143 12.9115 3.08271
56.0775 12.2186 3.21205
43.2266 10.4551 2.30133
79.1523 17.264 3.75415
28.0795 7.43706 2.11745
69.6198 17.1457 4.08002
39.3056 11.1449 2.66416
40.7468 10.9623 2.21775
108.504 26.6274 6.25163
32.5403 7.2436 1.60086
67.2663 17.9608 4.8521
78.2107 22.0029 6.06697
33.8546 8.72702 2.0561
86.9139 24.1998 6.09776
73.5249 18.4781 4.95454
53.8199 15.2345 4.0396
38.7067 9.04666 2.25676
46.3148 16.1253 4.54153
58.6441 14.1633 4.38449
42.5115 13.5911 4.55875
65.5108 17.0517 3.80117
58.018 15.5316 4.89233
23.4758 7.73545 2.57275
33.1759 9.50998 2.93352
64.2841 17.2146 4.4947
87.3447 21.1244 4.96966
32.8611 8.89495 3.10475
45.6055 13.1364 3.48652
28.7353 9.30808 2.95646
20.3659 7.49506 3.06153
71.5435 17.3525 4.63867
57.5925 17.2697 5.87344
58.5982 17.6591 6.24394
41.9982 10.8917 2.78886
30.6258 10.7696 4.27622
63.4197 16.3262 4.13407
55.4311 17.3048 5.1643
43.8737 14.6576 4.2616
38.1528 13.9106 4.48153
46.6625 14.5587 5.03742
33.3135 8.84646 2.5684
37.6774 12.6788 4.4918
81.4421 26.8261 8.08667
116.546 35.5755 10.9471
60.6142 22.011 6.71152
30.0795 12.5517 4.3557
47.7281 16.1763 5.36553
46.3586 21.7306 8.83409
32.0246 8.63212 2.58324
60.7339 21.3211 7.54964
37.4622 14.4245 5.69137
39.5258 13.593 5.175
89.112 28.6463 9.14255
57.1585 17.0166 5.31222
30.4608 10.829 4.39006
51.7456 17.642 6.16932
51.5239 17.5306 5.51499
35.8774 11.5064 4.26056
79.0769 30.5044 12.1634
94.3691 34.5777 11.8732
25.7412 11.7362 5.57534
13.9589 6.3151 3.10431
37.5276 14.8282 5.50906
66.9356 24.1376 9.5895
68.9131 27.3883 11.3398
59.7698 19.4095 6.17719
42.4553 18.4033 7.30342
40.3714 16.2596 6.99176
59.4561 23.5764 8.41029
24.3051 11.6923 5.20211
30.8752 12.828 5.21071
27.2688 13.228 6.15832
94.3567 38.3633 14.9294
71.3559 26.9864 9.58278
31.8507 14.5701 6.3683
40.8419 17.9735 6.65185
34.7394 17.4549 8.66029
53.4313 20.3628 8.19925
27.4519 9.33347 4.3783
32.7421 9.98938 3.61974
40.7726 17.5704 6.41845
47.6777 23.0394 9.79414
10.1358 6.0229 3.41633
44.0717 18.0021 7.87266
43.2444 15.2291 5.83145
31.1428 13.924 6.3457
23.4725 11.6804 5.71466
46.4225 21.1333 10.182
15.3767 7.07832 4.25837
54.5498 28.4904 13.758
49.838 17.4815 6.12211
34.9891 16.1691 8.40672
71.7178 31.3249 14.7408
28.3228 15.7137 7.99895
22.1277 10.3551 6.30838
47.1636 19.2422 8.18118
38.6217 14.9912 5.96091
48.2175 26.2665 12.6437
22.3127 7.1797 2.58793
30.7341 18.5824 10.7054
55.2781 26.5189 11.6541
43.099 22.1281 11.6156
17.2972 4.91642 2.74809
51.17 26.3106 15.4562
79.4847 34.9401 14.8552
34.3515 16.1236 7.25003
21.4177 12.2567 6.24837
26.956 12.1627 6.13562
42.3786 19.4734 9.47821
35.7745 17.9121 10.765
48.4771 21.1578 10.4537
44.5961 19.7158 8.34091
32.9982 21.1583 13.17
22.3287 11.5616 5.54255
23.9148 14.3614 7.96453
10.9868 5.02973 3.91364
53.234 27.1746 14.2796
23.0066 12.5036 5.97314
46.3561 27.8133 15.777
32.6533 15.7768 9.6831
54.2524 24.9838 11.7721
34.4406 18.2489 8.62729
20.0079 11.2058 7.33234
17.8982 10.7167 6.70475
20.5205 12.5596 7.51123
37.8367 21.2568 11.1342
21.366 10.2661 5.26723
18.6271 10.2889 5.83526
16.9072 9.29176 5.02501
15.3778 7.75395 4.79267
41.8819 27.3293 16.6193
73.8686 40.4324 22.0633
26.0208 14.6546 8.74379
23.3225 12.3537 6.42905
36.1671 23.7334 13.9221
56.7069 33.2381 18.2794
36.6001 22.641 12.9004
36.519 26.7169 16.4722
20.5039 12.2627 8.2115
23.8557 9.12221 4.61436
17.1956 8.76143 4.59881
24.1625 16.7185 11.3396
45.8556 26.0602 15.3272
22.7265 11.5773 6.76419
32.0273 21.0265 14.1107
28.8674 18.7776 12.0491
38.052 28.3023 19.395
36.9291 17.3508 8.76311
49.2445 34.7944 22.7963
25.6339 11.4809 7.35502
37.7209 19.8758 10.0433
23.8576 16.1618 12.2401
33.2499 20.1865 11.3889
33.645 25.4318 16.5602
19.9253 8.45952 3.70211
22.7156 17.0796 11.3469
20.4139 11.8508 7.86906
13.8814 10.3256 9.07378
36.6836 23.6245 14.6927
45.5571 31.4061 20.4005
31.7911 24.6342 19.5094
63.3027 33.9605 16.2145
19.4618 19.0557 15.9564
28.3676 17.2325 9.11996
21.9287 19.0206 13.5485
22.8386 15.6837 13.2901
23.2774 12.3026 7.74994
8.04009 3.64926 2.72495
31.4497 17.4508 9.66571
21.6593 14.7551 10.132
46.9325 35.9276 24.8301
33.0631 19.503 11.0178
18.0605 14.8337 11.6106
32.9443 23.3904 15.0271
30.0585 21.6074 12.3405
15.7881 14.6458 11.9734
21.6147 16.7503 12.4872
17.0472 10.2046 6.79463
35.6005 24.9774 14.4075
16.6681 14.2807 9.78928
21.3515 25.4016 24.2926
33.2514 17.9323 9.94222
20.1929 16.7718 13.4425
22.6749 14.3229 10.5059
27.1339 19.0164 13.3894
27.2172 16.6423 11.6022
39.0382 32.2735 23.9287
40.403 28.0683 19.6133
26.586 19.1542 14.5905
34.6477 23.1658 17.9248
29.3796 17.8836 11.294
37.4569 29.5281 20.7966
28.3995 25.4139 21.1595
22.7582 16.1648 13.2312
19.6482 12.9892 9.37397
18.0623 13.2198 8.75513
19.4685 18.961 17.0037
10.9874 9.74726 10.1517
17.1177 10.5811 5.89067
19.2025 21.5343 20.8589
17.0779 13.4475 11.0355
17.4007 10.4762 6.83617
17.0231 14.4292 12.5853
37.6947 30.7898 23.5703
10.1249 7.90669 6.8353
18.0433 16.4292 12.5446
25.7065 32.4761 34.1782
43.8772 29.2355 21.9013
15.0686 10.8345 10.0153
27.7911 21.7468 19.22
18.5025 10.5243 8.76832
34.6153 24.2788 15.9422
19.6136 21.494 21.1736
14.9811 14.0879 15.5924
25.1122 14.1934 7.94613
17.2707 17.8063 16.9485
23.6478 16.4033 12.0571
13.6879 11.2233 8.86793
23.5225 21.9766 20.9558
35.0676 30.1396 24.5197
14.4422 19.1024 23.1033
32.1144 20.509 16.8797
31.2667 26.9588 19.0207
13.8736 14.6851 14.8617
13.4547 18.3899 23.3518
31.1918 23.0077 20.7234
15.7231 9.17653 7.36484
15.0057 13.9834 13.0396
21.0694 15.0189 10.8558
14.7718 14.48 15.7345
36.8832 28.5158 24.2255
32.8808 29.2755 22.9255
30.0274 26.4836 22.2817
14.2536 16.2072 16.7621
12.8607 11.9793 13.3888
34.5621 30.1861 26.1329
16.9349 11.7214 9.50791
4.81647 5.77474 6.88023
15.118 14.8141 15.7121
22.091 15.9588 12.8622
10.5159 7.77279 6.15788
14.8411 18.3808 19.4566
39.2369 40.7472 37.4711
19.0899 16.951 17.6142
23.9974 21.102 20.8601
53.5058 57.1971 53.6514
25.2797 25.8503 29.227
26.8937 15.3337 9.49969
22.0574 16.6546 10.816
23.5432 27.8639 26.7014
8.93637 11.064 14.9776
26.5888 25.4874 24.0942
14.7248 14.2573 12.3392
10.5797 12.1752 12.5954
11.7682 14.9571 17.2926
16.3412 20.6487 24.0017
17.2368 21.2058 29.2554
25.4495 23.1219 24.2816
21.7458 15.1387 11.1755
17.4324 17.1593 18.4929
23.9708 18.1767 11.5512
12.9185 19.1301 25.9746
18.8817 17.2597 17.0812
15.9032 17.293 22.0233
21.6847 17.8373 13.9861
20.982 28.7916 39.1472
27.9904 20.5159 15.6134
21.014 23.1911 22.1084
21.7253 21.3836 21.347
25.6731 27.3746 25.9026
15.6186 18.7951 21.4243
12.5762 16.1456 23.359
29.4995 25.7892 23.0932
25.2611 29.3641 36.7225
30.4433 31.4178 33.0747
24.5528 27.8097 29.6714
20.1577 19.5199 20.2435
15.4843 16.8807 18.4385
18.197 15.8199 14.6323
16.7262 19.2333 21.0081
25.9803 28.7211 26.8342
23.1677 33.1974 40.0773
15.658 19.8775 25.9725
9.56584 11.0949 17.1966
23.1005 21.6378 20.1225
22.493 23.8587 21.8098
9.36934 10.6156 14.0574
10.9416 8.58219 9.06927
14.9281 13.3418 12.2285
23.326 32.2552 37.2647
16.9811 14.9014 12.6177
18.6808 24.5651 24.3009
10.5641 17.6545 25.1953
10.5182 13.5438 19.4572
21.2303 25.3415 28.8314
23.6743 26.721 24.9968
13.1669 25.8505 40.1738
22.5068 20.4951 21.6857
19.1644 28.153 40.6557
30.3833 34.2523 39.7999
13.7253 12.0393 20.8544
25.1249 14.482 5.78121
24.0137 31.4635 35.3019
20.6848 19.7931 18.8589
11.2823 12.8579 14.9893
18.485 24.3186 28.3799
7.88396 10.0358 18.9081
25.3182 28.512 33.0188
14.1894 14.0059 14.4233
16.3241 21.7758 30.7098
24.6398 23.645 21.6813
11.4915 12.1769 11.2389
14.2596 20.9817 28.2843
11.1003 14.5596 25.07
35.9067 34.1329 25.6976
32.5941 54.9432 68.692
10.2509 16.7944 34.0556
14.6317 11.3254 13.5081
9.41626 8.70238 12.9666
27.9583 27.1806 24.508
14.8408 17.225 18.6383
15.6055 21.5712 28.3151
10.6495 11.6297 14.5197
8.1659 9.57748 16.0037
21.067 20.6279 16.715
13.9674 19.8026 21.2322
9.85355 16.303 22.4475
6.91258 11.9506 21.8672
8.79113 12.2952 18.1871
17.1289 25.8953 38.7859
17.5089 16.901 21.582
13.7781 16.3776 16.2054
7.60653 9.95931 12.1032
9.37908 15.3407 27.4488
21.8396 24.2685 26.0724
11.5989 15.7894 24.3911
18.2921 20.4902 19.903
17.6823 26.2633 32.6002
7.31675 9.68963 17.6579
13.1155 14.1449 16.2733
14.1565 18.2683 16.2048
3.95219 9.65736 16.7869
18.9201 30.9467 43.8989
6.98216 5.53683 8.29819
12.9924 19.0575 27.7632
14.9496 21.307 29.7003
13.5988 15.8687 22.4006
13.9932 14.8265 18.3761
9.72731 10.5255 12.898
13.5064 20.0749 25.9181
9.79752 13.7033 22.5305
15.7747 17.9303 17.9432
9.18177 14.0004 20.6394
17.7892 28.2427 40.0916
6.72125 8.86136 13.1611
9.41233 18.9767 37.688
22.4194 23.9939 30.526
11.5967 17.1768 26.9995
8.71645 9.1725 14.1818
7.81441 6.97809 6.16098
5.11546 11.174 25.8799
20.7383 22.8451 20.558
11.6239 17.1205 23.2747
12.6886 23.0053 36.9925
20.9949 23.6526 25.7902
15.24 26.4702 37.8426
7.56834 10.5968 23.0764
21.25 29.3315 42.8532
19.7255 20.7477 23.684
15.9708 20.878 26.0996
13.719 23.8577 37.2231
9.61673 14.1867 22.5042
5.58558 6.84112 10.8606
4.31532 6.94303 20.152
25.5041 36.7732 42.9501
8.50347 13.4093 30.0732
16.3962 19.7672 22.439
11.1775 15.0781 16.0521
4.71898 7.70624 12.5321
7.30927 11.9596 17.9779
11.4833 18.6643 21.4134
10.6287 18.8586 27.3265
10.2419 14.66 19.5693
6.97779 16.3934 32.4135
15.1756 16.7051 19.5919
11.5862 19.4784 31.1321
8.81206 11.9999 19.9904
7.68082 14.9408 26.1911
8.47557 10.3971 20.5989
23.1225 40.0374 57.5536
9.85529 10.3121 15.5044
17.1191 32.2839 54.4068
14.6307 16.8789 24.7109
9.49583 12.7121 14.8745
7.10135 10.9525 15.6063
6.91095 12.0954 19.655
4.5168 7.3212 12.4985
4.22342 9.84559 27.9882
19.5049 26.3358 31.8011
11.6597 18.8865 32.094
13.8715 20.8293 34.3322
10.6684 12.685 12.6691
6.82527 11.2553 15.2093
6.04948 12.9746 23.9655
10.7383 13.5634 18.7693
9.27589 17.0015 31.4382
12.4324 16.1079 24.4323
12.9245 19.5929 26.3902
13.0749 24.8338 42.6872
12.835 17.8101 25.729
7.36708 10.2085 15.781
17.4148 34.0304 50.5371
8.92774 15.8647 34.737
11.4866 12.4941 16.4
10.0651 20.0505 37.5261
5.97938 5.93714 10.2094
9.57491 16.7625 30.0014
10.5248 14.7225 18.226
9.80434 22.1919 37.4885
6.41288 15.8327 38.1359
10.4305 12.5708 21.4879
8.70978 12.0373 24.6364
11.2851 15.2644 23.6809
10.216 16.2683 29.274
9.73184 9.68914 10.9388
16.133 31.4346 44.4531
9.70207 17.6032 32.5225
9.95222 13.7943 17.6655
6.94665 15.5222 30.1807
12.403 24.1024 48.2428
15.8915 23.4058 40.939
13.5763 20.7768 33.3858
15.8789 27.3738 35.9382
9.95349 23.5339 50.83
12.5384 20.3159 34.7697
11.9152 19.6974 30.4929
4.75981 8.73845 22.1129
9.47959 13.9259 19.113
11.4161 24.4888 41.3851
6.22739 10.068 26.6739
13.3015 18.9977 23.56
8.19166 15.1073 22.9328
5.25083 9.46204 18.6263
8.03267 13.9184 21.4434
7.19619 11.9385 17.5718
4.22262 11.1375 25.9351
8.14868 16.3548 29.6667
7.00357 14.9778 38.1318
14.5593 23.4724 32.9374
10.2022 20.2391 40.1696
9.84827 15.2789 17.9833
3.96796 7.59807 13.9245
3.88053 7.88181 20.6506
10.4084 17.6331 22.4906
3.69575 9.14958 22.7331
6.02056 8.2205 14.3444
6.28016 12.682 26.7555
9.21394 15.5585 23.3795
7.18341 10.806 15.3043
7.6419 20.4168 36.931
3.54081 8.58795 33.997
18.5176 30.9273 44.7781
7.17518 16.0443 38.1201
8.67984 8.87921 11.0975
4.91988 11.5494 20.3786
7.08218 16.0793 36.0763
8.49506 13.206 26.6428
9.17936 12.8421 22.8966
10.3345 16.8885 25.3446
5.33391 12.1578 26.8645
7.18439 12.1316 22.377
8.32806 16 28.4256
5.62516 9.52534 13.234
6.23342 20.8685 52.7202
10.8637 12.9413 14.4758
6.37584 14.2282 31.6535
12.9816 28.9292 58.8001
10.5743 12.689 12.8115
9.58323 24.8485 50.3647
6.95104 12.5664 21.8452
5.4444 13.7792 28.8617
5.79568 9.74583 15.2846
10.7295 35.4515 86.095
11.3545 13.336 31.2041
9.80195 14.945 19.4197
4.33411 14.0395 51.1347
24.4378 40.654 55.3032
5.5565 8.47184 18.0376
7.15123 14.6473 26.0779
3.63418 6.19906 17.8847
9.0569 17.9129 28.0236
3.50763 12.813 39.0096
9.49582 13.119 19.7163
6.46633 16.3079 37.7316
8.31919 11.5921 17.2321
4.84834 9.83023 21.73
2.82475 4.11648 14.3266
8.73286 12.687 18.9956
5.99532 14.649 35.5938
8.25093 14.0668 19.3863
6.52697 23.3224 57.1605
6.78841 6.14315 19.4239
14.0693 21.9154 27.0555
7.47995 14.8366 25.8285
3.61179 8.35867 24.6244
8.56876 17.2998 27.7125
8.19725 19.3429 40.0864
7.21906 17.0664 40.0677
8.54649 15.4223 29.9179
9.01685 20.9854 40.5169
10.6882 23.9045 50.9694
10.1614 21.3814 53.4575
15.7049 23.3228 33.6647
8.94204 21.3139 51.4099
10.2764 16.4694 27.5104
6.90055 11.7234 18.871
5.05477 12.5501 25.4449
5.3424 12.7424 27.8165
6.9699 20.7272 50.6881
8.5531 15.2166 34.626
8.67191 15.6178 33.2356
6.987 12.1229 23.245
5.26296 7.82803 14.1795
5.68702 13.8571 35.2612
9.40964 14.3123 22.1621
3.38227 4.77763 8.311
3.99118 9.91644 18.3998
3.93024 12.0389 32.4785
6.51069 14.1321 25.1407
3.14789 7.46457 17.7021
3.46298 9.26712 34.6597
9.3884 19.241 42.7521
8.23209 17.2787 32.4274
8.87785 19.4971 39.637
6.08018 12.566 26.6432
4.93942 17.932 57.4949
10.9396 12.2291 25.4851
12.8067 27.6048 42.1451
4.3309 8.92792 26.583
9.51403 18.874 22.5635
1.52131 3.90792 9.5284
3.52166 8.0508 11.9524
3.77706 21.1479 65.5189
9.38229 14.3491 30.0602
5.89418 10.4892 21.2352
5.3197 10.0129 15.2424
3.91591 11.5667 34.0981
8.11465 16.0772 33.1688
6.49685 15.1114 31.6685
4.65478 8.91559 21.7662
6.85469 20.163 41.3088
5.40291 12.8524 32.1984
5.48132 12.7471 31.3436
4.27557 6.39536 17.2963
9.1589 21.5244 48.4797
5.78287 9.61169 19.323
5.28144 9.76074 15.9633
6.62878 22.3077 44.178
5.62828 13.2195 34.4845
2.95255 9.62664 35.1726
5.30035 8.42318 22.6224
7.57365 14.0315 36.076
8.9437 19.6839 42.7691
5.71447 8.45852 14.2125
3.70495 12.8186 37.6379
5.93593 9.19525 16.5079
2.66229 6.92309 19.5226
4.60435 10.2091 23.6241
4.66609 9.80792 32.5042
12.5547 23.8471 35.9644
8.13695 22.1032 50.8758
3.46073 5.57405 13.4676
2.71159 5.71915 15.9911
7.04649 19.7758 45.712
3.98955 10.8588 42.4092
9.48998 17.3224 38.2932
11.5608 31.5933 61.8567
9.72979 20.3488 42.585
4.28617 8.2259 27.7205
10.0303 23.9757 45.3342
3.94022 5.42877 16.9819
8.26082 19.0831 35.7817
5.10963 13.215 37.1611
8.34513 23.105 63.9243
11.0427 24.3933 51.4377
8.44573 16.3095 33.4489
3.49189 9.91453 29.9306
4.04309 4.43927 7.33445
2.04333 4.79924 13.7486
4.73716 13.4492 24.4688
2.45943 5.8174 18.9802
3.28559 7.28017 16.9659
3.32626 6.45621 15.0317
4.17765 11.1896 21.3633
2.22045 6.38749 20.6406
5.51998 16.5066 36.0512
3.30953 6.70473 23.2643
5.41841 16.6779 43.2673
6.04258 6.3573 9.3799
3.57681 12.6807 35.0719
6.32184 14.4776 29.0128
