# pn-170911/RbIIR-48-USN3-1280-1959.psd
# Power spectrum* (dif=0,1,2) (really just |FT|^2)
# NOTE: only the first half! (symmetric)
# weeks: 1280-1959
# 2302 clock-days, 31 excluded
# PSD: 1441
650.752 0.071421 0.0210142
22039.6 0.436522 0.0111421
95762.8 1.97001 0.0117359
15751.6 0.547486 0.0113903
41420.9 3.16511 0.0118297
5351.14 0.491146 0.0111289
4207.26 0.57328 0.0120713
2624.3 0.471679 0.0112635
2783.23 0.719654 0.0117623
1658.17 0.484261 0.011486
1461.08 0.548796 0.0119654
1177.43 0.523287 0.0109977
1033.26 0.564287 0.0119464
863.582 0.540291 0.0116297
776.004 0.583244 0.0121529
691.718 0.596968 0.0117116
651.655 0.651484 0.0124309
567.381 0.633717 0.0118031
531.361 0.654155 0.0124766
473.734 0.67118 0.0122264
482.901 0.75565 0.0130152
431.797 0.742954 0.0124535
398.971 0.763718 0.0133709
386.67 0.84758 0.013424
376.493 0.873044 0.0136402
352.93 0.881997 0.0139339
348.462 0.976396 0.0151917
337.041 1.00503 0.0145944
332.523 1.0793 0.0156751
317.626 1.12867 0.016635
318.127 1.23222 0.0172395
311.437 1.26017 0.0171408
299.169 1.28727 0.0182383
282.192 1.30391 0.0181194
285.539 1.40752 0.0197668
275.767 1.46843 0.0203577
278.112 1.58068 0.0221641
277.235 1.6108 0.0222941
266.793 1.70168 0.0241721
269.527 1.80466 0.0251044
273.737 1.90017 0.0267614
256.95 1.90934 0.0266554
263.827 2.05365 0.0300015
269.609 2.21976 0.0326945
267.099 2.28376 0.0335237
260.559 2.35626 0.0342213
248.574 2.3707 0.0375776
254.695 2.50257 0.0380716
254.522 2.62675 0.0402791
254.309 2.77679 0.0430311
251.387 2.84122 0.0463436
243.187 2.89256 0.0481737
248.633 3.02973 0.0508754
244.094 3.13528 0.054203
235.31 3.08564 0.0544213
235.813 3.23822 0.0582737
229.628 3.2779 0.0611926
245.394 3.6152 0.0669678
244.088 3.7921 0.0726747
225.626 3.57162 0.0701851
241.253 3.97467 0.0786016
234.863 3.98974 0.0828521
244.172 4.28099 0.0903605
231.715 4.22399 0.0909226
225.718 4.21746 0.0944259
229.569 4.4804 0.100328
223.902 4.51891 0.10512
227.091 4.67822 0.111024
223.148 4.69679 0.116388
231.447 5.08252 0.127125
215.092 4.82014 0.126521
210.339 4.82305 0.127845
212.615 5.10184 0.140484
210.674 5.1866 0.143369
213.384 5.43311 0.154508
205.217 5.31473 0.155225
207.647 5.52024 0.164523
203.857 5.54003 0.168768
207.6 5.8856 0.185183
198.241 5.6529 0.17979
194.691 5.81006 0.189437
202.742 6.13704 0.203256
200.463 6.19125 0.210369
196.193 6.26465 0.21782
187.682 6.18807 0.219812
196.701 6.65363 0.243346
184.666 6.23299 0.232831
188.768 6.61106 0.252554
178.452 6.41909 0.249927
182.977 6.71001 0.262809
186.156 6.98677 0.281484
179.991 6.90095 0.281134
183.373 7.20626 0.29998
173.458 6.97611 0.295976
174.48 7.12353 0.31189
172.427 7.17488 0.321685
217.331 9.38067 0.423457
172.513 7.45604 0.345467
163.333 7.26825 0.343343
165.186 7.46446 0.356783
162.173 7.55005 0.370073
169.005 7.96462 0.398212
171.411 8.33485 0.420889
162.661 7.96481 0.412945
160.302 8.09218 0.432492
172.458 8.79906 0.467668
154.789 8.06601 0.44338
151.169 8.05707 0.451092
150.47 8.09726 0.456851
158.496 8.74928 0.50415
155.095 8.74877 0.513282
148.459 8.50685 0.504809
144.559 8.51644 0.519217
148.684 8.8394 0.546069
155.427 9.43338 0.598819
142.897 8.88267 0.568936
146.341 9.10906 0.586546
143.446 9.15662 0.607856
144.262 9.27497 0.625336
144.76 9.56491 0.656265
142.505 9.45845 0.655876
139.345 9.43954 0.668532
131.636 9.12295 0.656169
139.43 9.89174 0.723697
145.939 10.3944 0.767245
136.273 9.88277 0.748234
136.49 10.1167 0.77242
129.75 9.71986 0.752579
129.602 9.86909 0.776313
128.459 9.85758 0.779121
130.129 10.1423 0.826428
131.395 10.6056 0.883336
133.161 10.8177 0.90531
134.831 11.0854 0.938079
128.389 10.749 0.927399
123.947 10.5156 0.922883
128.362 11.0421 0.974758
117.381 10.2069 0.912516
126.076 11.2528 1.02452
120.806 10.9126 1.01241
126.161 11.4997 1.08008
118.381 10.8982 1.03895
117.095 10.9221 1.05389
120.22 11.4696 1.12312
121.095 11.6532 1.15574
118.591 11.6962 1.18153
116.326 11.547 1.1786
115.877 11.6543 1.20725
117.093 11.8638 1.23923
118.138 12.231 1.30112
117.087 12.2378 1.30423
115.807 12.1836 1.31754
106.838 11.4524 1.26323
118.817 13.0023 1.46319
110.132 12.1058 1.36446
113.464 12.6457 1.44611
108.71 12.2593 1.41576
104.985 12.0823 1.41999
110.417 12.9107 1.5375
105.452 12.2962 1.4752
108.069 12.8357 1.55128
104.887 12.7292 1.57833
101.404 12.395 1.5533
110.596 13.7934 1.75272
109.526 13.5101 1.71093
101.998 12.9533 1.68038
98.0959 12.526 1.63612
106.013 13.7239 1.80783
95.9355 12.5286 1.68716
98.9325 12.9599 1.74262
97.9952 13.2291 1.81947
99.8541 13.6054 1.89816
101.743 13.8732 1.92767
95.2526 13.2207 1.87126
94.2887 13.2592 1.91212
98.2646 14.1014 2.052
93.4849 13.3145 1.94441
94.8256 13.7541 2.04646
97.2949 14.3067 2.15144
97.4658 14.4164 2.173
90.3427 13.5512 2.075
91.9453 13.9637 2.16328
91.5251 14.1142 2.20628
90.5083 14.1796 2.2774
92.9714 14.4372 2.28418
91.8703 14.6133 2.36523
92.1705 14.6408 2.37005
88.7928 14.3863 2.38045
90.2581 14.7549 2.46486
87.0996 14.3409 2.41462
87.1434 14.6523 2.50068
88.256 14.9499 2.58582
111.77 19.1737 3.29997
86.1318 14.8006 2.60064
88.594 15.5762 2.78012
85.6257 15.0063 2.68385
86.9002 15.3906 2.78036
87.4026 15.6266 2.85525
81.6179 14.8774 2.74751
84.0719 15.4271 2.87842
78.4581 14.6098 2.77817
84.6034 15.7688 2.97858
85.0493 15.9935 3.07006
81.6989 15.6006 3.02907
84.9385 16.3455 3.18607
79.7856 15.5369 3.07457
81.024 15.8015 3.13671
81.0696 16.1436 3.26427
79.2566 15.859 3.22612
79.2925 16.0509 3.30829
81.5059 16.4278 3.39939
82.6318 16.8533 3.50635
75.1932 15.6617 3.31737
74.4685 15.5896 3.31107
76.1045 16.2718 3.53289
79.614 16.9588 3.6746
82.0803 17.6222 3.83468
76.5859 16.6864 3.68376
74.7514 16.5014 3.69779
73.9172 16.3896 3.70389
74.0988 16.5791 3.77348
72.8646 16.4884 3.76915
72.9475 16.6158 3.84906
73.5901 16.9027 3.95157
71.6885 16.568 3.88332
72.0538 16.9082 4.01562
73.0117 17.2721 4.14112
73.1597 17.3807 4.22075
74.8604 17.9054 4.34463
71.5878 17.3334 4.27022
70.6447 17.1515 4.2117
69.3205 17.0559 4.24707
69.0277 17.1 4.28724
70.8839 17.7609 4.52909
68.3826 17.1837 4.37647
71.0424 18.0567 4.6573
67.3458 17.4317 4.56343
70.03 17.919 4.67156
70.4915 18.4085 4.85879
69.4347 18.3474 4.89826
70.5818 18.5647 4.95548
67.2535 17.9871 4.89603
66.2447 17.8899 4.90033
68.3035 18.609 5.13829
65.8945 18.0319 4.99158
66.3773 18.2813 5.10066
65.0061 18.1711 5.13351
66.6102 18.7579 5.34288
63.5013 18.1936 5.26161
62.9661 17.8027 5.14702
66.148 18.9086 5.45352
64.4903 18.7816 5.51604
61.9046 18.1185 5.35802
63.2667 18.8201 5.6412
63.8866 18.7727 5.55092
61.7877 18.6316 5.69093
61.8142 18.5285 5.63551
63.8828 19.3151 5.93396
61.0076 18.7071 5.79035
62.0169 19.2574 5.99758
61.7675 19.1091 6.01284
59.9215 18.5183 5.78973
62.5355 19.7093 6.28949
60.3469 19.1998 6.18288
57.3113 18.1666 5.87197
62.3386 20.0607 6.53236
59.9847 19.3102 6.28605
59.6306 19.5599 6.50265
57.9018 19.1769 6.43856
58.6419 19.337 6.47389
58.249 19.4927 6.59218
58.3299 19.3378 6.48019
56.4615 19.3344 6.67139
55.8219 19.0364 6.5823
58.5903 20.1939 7.04231
57.4119 19.7338 6.8931
59.3884 20.7274 7.26972
54.7819 19.3122 6.89622
56.2467 19.8046 7.05691
55.1712 19.4488 6.91165
53.7348 19.5544 7.19447
56.312 20.1286 7.301
53.6446 19.5124 7.18548
54.8707 20.0126 7.40615
54.2135 20.0046 7.44594
53.7658 19.85 7.43956
53.8656 20.2807 7.7822
52.705 19.9209 7.73455
75.8316 28.1564 10.3642
53.6039 20.6029 7.95799
51.2702 19.6674 7.68371
53.4912 20.647 8.0999
52.0137 20.3607 8.05552
53.0728 20.5495 8.05747
52.9009 21.0707 8.49365
50.4754 19.8764 7.95159
51.6552 20.5091 8.20952
48.5198 19.5502 8.01617
50.0045 20.0571 8.14621
49.3611 20.2138 8.38355
49.7577 20.2007 8.3019
49.461 20.5493 8.62458
49.3792 20.4825 8.56892
49.8211 20.7843 8.74491
49.2729 20.8226 8.85883
48.2735 20.439 8.74667
49.0333 20.9239 9.01077
47.6052 20.192 8.68753
47.9952 20.807 9.14176
47.0531 20.4397 8.99453
47.9392 20.842 9.15652
47.9674 21.2541 9.53271
47.2665 20.5206 9.06239
46.7663 20.876 9.32747
45.6074 20.6966 9.42697
46.5011 20.8253 9.50082
46.882 21.1057 9.65871
47.7012 21.6212 9.8196
43.7601 20.131 9.4029
43.5566 20.1762 9.48478
45.3286 20.9465 9.82749
43.9774 20.4491 9.61977
43.4583 20.3951 9.69806
45.1952 21.497 10.3098
43.9206 20.7409 9.95733
46.2461 22.2316 10.7273
43.4589 21.0431 10.3008
44.324 21.2786 10.3576
43.465 21.1667 10.442
43.9755 21.3833 10.4865
42.7381 21.158 10.5833
43.3022 21.3354 10.5501
44.4896 22.3601 11.3358
43.3344 21.6209 10.9685
42.3269 21.1097 10.7002
43.6883 22.1037 11.3014
40.5506 20.4879 10.554
43.2425 22.1831 11.4666
41.0014 21.2486 11.1735
42.8259 21.9486 11.4118
41.9078 21.6274 11.2342
41.2 21.6207 11.4138
43.2204 22.9101 12.1884
40.5185 21.7093 11.8017
41.5163 22.0247 11.8867
40.1245 21.3628 11.5305
40.7648 21.8438 11.8027
40.6048 22.0449 12.0879
40.2788 21.993 12.1328
40.8425 22.3728 12.4121
41.1741 22.4158 12.3924
39.2903 21.8443 12.2631
39.6329 22.0388 12.408
38.1531 21.0901 11.8206
37.6152 20.9479 11.8295
38.7731 21.7525 12.3948
39.1191 22.3864 12.9117
39.0101 22.4353 12.9826
38.3255 21.7564 12.542
37.2347 21.3607 12.3717
38.2239 22.5442 13.3456
38.6417 22.4113 13.1278
37.544 21.9383 12.9859
36.9436 21.638 12.8948
38.6949 22.841 13.4817
36.9167 22.0835 13.328
35.6025 21.4468 13.0138
36.6613 22.2144 13.5677
36.6239 21.9015 13.1806
36.8114 22.7953 14.0493
34.974 21.5904 13.4516
37.251 23.0987 14.3271
33.8402 21.1231 13.416
36.1633 22.2664 13.9189
35.9104 22.2875 13.8974
34.2849 21.56 13.6844
35.2467 22.2744 14.1833
34.3996 22.1141 14.2887
34.9881 22.1409 14.1882
34.2731 22.0712 14.3295
34.6236 22.0503 14.2363
33.3705 21.6539 14.2829
34.8727 22.6806 14.9731
35.161 23.0131 15.6023
48.6903 31.4835 19.8352
34.6218 22.5508 14.8457
33.046 22.4809 15.3146
33.8854 22.266 14.8812
34.1482 23.1293 15.6423
33.5296 22.3714 15.2009
32.4712 22.0352 15.0794
32.708 22.4542 15.6356
33.0669 22.1052 15.0208
32.396 22.2792 15.4671
30.577 20.9666 14.7475
34.0832 23.5936 16.339
31.7443 22.2265 15.8106
31.5475 21.9618 15.478
32.2053 22.5255 15.8961
31.4235 22.0194 15.6088
32.5448 23.2962 16.6625
30.804 21.8623 15.7752
31.4338 22.2109 15.7987
30.0947 21.8903 16.199
31.8684 22.732 16.3559
31.1989 22.7493 16.7147
30.9083 22.5587 16.6037
30.3374 22.0409 16.2718
32.6658 23.967 17.6592
30.5768 22.3005 16.4562
30.2197 22.4601 16.8496
29.8155 22.2933 16.9284
30.1616 22.4062 16.7811
29.3032 22.3379 17.1957
29.2727 21.9224 16.7673
30.0022 22.698 17.386
30.3189 22.9469 17.562
29.0321 22.1109 16.8935
27.7197 21.3887 16.6354
27.3371 21.4016 17.0759
30.4052 23.5532 18.5138
30.2922 23.1676 17.8575
29.3126 23.0571 18.1545
28.8305 22.7419 18.0517
29.3975 23.5415 18.9644
28.8181 22.9262 18.5458
28.8389 22.7728 18.1522
28.4105 22.7179 18.3276
28.2373 22.5775 18.2286
28.3793 23.0351 18.8397
27.6956 22.5123 18.5763
27.7291 22.391 18.2823
28.2633 23.3269 19.3008
26.9389 21.5715 17.5616
28.0157 23.7022 19.9044
26.9926 22.3285 18.7847
27.278 22.2903 18.381
26.3934 22.329 18.8937
27.1903 23.041 19.6537
26.4772 22.0949 18.7156
26.5884 22.7031 19.4559
27.0832 23.0336 19.7546
26.7706 22.9244 19.915
26.8822 22.7092 19.5166
26.0207 22.5124 19.6634
25.6594 21.868 18.9941
26.4393 22.8907 19.8882
26.905 23.5572 20.7861
25.8589 22.3917 19.5829
24.7475 22.1039 20.0087
24.9628 21.6005 19.1621
25.7493 22.9913 20.7239
26.3185 23.5477 21.2921
24.9563 22.6452 21.1283
29.1284 27.6004 26.6336
24.7532 24.9914 32.4659
115.676 97.1885 72.2114
24.4376 23.3343 23.2191
30.1056 27.8696 25.4793
24.643 22.5857 21.2189
25.5707 23.6771 21.9346
25.3923 23.5676 22.0872
23.7514 21.8447 20.4901
23.8993 22.2514 20.9991
24.5483 23.0513 21.7845
23.028 21.1413 19.8749
24.0546 22.7921 21.6431
23.0139 21.9253 21.193
23.4414 21.8676 20.8002
24.0237 22.8375 21.7106
22.8498 21.8719 21.3485
23.4624 22.3532 21.439
22.3913 21.7069 21.3407
23.3718 22.2693 21.3694
21.8689 21.5038 21.5036
23.3292 22.5029 21.8957
22.021 21.4563 21.1575
21.827 21.4384 21.2815
22.2496 22.1329 22.2966
22.4924 22.6311 24.3184
35.1428 33.9848 31.0816
21.6384 21.9782 22.6527
21.7922 21.8548 22.4946
22.6776 22.6315 22.7857
21.8353 21.7485 21.9764
21.6244 21.8899 22.4017
22.5192 23.0195 23.6439
21.7764 21.9209 22.4044
21.9297 22.5204 23.1798
21.0953 21.7442 22.562
20.5521 21.0871 22.1116
20.9189 21.5331 22.5278
22.5176 23.2905 24.0546
21.098 22.0391 23.2893
21.2791 22.2828 23.7494
20.9874 21.546 22.555
21.2904 22.4018 23.5387
20.1646 21.442 23.1489
20.5075 21.6783 23.1984
20.4553 21.5079 22.9955
20.6559 21.8601 23.4359
20.0146 21.632 23.6622
21.0513 22.3324 23.938
20.2574 22.1022 24.4326
20.8556 22.4098 24.283
20.0809 21.6855 23.6567
19.4727 21.3659 23.7817
20.3425 22.0441 24.156
19.1369 21.1107 23.6585
20.0501 21.9904 24.3229
19.6659 21.9769 24.8802
19.7905 21.4192 23.5316
19.2742 21.6677 24.456
19.442 21.5502 23.9702
18.8363 21.2645 24.2357
18.7644 21.2117 24.337
19.1894 21.5714 24.4299
19.2685 22.0587 25.3831
18.8451 21.2834 24.4426
18.816 21.2476 24.1358
18.5132 21.6192 25.5039
19.2089 21.5822 24.9354
19.1588 21.8155 25.1121
18.4376 21.2767 24.7961
18.5929 21.6488 25.1616
18.3995 21.8077 26.1548
18.9373 21.8426 25.646
18.1065 21.1452 25.3738
19.1889 22.4114 26.3584
18.4433 21.7054 25.7495
18.3359 21.7454 26.0118
18.459 21.9547 26.3326
18.3827 21.8567 26.1057
17.9776 21.9023 26.8728
18.227 21.4999 25.7287
18.2383 21.8776 26.2052
17.1953 21.079 26.0999
17.8326 21.4404 25.82
17.452 21.4344 26.3903
17.3185 21.2253 26.4057
17.4186 21.2963 26.505
17.6084 21.5458 26.4908
17.0737 21.1181 26.6455
17.6368 21.5877 26.5811
17.4952 21.7113 27.0122
17.1854 21.237 26.4058
17.1589 21.8062 27.5784
17.4019 21.7798 27.4427
16.5852 20.6342 25.9272
17.1905 21.9181 27.8424
16.5893 20.9244 27.1136
17.5126 21.865 27.2509
16.3825 21.3476 28.0286
16.7622 20.8472 26.394
16.5799 21.6531 28.2056
16.6058 21.4707 27.8561
16.5213 21.6616 28.6028
16.4598 20.9718 27.3275
16.2675 20.9175 27.4153
16.0776 21.139 27.9468
16.624 21.6097 28.4586
16.1578 20.8197 27.3753
16.3317 21.2842 27.6549
15.6447 21.0776 28.2741
15.3261 20.3574 27.8631
16.2083 21.3944 28.6027
15.8811 21.0593 28.504
15.6739 20.4709 27.232
15.7549 21.1614 28.6359
15.5445 20.5944 27.5777
15.8255 21.5737 29.0706
15.2697 20.8219 28.7551
15.372 20.7726 28.4426
15.2133 20.3797 27.6218
14.7827 20.3985 28.8434
15.4462 21.7385 33.1606
23.6184 31.0518 38.6582
15.9604 21.4637 29.3894
15.2489 21.274 29.6628
15.1089 21.1015 29.5172
15.1357 21.1193 29.8226
15.2577 21.0137 29.487
14.901 20.6794 29.0364
14.5276 20.4412 29.3153
15.6834 21.8862 30.4166
14.5735 20.3457 28.7624
14.423 20.1551 28.5223
15.0213 21.5368 30.6348
15.0047 21.6863 31.2819
14.4085 20.2677 29.2263
14.0718 20.0872 29.3423
14.5686 20.391 28.81
14.0486 20.7501 30.4701
14.4187 20.6667 30.082
14.0993 20.3202 29.7507
14.3689 20.7415 29.9487
13.7228 20.0341 29.5855
13.9688 20.3649 29.9106
13.5658 20.0853 30.1907
14.0566 20.1769 29.3992
13.4661 19.5969 29.0705
13.9508 20.6175 30.2584
13.3198 19.9504 30.18
13.3426 19.8742 30.4013
14.0196 20.4731 30.2705
13.5587 20.2385 30.7268
14.3529 21.3504 31.6606
13.5616 20.2775 30.7747
13.4556 19.9023 29.8703
13.283 20.2209 30.8885
13.2548 19.7639 30.0866
13.2444 19.8862 30.1295
13.2448 20.0558 30.585
13.2534 20.2952 31.243
13.225 20.7746 32.8266
13.4627 20.1628 30.9654
13.1132 19.8302 30.1677
12.6923 20.0096 31.8652
13.2479 20.3998 31.7537
13.3018 20.4235 31.6295
12.5416 19.368 30.739
12.7303 19.426 30.1473
12.5863 20.0958 32.2822
12.9758 20.2367 32.2565
13.103 20.3969 31.8245
12.4476 19.3834 30.7988
12.2422 19.3448 30.978
12.2015 18.9968 30.5321
12.6967 19.6426 30.5252
12.1111 19.5852 31.5796
12.2296 19.7256 32.1218
12.2191 19.3704 31.7352
12.6323 19.7959 31.6969
12.4615 20.0034 32.0143
12.0127 19.3228 31.44
12.0931 19.3085 31.0118
11.9433 19.8303 32.5967
12.035 19.755 32.7818
12.2852 19.8278 32.444
11.6623 19.0565 31.7999
12.0219 19.4868 32.0877
12.1968 20.0975 33.0314
11.4113 18.5396 31.0297
11.8408 19.5471 32.3886
11.6602 19.3117 32.1067
11.7415 19.8575 33.2774
11.718 19.6026 33.09
11.3218 18.8396 31.9309
11.759 19.6287 33.2973
11.5292 19.2854 33.0632
11.4936 18.9192 31.851
11.6805 19.6766 33.3432
11.4078 19.1617 32.5147
11.3132 19.0476 32.3697
10.9951 18.7186 32.3603
11.093 18.8208 32.8909
11.6777 19.7454 33.4966
11.1875 18.9733 32.7896
11.6728 20.1979 34.5898
11.1511 19.1245 33.5074
11.3087 19.4009 33.5989
11.3671 19.6687 34.3652
11.4102 19.4821 33.5929
10.7228 18.6961 33.3163
10.666 18.1237 31.6933
11.2858 19.79 34.5176
10.8589 19.0666 33.9793
11.1896 19.8449 34.9439
10.5412 18.2992 33.0943
10.9933 19.4267 34.4517
10.9926 19.6411 35.4897
10.7012 19.4751 40.4035
17.4476 29.1584 43.7594
10.5812 19.1519 34.7281
10.7104 19.4208 34.6794
10.2703 18.7757 34.8344
10.7627 19.2235 34.4253
10.4311 19.044 35.1231
10.5342 18.7898 34.1105
10.3605 18.6921 34.2858
10.652 19.1316 34.5984
10.3405 18.5136 33.492
10.1111 18.5929 34.4873
10.1841 18.2745 33.057
9.7688 18.0251 33.3641
9.83257 18.2786 34.5762
9.86211 17.6528 32.5594
9.78605 18.062 33.9125
10.0153 18.4486 34.6211
10.2588 18.8987 35.3421
10.2187 18.7 34.6566
10.061 18.6618 34.8628
9.99191 18.6182 34.8319
9.92031 18.4443 34.2334
9.64407 18.4011 35.1949
9.79603 18.3829 35.2954
9.9881 18.3161 34.3353
9.57406 18.2008 35.0404
9.84103 18.1574 34.1552
9.7372 18.4136 35.1982
9.8949 18.8908 35.9714
9.52894 17.848 34.2331
9.39088 17.9184 34.7083
9.60885 18.226 34.7662
9.34211 17.9058 34.5048
9.09752 17.3519 34.2922
9.59304 18.0834 34.3464
9.19126 18.0121 35.6601
9.59549 18.1208 34.6031
9.00514 17.5701 35.3153
9.46624 17.9981 35.0947
9.486 18.5943 36.5847
9.49286 17.9456 34.4322
8.95485 17.8195 35.6605
9.22125 17.9753 35.5333
8.80304 16.9061 33.736
9.35594 18.3723 35.2837
8.54874 16.9621 34.2813
8.90141 17.702 35.198
8.86802 17.7295 36.8497
9.65402 18.4841 36.1885
9.07078 17.7642 35.084
8.67808 17.2395 34.9584
9.22369 18.5247 36.7386
8.64884 17.3917 36.0575
9.22326 18.1214 35.6432
8.7177 17.7997 36.782
8.92343 17.1953 33.9029
8.70458 18.1396 37.1877
8.95306 18.0664 36.3248
8.4814 17.19 35.3076
8.58484 17.4976 36.0438
8.20467 16.4422 34.3298
8.55575 17.6511 37.1374
8.90085 17.5674 35.3513
8.62684 18.0182 37.3334
8.62043 17.5317 36.2201
8.41634 17.1784 35.5288
8.54235 17.6398 36.5729
8.21659 17.1566 36.7521
8.66484 17.4004 35.6381
8.34481 17.2184 35.6141
8.06862 16.9995 36.2191
8.36201 17.3106 36.4754
8.52069 17.7624 36.9291
8.07143 16.8385 35.9868
8.12348 16.758 35.293
8.24436 17.1463 35.8277
8.26016 17.6304 36.9972
7.78235 16.4278 35.614
8.19795 17.5246 37.6628
8.14436 16.8433 36.2617
8.3487 17.6867 37.2817
7.94196 16.5381 35.2019
8.03164 17.1594 36.7521
7.99632 16.8576 35.5769
7.79415 17.0822 37.4888
8.22703 17.7363 38.4037
7.90026 16.5724 35.8284
7.79613 16.8278 36.6697
7.73002 16.4412 35.7233
7.52007 16.0843 35.2585
7.72511 16.8003 36.2094
7.5536 16.5321 36.9009
7.80832 16.8597 37.3549
7.92491 17.1346 37.573
7.88355 17.1676 37.4033
7.48701 17.6198 48.2205
12.7037 25.1382 44.685
7.85409 17.4318 36.7832
7.03536 16.0021 36.9466
7.5683 16.3801 35.9474
7.46844 16.7915 37.6853
7.55146 16.5063 36.9294
7.57894 16.7825 37.1715
7.60097 17.2644 39.3977
7.80362 16.9056 36.9492
7.4623 16.9487 38.4661
7.57379 16.6393 37.4363
7.51638 16.5715 36.3616
7.04415 16.0917 37.3096
7.45475 16.8002 38.1181
7.34327 16.4528 38.0989
7.4883 16.5043 37.0175
7.23718 16.4745 37.8561
7.44146 16.6033 37.146
7.20637 16.7228 38.5602
7.21962 16.4372 38.579
7.2712 15.8125 35.711
7.00875 16.2226 37.8198
7.2294 16.2228 36.8827
7.16016 16.4699 37.5623
7.04609 16.3338 38.2104
7.3238 16.4801 37.5345
7.06267 16.3723 37.7212
6.82593 15.5657 36.3927
6.94676 16.3218 37.7704
6.60717 15.1731 36.3737
6.83552 15.6647 37.7864
7.87008 19.1291 43.8029
6.98369 15.1979 35.8271
6.86813 16.0451 38.3259
6.95399 15.7053 36.5458
6.84313 15.7705 36.5403
6.6764 15.7347 36.8237
6.68951 15.9545 38.6548
6.85853 15.8858 36.8776
6.39647 15.0596 36.6013
6.83564 16.43 39.1957
6.60504 15.0214 36.3171
6.69548 15.749 37.7694
6.72692 15.6545 36.9013
6.55661 15.6718 37.7755
6.3365 14.6419 35.5963
6.51433 15.7422 39.0903
7.13944 16.5202 38.3654
6.64159 16.1344 39.3633
6.79727 15.8878 37.368
6.24466 14.9414 36.6855
6.49284 15.5925 37.8185
6.3804 15.1801 36.9704
6.42699 15.4422 37.9668
6.47284 15.1653 35.6981
6.16161 15.449 38.1225
6.31896 15.1491 36.9691
6.29977 15.4944 38.2877
