# pn-170911/RbIIR-48-WTZR-1280-1959.psd
# Power spectrum* (dif=0,1,2) (really just |FT|^2)
# NOTE: only the first half! (symmetric)
# weeks: 1280-1959
# 19 clock-days, 0 excluded
# PSD: 1441
512.944 0.0518004 0.0375967
13719.5 0.235847 0.0673386
93575.8 2.2431 0.1172
14454.2 0.483391 0.0966899
27630 2.34345 0.0901537
6913.21 0.622297 0.0928685
3553.72 0.460056 0.159189
1989.06 0.395745 0.135791
2567.72 0.772951 0.12561
1325.73 0.302634 0.0751946
1523.86 0.605905 0.125499
1055.82 0.492585 0.108799
989.582 0.582173 0.0531072
902.089 0.504234 0.210072
627.977 0.523546 0.101867
681.532 0.391049 0.132231
652.591 0.589441 0.120308
548.21 0.599458 0.0779894
620.127 0.820821 0.0938531
607.007 0.897436 0.153349
436.119 0.865356 0.117972
474.615 0.711342 0.151844
329.363 0.518439 0.129346
338.09 0.79228 0.11334
482.061 1.06091 0.101092
327.271 0.749123 0.0931326
334.865 0.864101 0.136137
299.67 0.870734 0.132681
342.115 1.13894 0.188635
347.701 1.16696 0.130116
321.059 1.16609 0.0682666
358.91 1.37185 0.172552
246.315 0.883 0.102924
327.129 1.42474 0.0958563
184.997 1.10733 0.187889
345.989 1.9018 0.123142
198.842 1.15727 0.135097
212.539 1.2373 0.148359
302.511 1.76776 0.0838707
195.417 1.02875 0.122607
340.467 2.20466 0.137196
244.571 1.74282 0.153335
261.048 2.17536 0.199425
168.414 1.55589 0.10423
230.508 1.87169 0.169772
273.147 2.24358 0.128151
357.989 3.10486 0.103814
341.218 3.24776 0.155543
197.763 2.11043 0.204864
256.079 2.56281 0.169761
210.11 2.44935 0.203032
210.548 2.76496 0.152029
197.67 2.46146 0.127107
211.147 2.67925 0.11588
157.882 2.107 0.163985
200.079 2.87002 0.231169
158.683 2.18018 0.0969169
221.571 3.3366 0.262416
255.751 4.42876 0.117844
177.143 2.93776 0.140593
169.258 2.79841 0.165006
288.936 4.8453 0.222634
196.379 3.32534 0.209716
178.295 3.54024 0.238795
186.254 4.07692 0.19527
259.495 4.77604 0.313007
133.575 2.80139 0.119362
227.296 4.3644 0.186162
150.862 3.09111 0.284741
175.328 3.15645 0.139302
152.04 3.52547 0.242708
151.852 3.5514 0.169544
156.779 3.62531 0.165411
160.185 3.41981 0.137523
215.571 5.76527 0.267022
204.998 5.46858 0.228587
112.276 3.05474 0.284308
219.116 5.64348 0.294208
127.468 3.62357 0.248569
114.16 3.43724 0.162633
207.252 6.49101 0.254814
140.587 4.24468 0.299738
197.231 6.67673 0.311459
123.618 4.06613 0.34049
210.767 6.82699 0.277438
158.573 5.37327 0.274782
183.891 6.24897 0.468027
223.637 7.55881 0.263924
241.25 9.0577 0.400087
141.063 5.03635 0.316764
177.532 6.21685 0.387937
158.037 6.71267 0.401375
170.708 7.0072 0.397373
219.158 8.67413 0.51518
131.353 5.67956 0.267102
156.972 6.02631 0.395272
271.64 10.326 0.503031
196.64 8.84408 0.475864
229.24 10.4083 0.397729
198.312 8.89001 0.538132
185.302 8.30736 0.396114
162.249 7.82122 0.421709
95.0231 4.78377 0.227456
210.477 10.6842 0.598474
193.674 9.91615 0.60386
221.66 10.642 0.6125
157.893 8.02054 0.545893
155.017 9.17093 0.787555
131.202 6.77077 0.41738
166.293 8.88347 0.625675
157.159 7.86055 0.537584
102.772 6.29305 0.387236
92.6194 5.76475 0.613185
188.621 10.354 0.608462
177.371 10.816 0.750745
128.308 8.08763 0.552765
217.305 13.5634 0.912082
142.043 9.12594 0.627364
136.209 8.81795 0.742224
137.205 9.14239 0.716582
307.179 19.4801 1.63723
103.942 7.23348 0.621616
113.252 8.42062 0.749087
118.164 7.95109 0.689198
92.547 7.11543 0.714027
143.291 10.2439 0.886988
110.859 8.23647 0.710301
103.452 7.10843 0.55831
168.195 13.4754 1.05571
155.199 11.8099 1.05148
182.196 15.8603 1.6238
103.689 7.90769 0.745058
113.935 9.99129 0.859738
171.597 13.475 1.19815
114.615 9.8693 0.82241
111.021 10.1434 1.03052
97.5248 8.3067 0.82497
120.291 10.4883 1.05921
101.603 9.23063 1.01316
151.709 13.2266 1.15582
119.903 10.8443 1.00154
125.715 11.1581 1.23618
127.544 11.6528 1.19675
82.9348 8.24883 0.983522
109.636 10.4377 1.22256
136.313 12.5825 1.23729
142.585 14.2581 1.57502
113.701 10.8718 1.1181
175.951 16.3753 1.83377
128.358 14.5609 1.59187
143.814 15.7998 1.91415
138.05 13.7268 1.28829
181.759 19.1905 2.16616
185.525 21.5079 2.36067
104.496 11.2447 1.22448
136.437 15.2747 1.77857
98.8079 11.2541 1.26068
129.832 14.7343 1.59327
113.413 13.6532 1.59203
112.803 13.433 1.69379
135.572 15.7295 2.27179
133.199 15.2169 1.78776
116.973 15.3311 2.05118
102.569 11.892 1.41666
137.142 17.6445 2.3087
125.889 16.1417 2.17167
88.154 10.8407 1.38095
101.988 13.3966 1.92719
81.546 11.8687 1.62409
90.1551 11.6798 1.6248
79.345 10.8904 1.57844
107.321 14.2203 1.94931
133.758 18.3664 2.98542
137.505 18.1895 2.43599
131.556 18.4971 2.89062
118.01 17.3685 2.12477
105.064 14.9428 2.17387
100.704 13.2179 1.8326
114.195 16.6014 2.47924
112.317 18.2907 2.63883
81.804 13.2125 2.14543
138.257 20.3637 3.08645
124.454 18.9033 3.04811
78.4675 12.2239 1.72111
122.263 19.5228 3.49399
88.3655 13.2448 1.81492
87.2372 14.3869 2.70033
88.111 13.8002 2.34362
100.972 17.3566 3.17514
89.1528 16.4889 2.96558
89.3729 14.9375 2.81845
109.308 20.1821 3.50012
137.379 23.6316 4.02402
94.2504 16.0645 2.67575
86.1597 17.4111 3.15674
129.967 23.6507 4.2633
63.3808 11.1304 2.04487
59.2901 10.6258 1.91401
72.7968 14.3683 2.53299
88.9674 16.3435 3.06598
84.9363 16.3793 3.16039
64.2681 11.7779 2.42198
86.7897 16.6765 3.4128
118.458 21.9776 3.68756
82.7732 17.9819 3.8243
97.5527 18.2226 3.70543
85.4373 17.3108 3.19397
99.4399 20.4574 4.27199
126.827 25.4591 5.04962
72.7156 14.7452 2.92076
74.474 13.3342 2.64294
87.8196 19.4118 4.14539
119.273 23.9224 5.00238
96.9171 19.2346 4.26736
78.8976 18.2392 4.16442
66.6895 14.335 3.26253
64.4583 12.8598 2.76501
96.6986 19.951 4.50525
83.7375 18.3411 3.76814
71.8568 16.5 3.54957
63.5535 14.4691 3.48739
46.7541 11.831 3.06082
66.7829 14.1661 3.26838
84.3155 18.4774 4.17355
86.4882 19.7918 4.12347
75.4201 17.4953 4.33866
67.8528 17.5313 3.87334
63.7274 15.3166 3.87916
82.5121 18.4531 4.46569
96.7935 23.3379 5.24242
62.81 15.8468 3.93382
89.177 21.6923 5.36719
66.8068 18.0221 4.73832
71.8865 16.507 3.73591
83.4641 22.7795 6.426
91.8182 22.0391 5.39473
110.453 29.6985 7.74149
50.5478 14.3941 4.28892
44.5755 11.6012 2.81586
73.103 18.4614 4.38862
74.943 20.0206 5.39547
74.047 18.487 4.64256
54.1469 15.0752 4.17801
90.8871 24.9934 7.09732
91.5959 22.6855 5.35047
75.1992 21.6977 6.2602
76.8768 22.1922 6.38716
75.7658 20.7732 6.07284
81.1371 23.5279 6.6399
56.4571 18.1404 5.33217
73.5908 20.5804 6.09565
73.4386 21.8732 7.00912
88.1275 27.7228 8.65398
85.575 23.7616 6.66234
83.8276 24.1453 7.23109
75.4604 21.786 6.50489
48.2264 14.6586 4.86652
72.447 20.1614 5.73349
56.4838 17.5521 5.70203
69.9036 20.7647 6.34362
44.69 15.0836 5.07317
81.8397 25.7335 7.15657
85.325 27.7069 9.07962
73.8321 23.1051 7.3788
62.8478 21.2879 7.15659
55.204 16.6646 5.52574
45.3339 13.246 4.41747
49.7651 15.3105 5.02167
79.7348 24.9507 7.35966
71.7872 24.6471 8.56409
83.2483 28.6554 8.90425
38.5771 13.3691 4.71601
77.5758 25.031 8.55947
78.1043 28.1409 10.6402
52.6191 17.2438 5.7631
46.2978 16.9944 6.65176
69.1529 23.3082 7.55002
46.7079 17.4209 6.7681
77.6265 27.4621 9.28147
44.0911 16.3512 5.58357
49.0798 18.687 7.60201
39.9676 13.5568 5.51755
82.6005 29.4826 11.1264
61.685 21.3764 7.89948
85.1505 31.412 11.5263
59.3173 20.9563 7.59792
41.9468 17.2889 7.32968
50.7792 19.0818 8.66131
136.471 49.0639 16.2006
84.4295 37.4584 16.3552
55.6555 20.8619 7.34068
43.6521 16.8135 6.68076
40.9072 16.5622 6.51321
45.6805 20.3117 8.43613
32.17 12.6391 5.28228
76.2419 30.7656 12.0399
82.6147 33.7777 13.6709
48.1058 18.0702 7.21524
40.8096 16.4936 6.85835
41.631 18.4264 7.90709
59.313 22.8067 8.56895
47.5357 22.3735 9.5409
42.0509 18.7138 8.25016
40.0597 16.4101 6.82622
53.131 21.8292 9.45955
43.9603 17.6779 7.48339
54.867 25.3482 11.1427
43.6323 19.9104 9.82896
52.5298 18.5618 6.2929
41.9903 19.379 9.16771
59.5158 24.5446 9.55139
58.3344 27.4192 12.0492
62.3275 27.1728 11.3489
39.238 16.5711 7.14727
48.9679 22.9747 10.8626
46.991 21.3425 10.1784
47.6325 22.4115 10.6822
46.5444 19.7292 9.00502
32.6606 14.1096 6.69662
69.8653 31.2262 12.7049
44.9752 22.2498 10.6617
71.4415 32.5425 13.9484
52.0772 25.5686 12.5487
50.3628 23.478 10.9639
32.281 18.2282 10.2429
42.9851 21.3266 10.9813
68.6972 28.7965 12.3358
53.6343 28.5025 14.5344
38.6473 17.4318 8.1978
47.0541 25.2189 12.005
41.7527 20.608 10.4518
36.3333 17.2437 8.47027
37.8065 17.7263 8.46533
33.1208 17.0566 9.22745
40.8304 21.037 11.1912
41.7304 22.8061 12.1673
42.4599 21.9889 11.8768
57.8112 27.0537 12.3829
55.788 30.7987 15.6604
42.5118 21.4679 11.5875
38.7782 22.6144 13.4365
66.2316 31.287 15.8596
45.8129 21.3417 10.8471
59.5519 32.9286 17.881
51.0182 26.1947 13.4835
37.2506 21.4341 11.5496
40.7367 22.5106 13.325
55.8446 30.237 15.7258
33.6894 18.3285 11.1392
38.5307 17.5578 8.41505
32.4826 19.8052 11.1575
32.469 16.4077 8.8157
47.1589 25.2758 12.793
32.3228 19.8239 11.8233
24.5234 14.4467 9.95893
40.4705 21.8452 11.2013
32.1869 19.0016 10.8847
47.7379 26.9125 14.1849
31.7894 19.3451 12.3301
59.9363 34.4846 18.2506
33.2097 19.7778 11.6898
37.5585 21.8136 12.5069
33.7763 20.5454 11.8657
33.6934 18.0622 10.3036
32.0045 19.796 11.842
39.9538 23.3515 13.4917
15.2078 9.89254 6.85942
39.0224 24.1564 15.3823
43.6031 27.3547 18.1739
44.1159 25.9001 15.7882
37.087 20.6769 11.716
30.4472 20.2043 14.5318
34.9863 17.0558 8.6815
50.8908 35.363 22.687
42.8433 26.4142 16.7582
40.959 23.6475 13.5835
39.6557 24.6322 15.8056
43.9633 27.159 17.8432
40.0831 24.7638 15.3392
45.5468 32.2367 22.0265
39.0377 22.2446 13.9678
48.3239 32.3732 20.7782
37.4875 26.619 19.432
40.2182 28.2046 19.7423
52.0028 30.742 18.2841
35.7849 20.8579 13.2225
32.9746 22.0202 14.6384
38.3861 25.3151 17.3636
48.4776 34.0831 23.5304
30.8426 20.5436 15.0146
48.5486 31.7498 21.0774
22.7686 14.8288 11.8609
50.3399 33.9511 22.3443
40.6682 26.8142 18.7138
53.4526 36.3336 23.8717
42.6141 26.5932 17.6494
39.8823 31.2677 21.6009
26.8545 21.934 18.8779
40.3023 24.8702 16.4061
39.7629 26.6756 17.0405
30.2764 24.4815 19.757
32.9826 22.5941 15.6643
35.0633 24.7075 17.1255
31.2548 21.3008 15.54
40.3339 33.0201 24.977
41.9454 28.1378 18.5435
38.7386 27.4335 19.6673
38.3261 30.8383 23.6152
32.9999 20.7698 14.7881
43.4445 32.16 22.6672
39.904 32.5748 23.9686
32.8317 27.2608 21.7754
46.0008 33.0499 24.3738
34.3338 25.9435 21.8221
51.2542 37.0683 25.8664
25.205 17.5625 12.4834
45.5847 34.9334 24.8358
30.7131 25.4938 19.8249
24.3691 18.9724 15.2785
33.8818 27.3088 19.8358
34.7106 27.9366 21.6173
28.3967 21.897 18.0486
45.252 38.3865 31.4912
32.7309 23.8755 19.2209
26.3997 17.2072 12.1022
38.8714 31.5459 25.0313
27.2684 22.2218 16.6451
26.8408 24.936 21.5235
27.9535 23.3576 20.072
29.8928 22.1151 18.3688
24.7165 16.2636 11.375
28.1968 26.8691 24.6224
28.8033 22.3537 17.5947
34.4672 29.7726 24.3329
25.921 19.8922 17.2941
39.091 37.9296 33.5158
31.3753 19.904 14.4745
34.1035 27.0843 22.1863
38.5143 34.8942 30.5739
21.8848 18.5504 18.3326
44.2318 35.5786 28.8413
32.1248 24.4708 18.6474
33.9946 28.2631 22.5337
20.74 16.1239 13.3338
32.2655 29.7592 25.6236
29.7134 24.631 18.7696
19.6654 21.2545 22.2024
17.7519 17.2135 18.7938
45.3813 38.3717 33.0615
30.9016 21.7905 15.6832
21.791 23.2771 23.3526
28.9251 24.0027 20.2301
19.1337 16.5463 13.8906
21.8192 18.9919 16.3569
20.1391 18.1176 19.05
37.6681 31.6911 24.7255
27.7366 28.4068 25.9894
30.2431 28.3029 26.2476
28.1276 23.9538 20.5055
25.0461 27.9953 30.1267
26.377 22.4876 21.8425
32.0733 28.8779 27.3578
26.59 21.7686 18.4038
21.2042 18.2183 16.8112
22.9034 20.8305 18.479
28.749 28.7227 27.7609
26.5522 24.0439 23.7227
26.9524 22.1539 19.7696
25.6428 23.7165 21.3228
27.7026 25.6077 22.1391
24.8319 25.6234 25.1836
25.9922 26.7123 28.4723
25.0061 24.3893 25.7323
25.2807 21.5404 19.2217
25.5312 25.2484 24.9216
31.6743 30.1054 25.7706
18.4307 19.0323 20.7278
24.5812 23.5818 23.6933
21.7032 20.3205 19.6199
34.2109 38.5736 40.8599
29.5 24.9433 21.8855
20.0742 19.42 19.0828
17.5647 17.5598 18.7811
22.7191 23.3719 23.9296
25.5327 24.2912 24.0168
32.1331 34.4203 33.6022
19.9212 21.0752 24.1234
32.945 36.1341 37.2324
23.8761 21.9688 23.3182
31.6598 28.4323 25.686
30.1845 31.404 32.6039
25.9087 24.8433 24.3942
27.8871 30.7188 33.1092
24.7263 23.2785 24.4203
37.6618 40.3105 39.5263
23.1383 24.0048 23.725
19.2758 22.0753 25.0657
21.0766 21.0544 21.4725
27.7346 30.4363 34.453
15.8018 12.0445 12.2613
33.7404 38.382 38.9163
23.9152 28.7035 32.9419
19.8905 21.6432 25.0591
17.2887 17.2435 19.6564
22.1563 26.4932 30.8097
20.8287 22.8619 25.4576
28.8848 29.7098 32.0901
31.7975 37.1476 39.6855
17.4692 17.4127 19.8811
17.2396 19.0014 20.2298
19.0017 25.6622 31.5286
22.0703 22.7495 26.6261
14.1213 15.0419 18.5533
26.761 34.0412 42.5264
25.0861 24.3015 24.9158
25.2947 28.8408 30.8733
17.5544 21.6133 27.292
24.8118 25.8454 27.803
18.2487 19.297 22.044
28.9934 33.4539 35.5876
16.69 22.2082 28.2721
22.5808 24.753 27.7025
18.4075 21.537 24.9649
17.7129 19.9511 25.4319
22.815 25.5583 26.9392
22.7218 27.0646 33.3832
23.1947 23.7615 26.3738
17.4025 18.0374 19.8323
16.2213 19.3616 23.8072
19.839 21.9985 23.7305
15.2185 19.8659 23.9584
16.5135 20.316 25.8462
20.0598 24.4966 27.1747
18.5293 25.6673 34.908
30.3208 41.6344 51.8922
27.1817 29.6323 34.5886
20.3384 25.8207 36.199
23.8107 25.5508 29.3258
21.9898 24.8471 27.0184
15.3036 17.8316 21.8135
16.3879 20.0104 27.5691
28.1739 35.0393 40.8739
28.1826 32.7848 36.7035
15.895 18.4037 24.047
17.2793 23.7641 31.9191
20.3134 26.404 38.1469
23.3983 23.7663 26.3462
18.5909 23.8786 28.5958
16.8486 22.7587 29.2644
18.5974 24.0674 31.3032
14.4266 19.6011 31.8729
24.2437 29.1984 38.1176
20.6215 24.8947 32.7088
23.4846 26.877 30.3494
19.0109 24.0801 30.8638
22.3326 29.8518 38.4803
23.2491 27.9869 34.119
13.2209 17.872 26.8785
23.4049 28.845 31.2241
14.3007 24.9053 38.1252
18.0301 25.0949 36.6652
19.7468 23.0228 32.7619
22.5924 25.4258 27.7322
19.9936 28.423 39.208
14.9694 21.096 32.9997
26.3497 38.0032 50.9338
31.018 38.1399 42.6427
20.451 34.9291 56.9234
31.5615 39.9219 50.35
18.8536 22.3886 30.3054
17.421 23.2611 32.1434
17.0609 23.4258 33.8489
24.4274 32.8567 43.8981
18.7711 22.3224 26.8895
15.5946 24.2178 35.9492
15.3305 21.3169 38.5487
40.1487 51.7052 56.6586
10.4671 13.1312 23.8289
23.8225 30.6037 35.6303
20.5543 29.6133 39.0345
10.8966 14.8331 22.8595
18.181 24.7656 34.3125
13.764 19.6397 30.7519
16.4817 21.2954 27.2459
16.0168 27.2634 47.4397
20.8568 28.6931 40.7058
22.8205 30.7469 40.7362
19.8596 30.7285 43.629
14.1901 17.297 22.2993
10.6763 12.5654 18.6959
15.9762 21.4799 25.753
16.6948 26.149 39.0976
21.6816 29.9104 37.2076
13.811 21.5536 33.5229
19.9948 31.8019 43.8517
18.5717 29.9972 47.261
11.1827 14.4585 24.3614
12.6597 18.5186 28.7219
15.1381 20.8223 28.9582
16.5611 26.126 37.1029
13.7841 24.3601 40.9515
17.3887 23.0398 32.6181
19.7882 28.5379 43.9713
19.6385 28.5813 39.6362
14.9097 22.1024 33.897
12.8215 16.0144 22.4592
12.3647 20.5833 32.3215
14.4477 22.7619 38.3141
17.2647 20.9144 28.1314
14.6132 21.8919 30.3609
10.8982 16.1795 28.1668
16.0143 22.6373 34.019
16.7372 23.6828 33.8024
16.5202 22.5158 28.8515
14.1577 23.3965 33.2363
7.96484 15.6222 31.6385
15.0757 22.6525 35.2957
13.3753 17.9558 22.282
8.72325 18.9562 39.3888
22.6913 32.0332 46.9291
13.4174 19.1287 27.4175
15.4488 26.3337 45.5341
15.4209 22.7994 35.5055
15.1678 25.6007 42.869
18.6848 28.0935 41.0638
13.2395 17.8364 24.9131
14.2107 24.8198 35.9405
15.7987 26.6883 44.2347
15.0586 23.9755 39.642
9.86265 12.1009 20.166
12.2159 20.2606 31.4378
11.5131 23.2957 44.5444
14.8674 16.7937 20.1731
13.6158 25.8635 46.1485
18.2487 27.0738 39.4612
12.0658 21.5199 36.0494
12.719 19.2905 29.8821
12.6564 20.7702 35.8776
12.4865 16.7277 28.1897
16.6282 26.6219 37.9973
15.213 26.2123 37.7731
7.7311 18.6437 40.739
9.7701 14.7559 31.8226
14.8181 20.7038 31.854
17.201 27.7503 40.974
14.9971 30.3769 55.7857
20.0858 35.2345 61.8769
20.9532 29.0557 36.1139
8.62877 18.4927 42.1198
22.3552 38.7908 61.1817
13.7128 21.7375 40.2096
15.5417 23.0519 29.7578
8.34872 17.1117 36.5915
12.3071 19.9802 36.7594
13.4154 23.2281 38.3376
12.4759 17.6927 25.6955
7.44614 13.9629 28.9139
15.9459 27.2256 40.2975
9.7099 22.2185 49.7545
15.5273 22.4092 32.9696
10.6818 16.8907 26.4664
8.81262 18.5272 38.6535
11.3583 17.2874 29.0617
13.4782 25.2703 48.5236
16.4822 24.8249 41.0991
15.8268 28.3156 48.2714
11.5768 20.8894 37.5678
10.423 19.5854 37.8229
11.8878 21.3658 38.2223
11.5816 20.6088 39.0985
11.4858 22.4814 44.04
14.5995 25.131 45.9353
15.9441 22.8874 34.3911
13.1187 23.8864 39.2757
10.0462 20.6651 45.7018
9.17991 10.7454 19.7676
13.4593 26.9701 48.2125
8.74139 18.669 48.952
18.1196 29.5414 45.7082
12.4482 18.0763 27.1113
11.9695 24.5591 49.5223
9.81812 11.3789 22.2982
11.5412 20.7707 32.0815
10.3872 21.4835 39.8227
11.2784 24.4422 54.0466
14.5853 24.2622 45.7382
17.8145 26.8689 36.9755
10.3679 21.0542 39.4719
8.87969 15.9659 32.0213
10.1279 16.112 23.5933
9.62169 21.2424 38.3659
11.7316 24.1433 44.1875
10.7243 19.7264 41.8806
10.9312 14.1617 20.4654
8.2521 17.0141 31.3505
9.0571 20.5169 44.5638
13.3014 20.9024 31.9225
8.50679 17.5193 39.6573
13.9746 24.0467 40.3844
12.8622 25.1818 45.069
11.6972 23.0861 39.8502
7.11837 13.6044 33.5504
10.5175 17.8789 34.4283
15.5268 27.4542 45.0283
7.79531 16.44 34.0694
11.1892 19.4363 31.7142
7.73061 16.6514 33.0055
6.61386 13.5614 41.379
18.4985 34.3028 54.4347
14.6949 35.1416 70.1888
13.8715 24.9925 46.2591
9.89238 20.0491 48.0597
14.6449 25.6933 42.0586
8.55759 16.8242 39.1288
11.001 20.1683 35.469
10.6855 24.3594 50.0358
12.2629 25.0146 53.5236
11.1605 18.8202 36.3179
9.07102 14.6596 26.2829
9.47876 22.2879 47.9175
12.1729 25.3232 53.953
12.8793 20.7659 36.7469
12.3374 26.8467 55.4375
14.6804 28.0068 51.0379
7.57391 12.0773 24.3985
7.04849 18.8893 44.8538
9.68195 16.769 36.2564
12.527 24.9313 42.7912
8.06242 16.9491 30.054
8.65986 21.6227 42.6458
8.70618 15.9302 30.1555
8.28454 20.0852 42.2895
7.32851 18.5712 43.2478
9.97831 19.8563 46.4056
14.1127 27.4175 50.4714
8.33628 19.2326 52.1325
14.8205 26.2821 46.5602
9.75122 19.8275 41.5673
7.40332 15.6535 37.5528
9.27926 16.8788 36.8882
8.9293 16.3186 40.5086
13.0215 21.7176 32.2024
7.74698 18.3463 42.126
11.4113 20.5223 33.2187
9.28995 26.115 58.9728
10.2997 19.4516 42.7939
10.7238 22.0149 42.5018
7.33025 14.0632 31.5397
11.4457 26.7957 57.6485
8.63771 19.8364 43.6146
9.31801 20.5103 52.2305
13.4024 24.1307 44.347
6.06198 12.3472 31.1819
7.64314 16.438 39.2717
8.78813 18.5075 41.7592
8.28066 16.3513 31.9053
5.39008 13.6246 46.3021
12.8933 18.4036 27.3315
8.07097 18.7701 37.5747
8.99963 24.9468 61.0512
12.423 24.0992 50.484
7.04763 12.9813 25.7284
7.5457 20.5732 53.8207
10.0673 18.2323 40.6196
9.81643 16.6449 30.783
6.71195 15.374 30.6958
6.16608 13.3885 33.6023
6.06802 11.2659 34.9983
14.3555 29.2539 45.8374
8.77117 24.1461 51.0222
7.89954 17.7319 41.1695
9.1229 22.1679 45.6841
7.68996 20.286 50.149
7.72406 14.94 38.5891
9.87051 16.8746 33.0295
11.145 28.0922 54.2894
8.25084 19.779 43.8441
7.22424 16.6398 41.131
7.75598 15.8078 39.6932
10.1625 23.2964 56.1255
8.41235 13.9677 30.3262
8.40394 19.6901 47.7644
10.1691 19.9911 36.7066
7.99924 22.9033 53.1565
9.35786 19.5271 39.6513
6.95172 18.8948 56.9697
11.0097 20.6182 41.5531
9.09485 16.5417 33.1065
8.55929 21.3907 46.9106
7.55701 16.7853 43.1109
8.55742 18.8236 39.5823
8.93097 20.3448 41.6791
5.7909 16.594 51.6813
11.355 22.9852 51.9443
11.0485 24.5505 40.6648
4.23383 14.5695 54.9963
11.2139 23.5655 44.3844
6.67745 14.2511 36.7251
8.54831 21.3986 45.1992
7.59818 18.8603 43.3993
8.12824 17.2276 37.5672
6.61883 16.5969 43.1442
8.10788 22.2262 57.9087
10.1035 20.6659 43.5891
9.1066 20.9158 45.2355
8.42393 23.8141 61.545
10.3425 21.2193 42.2304
8.34395 21.472 50.5241
7.07986 15.4188 34.6511
5.04834 15.598 56.8021
10.524 15.5765 31.2091
10.6478 29.0282 57.0312
7.47845 23.3757 65.3745
9.08284 17.8885 50.1538
9.75886 16.8651 33.8682
9.14334 22.7334 54.8269
8.48134 20.2823 48.1179
7.70845 18.445 45.719
7.9567 18.3848 51.4632
10.753 23.7482 45.2906
7.39451 18.2318 34.9744
4.92812 15.8392 37.787
4.72918 13.3624 45.6985
6.61082 13.7664 40.2961
7.24107 15.0489 31.8389
6.2649 15.7345 42.9733
6.6721 12.9068 29.3379
5.19453 12.4809 27.7314
7.41718 19.9307 48.2087
6.89341 15.5192 40.6756
