# pn-170911/RbIIR-41-RbIIF-1280-1959.psd
# Power spectrum* (dif=0,1,2) (really just |FT|^2)
# NOTE: only the first half! (symmetric)
# weeks: 1280-1959
# 2433 clock-days, 110 excluded
# PSD: 1441
814.056 0.219098 0.0215634
34054.8 0.694794 0.0287411
139122 3.80421 0.0288769
25009.8 0.821633 0.0296535
63480.5 5.46261 0.029514
7843.55 0.720453 0.0308774
7650.08 1.4786 0.0291875
3901.11 0.675577 0.0306739
4282.97 1.21124 0.0293204
2561.17 0.684728 0.0293523
2255.03 0.881527 0.0290605
1611.95 0.682272 0.0305845
1815.87 0.968948 0.0297585
1201.5 0.711793 0.030702
1204.56 0.914069 0.0302059
989.063 0.766919 0.0300906
967.874 0.940115 0.0324924
760.638 0.799377 0.0305591
836.412 0.99794 0.0306395
684.326 0.894368 0.0314084
689.775 1.05296 0.0310183
577.779 0.953195 0.0325593
582.892 1.1207 0.0308021
496.532 0.994789 0.0314096
551.587 1.25975 0.0324936
441.558 1.08573 0.0318108
501.529 1.33391 0.0328999
420.483 1.1779 0.0345528
455.236 1.43259 0.0350056
384.986 1.34174 0.0346552
426.894 1.58173 0.037418
373.084 1.40487 0.0358479
415.766 1.73156 0.03733
349.205 1.54384 0.0368394
367.894 1.82562 0.0395971
344.174 1.74863 0.0400653
353.331 1.96034 0.04106
318.489 1.83711 0.0408752
343.556 2.07423 0.0445959
306.08 1.9732 0.0439677
355.223 2.3987 0.0497797
298.392 2.10858 0.04526
338.681 2.49696 0.0501387
310.798 2.47694 0.0516722
325.265 2.68239 0.0554957
293.139 2.56258 0.0533267
300.048 2.7399 0.0577732
285.296 2.7432 0.0592344
306.275 3.08124 0.0640768
271.797 2.83524 0.0610696
284.968 3.12981 0.0672629
277.596 3.11961 0.0679398
291.244 3.45498 0.0720801
278.703 3.37644 0.077249
274.841 3.58079 0.0796175
272.445 3.59808 0.0820462
271.441 3.79036 0.0866757
261.622 3.73254 0.0833764
266.226 3.97201 0.0917644
252.558 3.87576 0.09212
261.671 4.07507 0.101291
250.984 4.11751 0.106166
264.625 4.52177 0.110853
243.462 4.31577 0.112035
251.399 4.61088 0.120696
248.017 4.725 0.124503
252.909 4.9496 0.129273
230.731 4.63563 0.132248
238.284 4.95067 0.137876
243.344 5.21056 0.143196
239.964 5.28648 0.155673
226.551 5.14872 0.151703
235.37 5.54782 0.166048
225.327 5.36385 0.167083
231.669 5.72171 0.178532
219.546 5.58098 0.178693
216.972 5.66292 0.190409
221.457 5.9487 0.195555
230.463 6.26366 0.21546
204.507 5.84589 0.204354
216.669 6.24325 0.22523
210.581 6.31089 0.223853
207.041 6.34954 0.231994
203.944 6.45321 0.241121
214.426 6.83911 0.265659
195.555 6.47535 0.250233
199.421 6.68652 0.268921
206.211 7.14541 0.277873
202.728 7.17576 0.288257
193.458 7.07408 0.298201
197.546 7.32305 0.310359
201.584 7.70479 0.324056
198.99 7.69797 0.337483
183.725 7.31215 0.32923
181.472 7.25721 0.327584
181.814 7.49433 0.346252
235.377 10.0406 0.466749
184.34 7.8816 0.375763
171.638 7.56354 0.371267
178.958 7.91519 0.389608
181.32 8.11438 0.409683
186.26 8.5719 0.450795
178.418 8.51445 0.44897
182.406 8.8088 0.473147
170.768 8.34797 0.457453
177.964 8.91451 0.479505
169.446 8.63594 0.485631
171.619 9.05456 0.515628
168.801 8.98561 0.528714
167.381 9.16629 0.54783
166.062 9.16861 0.548727
158.557 8.88229 0.544381
155.779 8.97648 0.556028
164.24 9.76912 0.622512
175.961 10.6148 0.676993
159.013 9.67286 0.628959
158.773 9.7944 0.642505
145.266 9.21843 0.622387
153.354 9.74525 0.676385
155.495 10.1737 0.705482
157.851 10.384 0.732395
147.945 9.86104 0.70874
137.906 9.42506 0.689909
147.937 10.2636 0.75815
147.475 10.4761 0.783608
140.178 10.0679 0.766204
152.893 11.1906 0.872367
139.084 10.3451 0.81909
138.747 10.5624 0.849381
137.676 10.4451 0.836315
142.46 11.0444 0.908105
150.457 12.0943 1.01272
145.871 11.6371 0.984901
139.367 11.2513 0.95643
136.761 11.223 0.974095
134.526 11.2421 0.984329
130.421 11.1513 0.999404
133.593 11.4524 1.04121
128.497 11.2161 1.02117
133.283 11.8334 1.1095
130.211 11.7384 1.10318
127.279 11.6215 1.11609
125.77 11.6466 1.12598
125.476 11.956 1.18645
131.483 12.6135 1.2661
128.215 12.2553 1.22946
118.324 11.6639 1.19342
123.431 12.1014 1.24775
124.442 12.6676 1.3448
120.082 12.2076 1.29266
122.138 12.7092 1.37672
124.879 12.9621 1.41143
117.614 12.4405 1.38088
116.219 12.6637 1.42457
123.628 13.3782 1.50282
116.072 12.7506 1.48831
124.316 13.6903 1.58077
110.15 12.5115 1.47263
114.63 13.2084 1.57321
111.224 12.932 1.56104
112.951 13.17 1.60439
114.787 13.709 1.6945
109.776 13.0355 1.62113
108.925 13.2695 1.67958
113.911 14.2713 1.83624
111.949 13.9903 1.8267
107.974 13.5407 1.76548
110.062 14.0743 1.86674
112.228 14.6706 1.98162
107.343 13.9433 1.89033
108.996 14.686 2.02018
111.408 14.9019 2.04824
105.378 14.3796 2.01496
102.746 14.0912 1.99595
102.083 14.11 2.0351
106.981 15.0326 2.18181
101.635 14.3337 2.10351
98.2362 14.1464 2.10983
102.78 15.1007 2.26422
102.985 15.3278 2.32323
99.9118 14.7821 2.26193
102.726 15.3373 2.38214
97.9114 14.7638 2.29754
97.1786 14.7082 2.33299
96.796 15.0895 2.4172
96.6744 15.1072 2.46467
96.4022 15.1101 2.47352
94.1513 14.9257 2.46099
96.1127 15.6437 2.61594
97.526 15.6193 2.64329
93.7334 15.421 2.62854
93.0102 15.4729 2.68509
120.455 20.3209 3.47167
94.5924 15.9203 2.79956
88.2049 15.2797 2.72102
92.3395 16.0826 2.89
88.8305 15.7066 2.8389
88.1905 15.674 2.86053
89.1126 16.0753 2.98017
87.855 15.9319 2.95605
85.668 15.7773 2.96799
86.3045 16.1757 3.1044
90.2063 16.8787 3.26344
85.5605 16.2537 3.15809
88.4187 16.8428 3.29729
87.2912 16.7823 3.31661
84.7456 16.3822 3.25113
85.0217 16.7198 3.38766
83.5452 16.4128 3.3152
82.2459 16.5542 3.41455
82.6838 16.6636 3.45635
83.74 17.1187 3.57758
80.6726 16.6919 3.53172
79.437 16.4382 3.50542
78.6509 16.5115 3.54109
84.7081 18.3522 4.02583
87.3597 18.4355 3.98012
80.4589 17.3596 3.8321
78.8331 17.2398 3.85471
77.5188 17.0753 3.835
80.8085 18.0851 4.12265
74.3885 16.5719 3.77896
79.4619 18.0208 4.15694
78.4615 17.9512 4.15449
74.4026 17.3006 4.08835
75.536 17.3631 4.09487
74.8347 17.5622 4.22028
75.3551 17.6362 4.26776
77.8622 18.5452 4.4861
72.65 17.3902 4.28209
74.1381 17.9577 4.39561
71.5624 17.3112 4.30129
72.5228 17.8859 4.50331
71.0736 17.8173 4.55909
69.1924 17.4726 4.49365
72.4368 18.1965 4.68833
71.6988 18.1859 4.70894
69.3033 17.7624 4.64794
68.7248 17.8636 4.73049
68.034 17.8429 4.80123
72.7876 19.1096 5.11482
67.9354 17.8714 4.83472
66.7265 17.824 4.87554
67.4304 18.3501 5.07289
67.3092 18.3335 5.10084
66.7736 18.3775 5.13926
67.8989 18.8182 5.30118
66.0558 18.4678 5.25077
68.1512 19.12 5.44049
67.2872 19.1598 5.49643
65.0164 18.5705 5.35827
65.1767 18.8542 5.54206
63.8251 18.579 5.51277
65.9316 19.1327 5.6663
62.71 18.5656 5.60152
63.3523 18.8889 5.72741
65.0215 19.2859 5.85609
61.9626 18.6824 5.81339
64.8331 19.4758 5.96167
63.0043 19.3213 6.01764
61.5996 18.9619 5.91776
62.4136 19.2718 6.08161
63.8037 19.9313 6.34354
60.2658 19.1067 6.17646
62.682 19.8578 6.416
63.583 20.2395 6.53999
59.8376 19.1266 6.23314
58.098 19.1085 6.40332
59.7088 19.7232 6.63674
59.8209 19.5129 6.48085
61.5908 20.5734 6.96563
60.6392 20.2097 6.84536
60.4989 20.3048 6.90424
58.5112 19.9241 6.9054
57.6465 19.568 6.80558
56.3317 19.4124 6.84317
59.1981 20.4241 7.16246
56.576 19.5897 6.96901
56.5995 19.6098 6.9001
56.5107 20.1811 7.24698
56.1533 20.0551 7.27324
53.7239 19.1671 6.95275
55.8157 20.2214 7.46522
54.9463 19.9784 7.38154
55.7599 20.1336 7.48561
54.5324 19.9269 7.47354
52.8297 19.7753 7.47243
52.869 19.9435 7.74383
70.8587 26.3479 9.84957
54.0288 20.2535 7.75601
52.9978 20.108 7.79418
52.9145 20.2402 7.83982
53.2741 20.3724 7.98671
53.7379 20.9093 8.28615
51.3354 20.0779 7.98942
50.9187 20.1644 8.12253
51.5349 20.4581 8.27557
53.1444 21.2626 8.65793
51.4317 20.5492 8.36912
50.8276 20.4968 8.44052
52.2371 20.9605 8.57922
50.6701 20.925 8.74435
50.0697 20.4457 8.47684
50.6936 20.9394 8.80377
49.7799 20.9639 8.90181
48.62 20.6409 8.87936
48.1966 20.3424 8.78833
48.4925 20.4601 8.79224
47.001 19.9307 8.68305
49.2591 21.1634 9.19513
47.601 20.694 9.15833
46.1021 20.3703 9.21661
49.5396 21.496 9.52576
47.8635 21.1582 9.48724
45.3911 20.2731 9.23918
46.4709 20.6898 9.39271
45.9153 20.6936 9.50224
46.4349 20.8157 9.52708
47.8607 21.6371 9.95093
46.8028 21.6572 10.1424
46.2233 21.2311 9.96278
46.828 21.5818 10.17
45.439 21.3139 10.121
46.6789 21.873 10.4079
45.9622 21.8042 10.4718
44.4575 21.1222 10.1678
43.2526 20.7603 10.0998
42.0169 20.1938 9.88578
43.3239 21.0139 10.2941
42.3253 20.4405 10.1402
42.9583 20.9255 10.3034
43.75 21.6975 10.878
41.3613 20.3719 10.2189
41.7412 20.8434 10.5931
41.0311 20.3903 10.4186
43.2392 21.6627 10.9914
42.2084 21.6082 11.1061
42.2063 21.434 11.0581
41.0494 20.88 10.7704
41.0513 21.1611 11.081
41.8443 21.9441 11.5589
41.4158 21.6368 11.3977
40.5076 21.444 11.6016
41.8577 21.7682 11.5452
38.9244 20.9396 11.399
41.2839 21.7347 11.6409
40.4662 21.8243 11.8514
40.6017 21.7977 12.0012
38.9453 21.0091 11.6294
40.2985 21.634 11.8452
38.4008 20.8787 11.6083
38.5071 21.0755 11.6307
38.3363 21.5032 12.2714
38.3324 21.0575 11.861
38.3093 21.2988 12.0048
36.8273 20.8526 11.8412
36.4396 20.5127 11.7905
37.7985 21.078 12.0131
37.3488 21.5119 12.6227
37.526 21.4954 12.6126
36.9743 21.134 12.3541
36.0874 20.8291 12.2771
35.5285 20.7283 12.3386
36.0313 21.1791 12.5533
35.9653 21.1508 12.6764
36.9005 21.7656 13.0425
36.0483 21.5066 13.1407
35.69 20.9392 12.6103
36.1614 21.7364 13.1849
35.8555 21.9882 13.6434
34.5851 21.0187 12.9677
34.2378 20.8898 12.928
34.23 20.9683 13.1734
34.5703 21.1233 13.0532
34.7399 21.7881 13.8561
34.0704 21.3502 13.6742
34.4074 21.4704 13.5858
34.2716 21.5241 13.7622
33.404 21.1921 13.6805
34.7776 22.0561 14.2199
33.4965 21.6011 14.2241
34.9759 22.2532 14.4147
32.0265 20.7391 13.7498
33.7085 21.8472 14.7917
42.114 27.3432 17.4551
32.8616 21.7002 14.5943
32.8135 21.4269 14.266
31.9939 21.2119 14.3688
32.9846 22.1242 15.0195
32.0416 20.8453 13.9982
31.8754 21.3898 14.5516
32.1864 21.5998 14.8264
33.3015 22.4299 15.2547
32.4567 22.0256 15.1442
31.7127 21.607 15.0554
31.9023 21.9771 15.4535
31.9023 21.8166 15.19
30.7287 21.5914 15.3169
30.6923 21.1627 15.0401
31.0937 21.824 15.4832
32.2762 22.7644 16.259
31.0751 21.7942 15.5678
32.196 22.8407 16.3308
31.0548 22.1451 15.9752
29.6007 21.3372 15.6205
29.3339 21.3529 15.8322
29.8522 21.0776 15.3549
29.4737 21.3659 15.8715
29.8122 21.7517 15.9642
29.4583 21.7417 16.1912
29.093 21.3594 15.9546
29.6832 22.0546 16.5243
28.1885 21.0302 15.981
29.764 22.4438 17.1277
28.422 21.4354 16.5746
28.6258 21.3212 16.3052
28.5946 21.4892 16.5157
28.2848 21.2663 16.5435
28.2737 21.1896 16.3243
27.9501 21.4567 16.7407
28.3544 21.9716 17.2664
28.799 22.0522 17.1293
27.015 21.239 17.0132
27.5002 20.9523 16.3919
27.1738 21.2697 16.7894
27.8116 22.0555 17.8648
27.1391 21.3088 17.1377
27.6915 21.8389 17.3959
26.8745 21.5366 17.521
27.6951 22.2439 18.0853
27.1408 22.0282 17.9929
26.539 21.4022 17.5876
26.8544 21.9442 18.2631
26.0197 20.9451 17.3347
26.0775 21.3346 17.7477
26.4991 21.9789 18.5818
26.2682 21.2577 17.7119
26.9382 21.9221 18.2358
26.6929 22.3847 18.9272
26.4818 22.1638 18.7175
24.6323 20.6901 17.7723
25.3263 21.1405 18.0852
24.8449 21.0597 18.3263
25.3147 21.5076 18.5968
25.2758 21.254 18.2653
25.5796 21.9399 18.9496
24.6693 21.4321 18.8745
25.1993 21.8628 19.2994
25.5651 21.9683 19.3519
25.346 21.9034 19.1674
24.1346 21.2152 19.0035
23.7071 20.969 19.003
25.4006 22.0231 19.4822
24.0528 21.5348 19.5798
23.2944 20.4001 18.637
23.8523 21.0857 19.0715
23.9359 21.2093 19.2364
23.4897 21.0915 19.1746
23.8155 21.4765 19.7716
23.2075 21.0285 19.4247
23.6214 21.561 20.0468
23.8536 21.9829 20.4216
23.4668 21.2799 19.6681
22.3469 20.6852 19.5612
23.7352 22.0378 20.6759
23.3713 21.5248 20.0677
22.4739 21.3349 20.4331
22.5025 21.2516 20.4538
22.9534 21.5765 20.7717
22.5951 20.8989 19.8468
22.0188 21.0009 20.4282
22.2616 20.9046 19.9938
22.0648 20.8783 20.3881
22.2958 21.3036 20.8094
22.7792 21.6332 20.8763
22.1755 21.6601 21.4806
22.1851 21.2411 20.9249
21.9731 21.1602 20.875
21.5728 21.4558 21.5826
21.8323 21.2948 22.1331
28.0592 26.993 25.3233
21.5622 21.3878 21.5701
21.3863 21.5126 22.0751
21.3668 21.1638 21.4501
21.2501 21.4512 21.9282
21.7253 21.513 21.5994
21.067 21.2883 21.9229
21.1599 21.4765 22.0872
21.364 21.6027 22.3065
20.6417 20.9252 21.7644
19.8829 20.247 21.2583
21.3217 21.9815 22.9474
21.6626 22.2406 23.1942
20.499 20.9603 21.9446
20.5554 21.2147 22.2205
19.8476 20.5557 21.8929
21.3167 22.0725 22.8474
19.5387 20.7975 22.6409
20.8938 21.7252 23.1731
19.8944 20.9686 22.4264
19.0012 20.2512 22.17
20.2574 21.5026 23.2884
20.3976 21.415 23.1192
20.3229 21.5387 23.28
18.9887 20.1286 22.0436
20.2476 21.7952 23.6537
19.4498 20.8852 22.7945
19.02 20.6457 22.8303
19.6755 21.5113 23.6297
19.372 21.3504 23.7131
18.7788 20.8437 23.5426
18.9014 20.5028 22.9278
19.1965 21.0716 23.3535
18.1692 20.1084 22.7945
18.5608 20.5378 23.0805
18.0906 20.6038 23.8865
18.5328 20.3728 23.0895
18.1872 20.3478 23.2352
18.2063 20.8394 24.1028
18.0205 19.8983 22.6351
18.8386 21.5378 24.7522
18.2858 20.5655 23.7191
17.9325 20.6659 24.1395
18.0824 20.7288 24.108
18.0999 20.6575 24.0392
17.3653 20.1828 24.3743
18.4823 21.0475 24.4246
17.5742 20.388 24.2564
17.8035 20.7371 24.5014
17.1078 20.1243 24.1179
17.4264 20.0867 24.191
17.6634 20.8524 24.9084
17.2092 20.1288 24.1552
17.8545 21.1753 25.4432
17.133 20.183 24.3466
16.8622 20.2806 24.8032
17.3435 20.577 25.012
17.2257 20.7773 25.2935
16.9367 20.2672 25.1402
17.5076 20.7952 25.1156
16.8974 20.6882 25.5742
16.6015 20.267 25.0711
16.3276 20.005 25.1286
16.6745 20.2462 25.1985
16.5726 20.134 24.7018
16.6109 20.9464 26.3936
15.9289 19.4878 24.5423
16.3644 20.5069 26.0237
16.4897 20.3888 25.4689
15.9144 20.0891 25.8372
16.4923 20.6566 26.1841
16.2596 20.3693 26.1455
15.9569 20.1586 26.1476
16.3899 20.6486 26.3528
16.065 20.5801 26.8836
15.9457 20.3236 26.4772
16.1201 20.5475 26.6551
15.7384 20.1358 26.5531
16.1448 20.5459 26.4915
15.779 20.4885 26.8794
15.7441 20.1789 26.1916
14.964 19.4516 26.2117
15.802 20.3736 26.7929
15.0947 19.7125 26.4283
15.3362 19.8633 26.5982
15.4885 20.2093 26.6636
15.2843 19.8023 26.5068
15.1962 20.2693 27.4086
15.4097 20.0999 27.235
15.4366 20.728 28.1637
15.7472 20.2919 27.2272
15.2568 20.4082 27.4368
14.8099 19.6858 27.066
14.9153 20.1753 28.0101
15.4796 20.5003 28.4781
14.9197 20.5019 30.5086
19.7854 24.9893 31.2646
14.8545 20.6699 28.8032
15.2213 20.2984 28.2262
14.6076 19.9603 27.9278
14.5859 19.6044 27.6072
14.7599 20.277 28.1154
14.194 19.5124 27.6757
14.2751 19.7563 27.5589
13.9273 19.5952 28.0094
14.0118 19.2883 27.1566
13.516 18.9605 27.1538
14.3241 19.9027 28.3946
14.5064 20.7009 29.5137
13.7731 19.0651 27.0817
13.5464 19.4582 28.3562
13.6543 19.1669 27.7952
14.2352 20.1132 28.8365
13.5856 19.2619 27.9156
13.692 19.6854 28.7843
13.7056 19.8004 28.9183
13.3452 19.4787 29.1709
13.7707 19.7972 29.2469
13.4719 18.9936 27.6239
13.5504 19.9082 29.5604
13.5631 19.5764 28.9257
13.4417 19.4989 28.7282
13.3331 19.1752 28.4356
12.8988 18.8987 28.2063
12.947 18.9523 28.3293
12.7831 18.9285 28.5973
13.137 19.421 29.0686
12.8312 18.9998 28.8041
13.0533 19.405 29.4233
12.6898 18.5239 27.8843
12.5674 19.0553 29.331
13.105 19.4605 29.7221
12.7034 18.8618 28.8577
12.6832 18.9909 29.2146
12.7775 19.1935 29.3933
12.6746 19.413 30.0192
12.1581 18.8109 29.8178
12.7402 18.9355 28.7411
12.1717 18.8043 29.901
12.5158 18.7194 28.6987
12.3752 19.3751 30.0941
11.9356 18.7449 29.9204
12.0768 18.9219 30.4263
12.4371 18.9365 29.668
12.075 18.7599 29.7387
12.3578 19.1467 29.9664
11.8978 18.4465 29.389
12.3771 19.5047 30.6847
12.0402 19.0874 30.5574
11.5953 18.5235 30.0784
11.7747 18.6424 29.6871
11.4124 18.5699 30.7329
11.4908 18.0646 29.6752
11.8064 18.3025 29.3656
11.3025 18.2247 29.9648
11.9596 19.0926 30.9616
11.7596 18.9184 31.038
11.8375 18.942 30.8711
11.4052 18.2539 30.2957
11.5321 18.4563 30.4525
11.3729 18.4969 30.8725
11.7269 18.9275 30.9654
11.5237 18.9045 31.4146
11.6536 18.8344 31.3571
11.3904 18.4786 30.5724
11.2445 18.1897 30.1749
10.834 17.947 30.3101
11.2042 18.594 31.5202
11.297 18.4075 30.7906
11.2807 18.6424 31.2009
11.0872 18.7687 31.8167
11.3844 19.0828 32.6066
11.1305 18.339 31.0106
10.4655 17.6194 30.3419
10.812 18.3392 31.6935
10.997 18.0438 30.6819
10.9494 18.5345 31.1729
10.282 17.5484 30.8265
11.3173 20.3251 36.3376
11.213 18.2582 31.564
11.0499 18.5026 31.9499
10.8393 18.2676 31.5535
10.4995 17.9525 31.4996
10.5624 18.0274 31.4742
10.4475 18.0251 31.4377
10.2181 17.6011 31.3347
10.5711 18.2031 32.2696
10.633 18.3122 32.1977
10.295 17.9817 32.3597
10.601 18.2454 32.2214
10.419 18.3047 32.5846
10.157 18.5061 35.9553
13.2217 22.3931 36.6099
10.1781 17.8157 32.1421
10.0477 17.7687 31.8801
9.95955 17.5064 31.9925
10.0239 17.5769 31.5427
9.81499 17.2789 31.0031
9.88856 17.7664 32.8134
10.0697 17.5548 31.0539
9.7437 17.8017 33.3711
10.0846 17.9132 32.3744
9.79002 17.405 31.8643
9.75284 17.5105 31.7114
9.85002 18.0039 33.2616
9.5486 17.0778 31.8227
9.96098 18.4125 34.2708
9.70427 17.2481 31.9219
9.30265 16.743 31.3718
9.40302 17.3899 33.1048
10.0081 17.9084 32.9575
9.55041 17.3649 32.6113
9.33862 17.0065 31.6905
9.3342 17.329 32.0952
9.02825 16.9227 32.7647
9.44113 17.2301 32.5274
9.60706 17.7632 33.2077
9.23944 17.2948 33.0637
9.49067 17.6682 33.6356
9.21278 16.9471 32.8464
9.65877 17.7759 32.7809
9.10608 17.0576 32.7814
9.35925 17.8654 34.7672
9.25898 17.382 33.3315
9.011 16.743 32.113
8.92144 16.9414 32.8768
8.96958 17.1078 33.2845
8.90014 16.7623 32.5926
9.08251 17.2054 33.1605
8.77175 16.8708 33.351
9.18389 17.6413 34.3285
8.9726 17.0738 33.4405
8.8813 17.0105 32.9872
8.54652 16.3127 32.7819
8.86128 16.7577 32.6172
8.9343 17.4199 34.0633
8.88828 17.2551 33.62
8.47285 16.6114 32.8478
8.17619 15.9164 32.136
8.37968 16.5155 34.0575
9.0498 17.4969 34.6433
8.69159 16.7393 32.8481
8.34139 16.296 32.7729
8.3777 16.3674 33.0486
8.43942 16.6822 33.1699
8.28833 16.3188 33.071
8.4697 16.9618 34.1896
8.30942 16.2702 33.1992
8.38837 16.8582 34.0979
8.22519 16.2645 33.5407
8.37436 16.8275 34.6525
8.45173 16.6416 33.7572
8.29252 16.7623 33.9157
8.16699 16.8418 35.2352
8.22953 16.4124 33.9377
8.2175 16.4234 34.113
8.41627 17.0019 35.0349
8.19503 16.451 33.6039
7.98495 16.2445 33.6938
7.96045 16.247 34.3152
8.2541 16.9043 35.1901
8.01421 16.1196 33.1669
7.86635 16.2615 34.0912
7.75325 15.8385 33.929
8.1641 16.7781 34.9307
8.02016 16.3049 33.6796
7.73342 16.1903 34.4267
7.74471 16.0495 34.5306
7.84513 15.9979 33.6221
7.59717 15.798 33.7391
7.8109 16.2902 34.6586
7.49563 15.4285 32.7801
7.54725 16.2262 35.2101
7.75471 15.7689 33.0168
7.4083 15.733 33.7903
7.38807 15.7459 34.2973
7.57759 15.8817 34.3952
7.48507 15.5588 33.31
7.37506 15.7335 34.1054
7.51612 15.9114 34.425
7.23311 15.1857 33.6479
7.38491 15.7618 34.4075
7.43649 15.8762 34.5285
7.43046 15.7659 34.3171
7.25384 15.5785 34.1641
7.24996 15.6973 35.3264
7.54398 16.1573 35.3493
7.31916 16.0304 38.9345
9.3693 19.3455 37.7471
7.10853 15.474 34.1266
7.24571 16.0299 35.5324
7.09855 15.061 33.5076
7.08124 15.5913 34.5688
7.21361 15.6599 34.6917
7.28648 16.0901 35.7373
7.07144 15.1081 33.7513
7.0117 15.4992 34.5128
6.96673 15.5155 35.598
7.1087 15.5909 34.9557
7.11638 15.783 35.7431
6.94643 15.1088 34.073
6.94956 15.287 34.7243
6.99143 15.4583 35.0267
6.99768 15.7486 36.3136
7.13857 15.2672 34.4299
6.87219 15.3422 34.7951
6.77281 15.0652 34.7147
6.87709 15.1363 34.6769
6.82413 14.9591 33.95
6.76313 15.4161 35.1403
6.65365 15.348 35.9717
6.85132 15.2478 35.2153
6.59623 14.6452 33.6368
6.5962 15.2315 35.7769
6.85173 15.3907 35.703
6.75035 15.0606 34.2835
6.56464 15.1442 35.8856
6.63715 14.6855 34.2486
6.56419 14.9083 34.8344
6.54232 15.1043 35.6907
6.49372 14.7224 34.9784
6.73731 15.3704 35.7502
6.55027 15.0136 35.6784
6.60642 14.9035 34.1861
6.2569 14.7868 36.0129
6.56056 14.8533 35.2085
6.52363 15.1507 35.4455
6.36321 14.554 34.711
6.35915 14.4571 33.8653
6.21462 14.8568 35.8172
6.44352 14.8466 34.9945
6.2232 14.71 35.8416
6.46061 15.0984 36.3127
6.43206 14.8479 35.4371
6.30101 14.7114 35.2936
6.28544 14.8695 35.9701
6.38518 15.0714 35.954
6.13148 14.3847 34.5567
6.02831 14.3933 35.5523
6.1607 14.4156 35.1739
6.23987 14.3537 34.3113
5.88319 13.8006 34.1373
6.19456 14.6698 35.3201
6.13196 14.4396 34.7221
6.1177 15.1071 36.6554
6.09459 14.4211 35.4946
5.98469 14.2831 34.6934
5.89979 14.2264 35.2968
