# pn-170911/RbIIR-55-RbIIF-1280-1959.psd
# Power spectrum* (dif=0,1,2) (really just |FT|^2)
# NOTE: only the first half! (symmetric)
# weeks: 1280-1959
# 2469 clock-days, 74 excluded
# PSD: 1441
703.857 0.193489 0.0250533
31509.5 0.370539 0.0340333
213173 5.61032 0.0340384
16781.3 0.596808 0.0347328
84201.7 7.14401 0.0345005
5805.87 0.523256 0.0337739
7058.19 1.33037 0.0340869
2890.13 0.526588 0.0351347
3389.76 1.08986 0.034649
1940.33 0.524714 0.0335664
1787.55 0.73927 0.0353297
1232.91 0.551773 0.036032
1312.11 0.719104 0.0347079
983.521 0.590423 0.035711
816.188 0.668856 0.0345713
780.908 0.658518 0.0341042
694.515 0.757125 0.035975
593.706 0.682048 0.0348629
643.279 0.795578 0.0366453
543.747 0.764376 0.0345607
515.592 0.826668 0.0382236
478.539 0.847411 0.0363011
448.616 0.915066 0.0391878
469.369 0.97559 0.0367764
417.976 0.99774 0.0395992
390.379 1.03485 0.0378081
396.776 1.11672 0.0402837
390.095 1.18614 0.0400806
372.996 1.21387 0.0392239
369.696 1.36084 0.0404017
372.914 1.46172 0.0424601
366.461 1.48304 0.0402074
362.731 1.5573 0.0435879
329.642 1.55636 0.0440418
336.066 1.71256 0.0449522
346.411 1.86978 0.0468461
332.982 1.88612 0.0486
330.874 2.04182 0.0494954
343.067 2.14974 0.0505189
341.731 2.30709 0.0542373
358.641 2.50086 0.0546373
315.146 2.33231 0.0545012
325.397 2.50343 0.0563819
319.895 2.63522 0.0590935
319.108 2.77417 0.0598656
316.208 2.86448 0.0639991
324.748 3.08789 0.0668943
307.062 3.08348 0.0702637
312.008 3.26845 0.0705109
293.543 3.15662 0.0698192
289.938 3.31479 0.0751981
313.548 3.59231 0.0818587
306.898 3.7283 0.0818122
317.732 4.02997 0.0886914
287.9 3.86533 0.0862227
290.877 4.00196 0.0920836
303.877 4.26907 0.0975456
292.388 4.34456 0.101641
288.791 4.43157 0.10718
291.307 4.5472 0.110677
291.885 4.73028 0.117585
268.158 4.52281 0.119233
282.486 4.92019 0.128167
265.26 4.88611 0.124359
265.355 4.96244 0.130817
275.522 5.39448 0.146466
259.221 5.22148 0.142391
253.149 5.22619 0.146943
252.763 5.32778 0.151016
263.5 5.75983 0.165583
252.651 5.70896 0.169854
250.622 5.7874 0.173136
258.968 6.09086 0.183187
247.214 6.03381 0.189442
249.85 6.26902 0.20051
239.025 6.16227 0.198702
239.22 6.34394 0.20728
236.492 6.45475 0.215992
243.961 6.81588 0.235535
231.109 6.70896 0.23327
222.763 6.54568 0.234134
217.962 6.60939 0.239197
220.102 6.85463 0.253331
221.536 7.10378 0.269679
216.911 7.06454 0.273265
216.457 7.21667 0.284617
209.912 7.22039 0.285181
221.75 7.73567 0.311126
214.389 7.65375 0.316687
200.171 7.39937 0.307748
207.712 7.80547 0.335123
206.433 7.90051 0.3406
195.124 7.72992 0.345429
194.992 7.79531 0.350051
194.727 7.96554 0.378334
194.668 8.07955 0.378236
251.675 10.8761 0.504423
189.984 8.20063 0.395423
182.809 8.17446 0.405711
189.187 8.48608 0.425818
182.875 8.39122 0.440852
196.795 9.26953 0.483322
191.216 9.07022 0.474559
183.17 8.90464 0.48478
169.681 8.50341 0.464233
181.713 9.18451 0.515115
171.898 8.83631 0.499644
168.513 8.95757 0.514855
174.31 9.3889 0.554051
174.366 9.63221 0.576462
162.293 8.99086 0.541497
170.253 9.65552 0.600723
165.282 9.62051 0.602646
169.251 10.1369 0.644713
175.488 10.5989 0.694465
158.953 9.72669 0.639621
160.156 10.0428 0.668631
155.455 9.92105 0.677387
154.296 10.0635 0.695379
158.333 10.4962 0.738975
159.163 10.4945 0.74071
144.996 9.89796 0.71167
148.49 10.2934 0.749096
153.873 10.8899 0.82573
153.721 10.9826 0.827239
146.264 10.5853 0.814543
146.117 10.7169 0.845085
148.641 11.117 0.872603
147.044 11.2375 0.893779
142.606 10.999 0.895398
143.638 11.3196 0.933988
145.545 11.5753 0.973738
154.218 12.3565 1.04144
140.17 11.388 0.987895
139.868 11.5762 1.00517
142.877 12.0607 1.06726
134.389 11.5025 1.02762
134.645 11.7059 1.06165
133.965 11.8759 1.0941
135.124 12.1643 1.13371
128.582 11.7523 1.12151
127.62 11.8352 1.12782
126.983 11.8078 1.15379
125.654 11.856 1.19005
132.914 12.9003 1.29818
133.007 12.7759 1.28797
124.899 12.2909 1.26081
121.422 12.1082 1.27267
129.873 13.2188 1.40165
123.966 12.6719 1.36426
130.707 13.3468 1.43574
125.162 13.1422 1.43302
119.397 12.753 1.41465
124.4 13.5457 1.53574
121.035 13.2088 1.50488
126.42 13.9142 1.607
125.377 14.0624 1.62939
114.761 13.1088 1.54546
116.973 13.5138 1.63719
115.845 13.4463 1.61329
113.234 13.5242 1.66431
119.85 14.4636 1.79935
115.41 13.9635 1.74581
113.953 14.0494 1.77657
112.285 14.021 1.79621
113.207 14.3055 1.8552
112.705 14.4303 1.90048
117.877 15.1415 1.99755
114.205 14.9761 2.01568
107.225 14.1274 1.9035
106.301 14.1888 1.9401
111.776 15.1867 2.1065
108.616 14.9573 2.09729
106.02 14.6558 2.07777
105.07 14.8209 2.17223
107.505 15.2571 2.22247
105.143 15.0433 2.21069
105.944 15.3115 2.28359
103.341 15.149 2.27912
104.106 15.4003 2.34384
105.863 15.5558 2.37093
103.076 15.4379 2.40222
102.626 15.7164 2.46737
105.554 16.2878 2.59008
106.583 16.3679 2.61765
102.597 16.1467 2.62593
99.9678 15.833 2.58414
102.928 16.3775 2.72136
99.7939 16.2628 2.71932
99.2717 16.0941 2.72496
96.8726 16.1246 2.73143
95.2874 16.0946 2.81889
128.765 21.8691 3.76047
97.9793 16.6329 2.90564
94.4765 16.4391 2.9241
95.5284 16.7487 2.99927
95.6155 16.9332 3.04801
93.32 16.7906 3.07542
88.5492 16.0817 2.97922
89.2049 16.4412 3.08033
93.6941 17.4141 3.27406
95.7163 17.8679 3.39416
92.2257 17.3502 3.32491
91.0939 17.2625 3.35618
92.5684 17.7681 3.47838
92.5823 17.9239 3.51531
90.6878 17.7189 3.54215
88.7244 17.5876 3.52565
86.2357 17.2838 3.51939
86.8954 17.5615 3.61686
89.5617 18.1196 3.77152
85.3645 17.5261 3.6651
82.5159 17.2539 3.65314
81.9935 17.3247 3.7059
84.9585 17.8304 3.83482
85.6379 18.5333 4.0373
86.049 18.4343 3.98291
82.1139 17.99 3.97375
81.7161 17.9602 4.01973
85.7041 18.9035 4.22433
81.8219 18.3322 4.15757
77.6037 17.4094 3.97833
81.4834 18.6276 4.30888
81.2431 18.6249 4.34193
80.6435 18.6379 4.38506
81.1646 18.8389 4.46137
80.2999 19.0538 4.59814
79.5923 18.8206 4.52613
82.8107 19.727 4.77099
79.5874 19.2103 4.72725
78.826 19.0269 4.68019
75.8307 18.7336 4.68086
80.5746 19.9408 5.01805
83.051 20.9722 5.33943
74.1402 18.7323 4.78866
76.4741 19.2634 4.94969
77.5801 19.9153 5.20271
77.0509 19.9333 5.22977
73.8001 19.1862 5.11398
74.639 19.753 5.31889
76.7821 20.2292 5.43202
77.1215 20.5793 5.5622
72.8674 19.4114 5.29055
73.0668 19.8427 5.47266
73.5178 20.1915 5.63306
72.635 19.9398 5.56383
73.5379 20.3172 5.70442
74.4577 20.9201 5.94645
69.3188 19.6569 5.64786
71.9572 20.463 5.91635
70.3018 20.0299 5.79593
67.4883 19.7585 5.82259
71.5828 20.7478 6.11015
70.9352 20.7608 6.11134
66.695 19.7552 5.94901
71.2939 21.2211 6.45084
70.8154 21.2287 6.4431
69.0414 20.9934 6.46511
68.2872 20.697 6.36773
68.0846 21.0272 6.6165
68.6082 21.1451 6.58332
65.7504 20.3359 6.37603
65.1098 20.7581 6.6917
65.0835 20.4462 6.55372
71.1365 22.6665 7.31277
67.9537 21.8208 7.12005
66.5112 21.5403 7.06315
66.8048 21.878 7.24978
64.9287 21.4955 7.20601
65.7599 21.8267 7.30799
64.6612 21.6198 7.29956
64.9005 21.8107 7.42961
62.9986 21.3214 7.28001
65.0584 21.8102 7.47303
61.6345 21.0506 7.28974
63.6017 22.0852 7.7312
64.4321 22.7935 8.10516
62.1244 21.6644 7.64992
64.0008 22.4317 7.94259
60.2841 21.3227 7.67239
61.4707 21.8934 7.93405
61.6598 22.1055 8.08248
62.9311 22.6484 8.35329
60.9445 22.1406 8.12982
63.375 23.097 8.63981
59.3358 21.7966 8.1866
59.9961 21.88 8.20957
58.3439 22.0282 8.55678
87.6079 32.6668 12.1207
59.0377 22.5043 8.711
59.0093 22.2757 8.64694
58.5669 22.5112 8.74822
59.0663 22.7247 9.00306
59.5131 23.1814 9.19143
58.2899 22.8191 9.08928
57.1586 22.5868 9.01915
57.9422 23.1179 9.39837
58.7081 23.0277 9.20789
55.8676 22.6984 9.30349
54.2252 22.0714 9.10886
56.9239 23.1925 9.56497
54.3865 22.4723 9.39699
54.9321 22.8038 9.5792
57.433 23.7345 9.94108
53.0237 22.0734 9.31264
52.1737 22.0953 9.46738
54.1044 22.9457 9.89688
55.5506 23.6401 10.1064
52.2384 22.4895 9.77086
53.6963 23.0706 10.0597
52.9501 23.0353 10.1105
52.5801 23.1097 10.2794
54.2348 23.8474 10.5514
50.7781 22.5055 10.1396
53.4433 23.7584 10.6597
51.2467 22.9853 10.4067
50.3484 23.0872 10.7172
51.8634 23.261 10.6611
50.9158 23.1963 10.7344
50.7189 23.4337 10.873
49.7794 23.1468 10.892
51.526 23.9963 11.3195
49.3876 23.1731 11.0008
48.8382 23.2748 11.174
50.1675 23.6868 11.3845
51.0988 24.2925 11.6902
49.3158 23.668 11.5449
50.5349 24.2721 11.7851
51.0953 24.7826 12.1388
47.9521 23.3466 11.4815
48.2563 23.689 11.7075
49.9931 24.9267 12.4353
48.1251 23.9151 12.0497
47.147 23.4092 11.7305
47.3842 24.011 12.1965
45.5971 23.4604 12.1779
47.3516 24.0239 12.402
48.6269 24.8157 12.7605
46.4712 23.8578 12.4097
45.5491 23.3027 12.2257
47.9756 24.6313 12.7781
45.495 23.8913 12.7382
46.6977 24.6245 13.0715
45.231 24.1439 13.0707
47.318 25.0075 13.321
44.9075 24.2373 13.2219
45.4701 24.1515 12.9974
44.4817 24.152 13.3238
44.8479 24.3443 13.3559
43.5152 23.6754 13.144
43.4029 24.1163 13.6433
43.7514 23.7962 13.1549
43.7756 24.3042 13.6846
42.8867 23.9176 13.517
41.7576 23.429 13.3386
44.4886 25.2352 14.3557
43.5132 24.5626 14.0843
42.9881 24.2874 13.9472
43.3973 25.1172 14.5782
42.3753 24.2858 14.0915
42.132 24.2681 14.1877
40.3467 23.2748 13.6134
41.1288 24.1022 14.306
41.7042 24.8398 14.8973
40.4302 24.0428 14.5046
40.6786 23.9157 14.3222
40.0271 24.1038 14.7528
40.2547 23.9678 14.5649
41.6696 25.1151 15.201
39.2268 24.029 14.9006
39.9864 24.3748 15.0681
40.6946 25.0325 15.4807
39.5539 24.2827 15.1642
39.8483 24.792 15.7454
40.8717 25.2947 15.8054
39.8211 24.7669 15.6566
38.3373 24.1995 15.4443
40.2887 25.1156 15.873
38.8404 25.098 16.3013
37.2528 23.5981 15.3244
39.2271 25.3001 16.4765
39.5952 25.3828 16.4091
37.1948 24.4248 16.3459
38.7825 25.198 17.1747
56.3052 36.1475 22.6073
37.1149 24.5766 16.5523
37.5898 25.0096 16.833
36.1184 24.0863 16.3568
36.3269 24.0739 16.1504
35.7397 23.8637 16.2215
36.4519 24.6959 17.0597
36.6354 24.5316 16.8326
35.8375 23.8932 16.274
35.5298 24.5918 17.0765
35.6308 24.2971 16.9429
36.7871 25.2155 17.5257
36.9506 25.4823 17.8066
35.579 25.0124 17.8393
35.0273 24.4795 17.3837
36.4961 25.5539 18.0916
35.0904 24.5217 17.3646
35.4341 25.4246 18.3189
35.9928 25.6058 18.4669
34.5778 24.6809 17.8484
34.4467 24.8546 18.1341
34.3428 24.801 18.1762
33.8666 24.4524 17.7543
32.8256 24.0055 17.8632
33.644 24.7677 18.4534
34.9407 25.7042 18.9363
33.9763 25.2408 18.7729
33.5944 25.1803 19.1594
33.4412 24.707 18.4322
31.8099 24.0924 18.4997
32.5389 24.1971 18.2624
34.197 25.9877 19.8438
32.1776 24.1823 18.5699
32.2238 25.0793 19.7481
31.8283 24.268 18.8788
32.2317 24.7857 19.2684
32.1091 24.9692 19.5601
32.2997 25.2485 20.0041
31.9929 25.0376 19.9134
33.2205 25.7865 20.5212
31.261 24.36 19.3094
32.4886 25.4657 20.1575
31.8374 25.5588 20.5398
31.1006 24.6723 19.8874
30.6387 24.4809 19.9329
30.772 24.4271 19.6805
30.9756 25.2507 20.605
30.4016 24.6986 20.3956
30.96 25.3421 21.0644
30.0665 24.2959 20.0649
29.2631 24.1616 20.4078
30.5945 24.8768 20.3906
29.0659 24.3668 20.6886
31.1976 25.5427 21.1341
29.6874 25.3271 21.7753
30.6093 25.5523 21.6194
29.794 24.9545 21.1448
29.766 25.238 21.6132
28.7952 24.4632 20.9341
27.8179 23.9327 20.8948
29.2312 25.1339 21.6895
29.1256 25.1975 21.9721
27.8912 24.1966 21.3911
28.1096 24.0999 21.1266
28.4868 24.8188 21.9439
29.048 25.5269 22.6293
28.2909 24.2442 21.3192
27.5186 24.3803 21.8862
27.9677 24.5688 22.1237
27.624 24.4086 21.9199
28.2226 25.025 22.507
27.0037 23.9125 21.6127
27.7155 24.9942 22.8505
27.2737 24.5254 22.4599
27.8145 25.3944 23.3929
27.2073 24.5245 22.407
26.8613 24.4967 22.7068
27.0968 24.7411 22.958
28.0379 25.9966 24.2775
26.3077 24.242 22.7361
25.8098 24.0349 22.6298
26.0119 24.4269 23.3531
26.8692 24.8416 23.2064
27.0964 25.5043 24.0937
26.7593 25.7988 24.8386
25.7484 24.3129 23.6185
26.3369 24.7672 23.8449
26.0975 24.859 24.2052
26.503 24.9905 23.8639
25.5357 24.5369 24.0621
26.1889 24.9531 24.217
25.2353 24.386 23.8593
24.641 24.0728 24.1247
25.7503 24.6607 24.1723
24.6805 24.3976 24.5009
25.6662 25.6351 26.965
36.5286 35.5691 32.9407
25.2518 25.289 25.7456
24.8068 24.7773 25.0139
24.0239 24.083 24.6217
24.9298 25.1998 25.7032
25.1712 25.3063 25.9534
24.881 24.9004 25.4079
24.7582 25.006 25.46
23.7294 23.8948 24.4194
24.5326 25.3799 26.5156
24.2192 24.8137 25.6751
23.4513 24.087 25.1201
23.2626 24.3573 25.7024
22.6369 23.3544 24.5413
23.2896 23.9788 25.2659
23.9273 24.7594 26.0222
23.5553 24.569 25.766
23.1247 24.639 26.4872
24.0254 25.2064 26.6725
22.6349 24.1702 26.1231
22.5987 23.9208 25.7683
22.4312 24.0892 26.3673
22.8547 24.3846 26.5149
23.1909 24.4734 26.4033
22.5956 24.7701 27.3035
23.0682 24.7985 27.0831
22.873 24.4902 26.7435
22.7733 24.7739 27.1991
22.7479 24.9019 27.4363
21.8215 24.0184 26.8605
22.3157 24.4244 27.0549
21.8469 24.3851 27.4422
21.6569 24.1668 27.2466
21.1384 23.0389 25.8631
21.7908 24.4762 27.7577
21.8445 24.1522 27.2081
21.5909 24.4372 28.006
21.3501 23.7108 26.9469
21.2296 24.0433 27.4701
20.9115 24.0934 27.9325
20.9122 23.6426 27.1854
20.8794 23.9091 27.9852
20.8607 24.0643 28.4144
21.554 24.2129 27.6836
20.9399 24.2294 28.2836
20.851 24.1046 28.2458
20.5343 23.8694 27.9748
20.4275 23.9516 28.4425
20.151 23.6211 28.2533
21.0481 24.7571 29.4402
20.6361 23.9108 28.3728
20.2855 23.8832 28.5234
20.1461 23.9162 28.7245
19.2538 22.818 28.038
20.3844 24.1872 28.9053
20.0442 24.2022 29.5678
20.0128 23.9443 29.1966
19.4008 23.5304 29.0602
19.7402 23.4593 28.6213
19.6535 24.0277 29.6949
20.0477 24.083 29.3581
19.6539 24.2506 30.0355
19.4629 23.6367 29.1861
18.9692 23.3598 29.6391
19.7092 23.9416 29.4174
18.9956 23.9821 30.6719
18.6965 22.5747 28.0303
18.825 23.6745 29.8454
18.6942 23.5227 29.7202
18.9156 23.9012 30.5498
18.5975 23.3624 29.9088
18.7131 23.5052 30.2022
18.4571 22.8011 28.8991
18.9156 24.1111 30.6341
18.6144 24.1055 31.423
18.3541 23.4183 30.3002
17.8585 22.4486 29.0735
18.0494 23.4541 30.4331
17.8238 23.0965 30.0857
17.9173 23.6898 31.3066
18.5304 24.0396 31.3764
17.4935 22.8886 30.7677
18.3803 23.9414 31.9828
18.7272 24.031 31.2019
18.003 23.5496 31.2422
17.5373 23.4955 31.3417
16.9984 22.5274 30.8146
17.5694 23.0704 31.0935
17.8434 23.0235 30.7023
17.2933 23.1606 31.3575
17.5227 23.1924 31.5057
17.2024 22.9994 31.3791
18.256 24.1881 32.6453
17.0117 23.5475 32.8547
17.7683 23.8649 33.3431
17.3155 24.2708 37.6578
27.5697 35.006 42.6719
16.9568 23.3368 32.8776
17.9183 24.2004 33.3789
16.4195 22.2894 31.3693
17.4523 24.0222 33.6371
17.4805 23.9904 32.9433
16.8377 23.4456 32.6427
16.025 22.5162 32.1805
16.1793 22.5922 32.061
17.1236 24.2803 34.8938
16.2445 22.0323 31.1091
15.6171 22.1776 32.1711
16.5271 23.0916 32.652
16.0112 22.9876 33.2492
16.4556 23.3139 33.5733
16.1665 22.9333 33.215
15.7555 22.2119 32.1114
15.6588 22.4145 32.7873
16.3157 23.461 33.9213
15.6604 22.5865 32.9997
16.0355 22.9324 33.1384
15.7098 22.9355 33.5513
15.5054 22.7886 33.7195
15.6596 23.1461 34.6912
15.4408 22.2605 32.893
15.3333 22.4191 33.2107
15.481 22.8573 34.1886
15.4166 22.7556 34.2472
15.6289 22.811 33.9826
15.659 23.4591 35.3454
15.0917 22.1274 33.824
15.2969 22.4659 33.6315
15.6442 23.0781 34.2825
15.0358 22.4809 34.3422
14.9152 22.3809 34.1427
15.0063 22.4819 34.4378
15.1071 22.9082 34.9652
14.4415 21.861 33.92
14.5288 22.1161 34.4248
14.7584 22.2245 33.8339
14.1939 22.0282 34.6038
14.6794 22.3397 35.0635
14.4025 22.0091 34.6768
14.5095 22.1561 34.4255
14.7073 22.6862 35.1741
14.1059 21.7862 34.7067
14.4413 22.4104 35.4797
14.5359 22.1174 34.5325
14.3268 22.7865 36.3069
14.7028 22.8769 36.1863
14.3697 22.4423 35.6394
14.395 22.7355 36.6216
14.2801 22.334 35.322
13.5702 21.3425 34.7589
14.2779 22.7789 36.6869
14.2078 22.6282 36.8752
14.5428 22.9994 36.7497
14.101 22.2097 35.6379
13.8711 22.5253 36.5823
13.6613 21.7794 34.9199
13.1329 21.5317 35.7447
13.5896 22.1748 36.7184
13.2642 21.2548 35.3676
13.8406 22.2805 36.5958
13.3665 21.8221 36.6331
13.4419 21.2508 35.1503
14.0224 22.9092 37.162
13.0777 21.4281 36.1888
13.6114 22.2249 36.5378
13.3259 21.9524 36.6589
13.4124 22.5474 37.6505
13.2014 21.6557 36.3932
13.0118 21.587 36.6371
13.2447 21.9819 36.9015
13.0432 21.9203 37.1605
13.1306 21.91 37.2016
12.608 21.1268 36.3546
12.5326 21.006 36.2583
13.0048 22.0404 38.0477
13.0215 21.4848 36.7335
12.8624 21.713 37.3421
12.5742 20.9676 35.9479
12.5761 21.3535 36.4606
12.4108 21.1757 36.242
11.9928 20.5526 36.099
12.3065 21.0606 36.566
12.4486 21.7841 38.0157
12.1471 20.6962 36.6791
12.4422 21.4515 37.2005
11.9562 20.5239 36.1373
12.196 21.612 38.4118
12.0708 20.9778 37.5288
12.3085 21.2053 37.5581
12.0963 21.0242 37.3732
12.2746 21.6479 38.0536
11.8773 22.6082 46.9472
18.7181 31.255 48.5644
12.0431 21.0019 37.5364
11.6974 20.9497 37.7823
11.8427 20.8696 37.3947
11.5161 20.2979 36.3897
11.2942 20.5237 37.8969
11.8736 21.1433 38.2446
11.4868 20.5609 37.5259
11.4903 20.6681 38.2682
11.4247 19.9533 36.4526
11.5814 20.8114 37.6356
11.4533 20.9426 38.9638
11.8492 21.1794 39.1763
11.8999 21.6537 39.8547
11.9593 21.6636 39.5455
11.4996 20.7778 38.5777
11.263 20.5042 37.8501
11.3086 20.7376 38.5161
11.368 20.9181 38.3462
10.8107 20.1873 38.4324
10.9853 20.2806 38.4642
11.1927 20.9313 39.0874
10.609 19.5605 37.5825
11.135 20.3909 38.2045
10.8583 20.1255 38.1858
10.994 20.546 38.5985
10.6604 20.1173 38.8697
10.7313 19.9597 38.2108
10.8765 20.7426 40.3484
11.0951 20.2345 37.9264
10.6982 20.4057 39.1118
10.5617 19.851 38.253
10.7746 20.6979 40.4357
10.9149 20.5302 39.2748
10.4934 19.7579 38.2758
10.6008 20.1711 39.0334
10.5275 20.1619 38.9703
10.1031 19.2678 37.7599
10.1892 19.6116 38.5592
10.641 20.3036 38.7616
10.0722 19.7958 39.038
10.0845 19.5722 39.182
10.3405 19.9633 39.699
10.4032 19.8864 38.4203
9.98867 19.8629 39.6983
10.0427 19.8861 40.074
10.2342 19.8635 39.4391
9.97448 19.8909 41.4949
11.0676 21.2975 41.0014
10.1959 20.1853 40.1917
9.91543 19.2306 38.5394
9.92129 19.7987 39.8797
9.91712 19.8651 39.9688
9.99259 19.5548 39.2576
9.49237 18.9767 39.6837
10.0959 19.4795 39.0791
9.72421 19.4848 39.6576
9.95855 19.9527 40.6049
9.91655 20.1808 41.6287
9.82959 19.1195 39.3375
9.76525 19.3152 39.1256
9.78734 19.7424 40.2548
9.65803 19.4615 39.1257
9.0561 18.5967 39.2025
9.47871 19.1293 38.7388
8.91066 18.4389 39.5343
9.70355 19.6564 40.5434
9.34966 19.2346 40.4916
9.33778 19.1266 40.5865
9.42289 18.9774 39.0269
9.09636 18.8761 40.1367
9.42192 19.2368 40.2418
9.02822 18.4587 39.104
9.21509 18.805 39.3689
9.11434 18.9143 39.7622
9.09043 19.028 40.5422
9.16564 18.7732 39.6333
9.06436 18.9241 39.5985
8.86203 18.5427 39.3598
8.82076 18.7564 40.6403
9.1597 19.6675 42.7307
9.35444 19.137 40.3644
9.03568 19.2935 42.0145
9.20585 19.1203 40.3825
8.68432 18.585 40.8304
9.11406 19.4051 41.1964
8.74976 18.6238 41.5423
9.23891 18.9503 39.9926
8.8909 19.3547 41.7318
8.51253 18.2708 40.6938
9.03393 19.2527 41.4267
8.75459 18.6883 40.0975
8.2988 18.1353 40.1607
8.35848 18.1789 40.262
8.19019 17.8799 40.554
8.44573 19.7237 53.9086
13.9028 26.939 47.258
8.30358 19.0196 42.906
8.61662 18.8887 42.0268
8.63375 18.5593 40.636
8.09724 17.6683 39.7432
8.42406 18.495 40.8839
8.46102 18.4781 40.7876
8.14962 18.1684 41.3392
8.43866 18.8074 42.7407
8.47999 17.9577 40.0388
8.36036 18.6961 41.9354
8.34923 18.2802 40.8587
8.19152 18.4361 41.9465
8.25985 17.8419 40.2415
8.22771 18.3712 41.9992
8.38482 18.5199 41.4613
7.96875 17.8708 41.1333
8.20886 18.1023 40.8854
8.03506 17.9407 40.5408
8.12007 18.4141 41.7657
7.87772 17.5667 40.5876
7.96749 17.8766 40.986
7.65621 17.4907 41.7158
8.18429 17.8569 40.7266
7.69743 17.3705 40.0616
7.71735 17.5115 40.8251
7.67893 17.3273 40.2576
7.88337 18.0452 42.2048
7.93614 17.8092 41.2975
7.78338 17.7224 40.9665
7.64945 17.446 40.6368
7.49978 17.4218 41.5127
7.81223 17.7768 41.1247
7.66093 17.6903 41.572
7.7299 17.5441 40.408
7.32549 17.2111 41.1572
7.80445 18.4865 43.3436
7.72422 17.804 41.7999
7.3713 17.3075 41.4296
7.4462 17.4801 42.2561
7.83688 18.113 41.938
7.34115 17.0006 40.7383
7.51024 17.7831 42.1577
7.39421 17.4328 42.7274
7.76703 17.9068 42.3006
7.31346 17.0144 40.4867
7.34829 17.3792 41.3542
7.42415 17.9287 42.7177
7.12888 16.9758 42.3275
7.48399 17.5396 42.6291
7.28409 16.789 40.4413
7.20767 17.2864 41.8235
7.22036 16.6974 40.5683
7.09057 16.7818 40.9586
7.1084 17.1066 41.9713
7.23406 16.985 41.4495
7.13761 16.8686 41.1279
7.18793 17.2805 41.9601
