# pn-170911/RbIIR-46-NIST-1280-1959.psd
# Power spectrum* (dif=0,1,2) (really just |FT|^2)
# NOTE: only the first half! (symmetric)
# weeks: 1280-1959
# 3 clock-days, 3 excluded
# PSD: 1441
114.678 0.022833 0.00613986
25399.3 1.67261 0.186032
63900.8 1.35339 0.0396235
55153.9 2.84889 0.193769
64818.6 2.96072 0.242349
11417.3 1.71323 0.0572546
12851.9 1.06835 0.0846142
9419.24 0.849718 0.146406
5010.09 0.534575 0.0565968
3582.7 1.07021 0.226295
2617.23 0.827633 0.121369
1197.84 0.258532 0.1057
2702.03 0.774728 0.174928
1605.43 0.18491 0.341396
1213.91 0.112698 0.217774
931.122 0.144926 0.113763
389.429 0.777906 0.171285
1459.98 1.81732 0.112509
1573.49 1.02955 0.21877
1710.21 1.54612 0.0468249
1302.52 1.23999 0.179173
1383.4 0.881181 0.047396
808.76 0.611138 0.0551519
604.088 0.778415 0.207845
207.891 0.801616 0.238604
574.96 0.918101 0.0742548
410.931 0.826514 0.197665
653.099 1.00614 0.351458
413.577 0.626351 0.0442958
321.9 1.11156 0.101922
88.3815 0.927281 0.257703
193.204 1.18815 0.324957
221.505 0.401535 0.0831728
512.561 1.64726 0.0297419
250.347 0.806913 0.11514
345.862 2.28261 0.0432173
346.396 1.62566 0.222967
444.806 2.14219 0.142572
335.395 4.35923 0.0825579
96.1023 1.4822 0.188723
480.863 3.75666 0.399725
980.638 8.43715 0.365501
488.524 2.65063 0.0568082
706.722 3.90249 0.344229
266.26 0.812976 0.0659422
350.854 2.50983 0.245575
97.7328 1.89172 0.091345
212.31 1.42697 0.20592
173.62 0.621996 0.0931171
592.976 5.64851 0.138966
793.077 6.12234 0.416308
413.496 3.78458 0.245016
478.21 6.93406 0.208568
87.6426 1.35631 0.159992
216.862 1.48602 0.440595
298.858 4.90719 0.200699
204.021 2.84427 0.119629
102.62 2.64837 0.283394
416.522 8.38416 0.284907
193.845 4.4826 0.0973807
928.601 13.773 0.479385
162.388 2.43997 0.185076
813.893 12.284 0.294741
72.9528 2.55814 0.166672
136.028 1.7188 0.109686
374.588 4.95433 0.151172
463.974 7.61453 0.385461
204.398 3.7945 0.47095
121.526 2.58751 0.286372
763.319 15.1216 0.43462
348.911 6.36925 0.243641
297.148 9.69292 0.551659
239.255 3.05441 0.233933
217.739 4.49469 0.20261
145.799 5.42347 0.202314
841.694 20.0725 0.694891
28.4036 0.920708 0.0942828
445.188 14.2789 0.213454
124.104 4.9253 0.104212
334.477 8.30928 0.284424
63.5832 4.60902 0.361814
472.043 10.7049 1.03013
129.463 6.75129 0.242361
314.296 7.62451 0.174539
223.578 5.90416 0.481083
165.28 5.61559 0.406734
239.697 8.99155 0.400338
351.916 9.57591 0.569803
423.919 10.8267 0.511749
699.942 19.7976 0.629857
380.767 12.3717 0.461768
156.254 6.30301 0.108616
226.16 6.19525 0.411425
83.1197 3.70074 0.806826
40.0168 1.32528 0.551235
235.352 5.662 0.330272
298.471 13.2912 0.738457
303.411 12.7838 0.960964
199.759 13.1515 0.889009
281.332 11.0046 0.719334
447.888 20.9428 1.43097
142.999 6.67146 0.58883
264.051 10.2545 0.327374
219.901 7.33378 0.716397
173.106 7.54119 0.661686
459.115 21.3963 0.989812
139.359 9.08348 0.627901
114.031 6.24408 0.433937
204.865 8.78607 1.09697
103.452 5.92083 0.535737
203.763 9.53681 0.951895
173.708 8.14554 0.225688
167.742 8.78558 0.448571
159.849 12.6092 0.871659
307.438 19.8647 1.22859
168.497 7.20025 0.595407
202.691 10.7728 0.625567
68.2479 3.182 0.448834
91.1077 5.30921 0.518457
355.504 27.8142 2.07566
687.607 46.6062 2.47181
404.172 21.1808 1.853
232.171 16.5608 1.13978
654.66 44.4686 3.06161
391.21 24.7715 1.60885
432.3 29.7642 1.42464
123.558 11.4592 0.772229
437.523 30.0421 2.59858
294.33 20.0706 1.45326
98.5551 10.2246 0.825102
134.271 10.5896 0.658001
148.858 11.3075 1.14064
151.271 8.77604 0.859012
54.2256 4.23857 1.05945
135.853 10.1057 1.24665
191.843 19.5129 1.21062
90.4652 12.2407 1.27705
192.074 16.2997 2.21506
160.108 9.23341 1.13723
104.163 10.1453 0.80564
202.988 17.3316 1.12293
253.643 23.4034 2.53118
166.824 17.023 1.65111
115.437 12.8341 1.3369
219.221 25.9772 1.71433
136.088 12.7135 0.993508
125.198 16.3695 2.25888
268.806 33.7701 3.22328
18.5266 2.51537 0.9119
186.654 16.2132 1.4631
175.754 20.6156 2.44304
32.8959 4.78337 0.373428
347.421 36.0195 4.42768
49.3354 5.5537 0.649517
204.085 18.3225 1.65441
42.206 7.13 0.994864
111.228 7.78035 1.00445
90.3326 12.4139 0.64607
379.388 39.6324 4.7253
108.201 10.9639 1.17461
390.347 39.6519 5.0339
61.6422 6.31356 1.27987
76.2592 13.5815 2.0184
142.414 19.3351 2.2286
308.889 35.1309 5.13388
226.46 24.8281 2.37315
105.152 16.4581 3.09602
122.613 13.624 1.49558
242.59 35.5539 3.91698
139.305 19.3863 3.09523
602.336 73.0424 10.289
129.598 17.9556 1.58772
347.085 53.3481 7.64265
36.3342 1.98019 0.250569
157.314 16.3653 2.29025
286.989 34.8363 4.54068
126.808 17.8965 2.51104
32.9812 5.36789 1.32412
121.999 20.885 2.24853
31.3567 4.89627 0.443369
125.745 23.8709 3.49228
267.928 33.9146 5.29516
59.6224 10.1833 1.08385
39.6562 7.06896 1.20698
86.6237 11.206 1.9451
277.3 55.4685 9.50398
146.884 22.5586 2.99707
222.373 26.136 3.82189
361.637 54.9848 9.1074
61.5162 10.5653 2.43421
134.952 23.0011 4.51574
81.4644 12.9843 1.72637
210.424 35.1844 5.4866
26.401 6.20206 0.809292
344.233 60.8755 10.5092
44.7297 6.28598 1.19635
56.647 13.995 2.71512
48.317 6.92796 1.26143
179.961 31.3039 5.33086
104.607 20.7416 3.57999
35.421 4.883 1.36681
210.375 38.3484 6.55855
113.611 24.5017 4.42943
70.2412 9.91527 1.60229
125.683 28.7448 5.84137
28.1024 7.32271 1.80305
162.919 30.8141 6.97918
122.785 22.1265 3.11428
52.6586 11.784 2.22123
208.44 54.0666 11.9691
112.969 19.8863 3.86279
111.978 33.4778 8.37066
236.858 47.2404 10.5006
19.3004 8.07658 3.25585
65.1839 9.03392 0.92774
40.3688 11.2601 3.0319
10.1531 4.09492 1.19398
100.769 20.7593 4.27105
132.889 28.9832 4.36222
30.5739 6.05061 1.7447
222.147 57.4591 14.1812
93.3368 17.4021 3.07396
42.1712 12.1053 3.32914
196.052 39.6198 11.0379
117.007 18.8893 5.65274
74.5639 16.1762 4.07625
14.0836 4.77415 0.888347
112.167 20.3144 4.79618
29.1184 7.32475 1.47508
16.3227 4.42042 1.11103
79.112 24.3453 5.66457
13.8528 4.03362 1.0236
30.4931 15.3877 3.8021
63.6883 11.1535 3.0647
95.7655 27.5202 7.38605
118.637 32.3966 9.3503
56.7372 8.19413 2.13838
135.224 43.6658 10.9434
51.0818 8.20952 1.41997
29.5879 7.03789 1.19654
93.3529 20.9458 6.26547
66.4116 21.205 5.40712
42.5147 12.4005 3.76957
147.494 40.4991 10.1419
44.562 16.772 6.64264
100.946 32.8786 11.0634
125.279 26.2226 6.89328
198.196 63.8086 17.6068
92.6364 15.6159 2.54432
163.537 44.1635 12.6546
108.549 34.9981 8.35285
83.6957 21.5349 4.77353
56.945 23.389 7.30341
71.3267 15.9651 6.0121
72.9177 19.3879 7.28786
43.0465 10.1443 3.35223
42.4545 10.5729 2.70635
29.9237 8.48855 2.87796
35.4906 8.21799 3.6729
70.6339 17.7218 5.56627
75.8186 31.3154 10.3303
33.0146 8.75113 2.80588
29.7937 9.34121 2.80606
27.4271 4.58418 1.48381
79.9445 27.804 7.50636
54.4604 12.0345 3.54491
48.7791 20.0214 8.57187
29.383 11.338 3.34573
66.7872 20.7352 8.24349
104.181 29.6322 8.75417
83.1985 33.9239 11.6153
66.7722 20.0902 7.15354
93.824 36.4759 13.1154
98.0083 30.3172 8.66263
32.9781 14.8444 6.26936
38.7184 7.13543 1.47208
28.7725 9.37296 3.55262
22.6038 13.1552 5.71476
43.5415 15.7737 4.85716
12.9079 8.41219 4.71217
121.323 31.4767 11.3529
47.6831 14.0234 7.05591
80.6617 25.3956 7.08212
38.6983 13.1905 6.52909
16.0734 2.37449 0.642746
137.303 41.0499 14.1595
69.1002 24.9436 11.2246
32.4623 11.8179 5.33154
58.3619 22.0056 7.17308
34.8897 14.3755 7.1819
84.0973 36.3349 10.2141
14.4051 10.8475 5.51775
97.8943 32.7028 12.1816
140.32 52.854 19.4032
110.72 47.2678 19.3508
257.186 121.654 47.3343
26.7608 8.82657 4.132
60.406 20.91 10.7838
93.32 29.6623 9.15983
65.3474 29.2796 15.5772
24.0773 10.0612 2.99001
70.3885 34.7629 12.7466
45.5304 16.3019 6.94342
42.9075 16.6935 8.33621
50.0314 20.6696 9.18312
120.012 49.4856 20.2068
40.8582 13.4374 6.46421
43.9891 23.4295 9.18658
61.9255 27.016 8.29367
59.9319 21.558 9.97306
28.7601 20.2775 12.6694
114.783 39.6693 12.8579
51.4638 21.6617 11.6004
36.2179 16.9244 10.1942
105.457 46.0281 17.8289
21.4373 11.7766 7.7181
94.2812 38.1588 12.9026
69.3428 43.6084 23.568
33.2182 14.3979 5.91268
43.8805 11.5783 4.1946
50.7821 23.4471 12.3097
49.9052 23.4386 8.79071
68.4168 37.0396 18.065
68.8579 38.2684 17.1359
48.5837 24.2516 12.1045
45.4143 15.306 7.59609
32.8436 15.3716 7.38875
28.6966 11.8933 4.29737
32.436 19.551 10.1502
20.8221 9.62574 5.4228
18.1391 6.43062 5.14634
78.7406 37.994 15.6181
5.5072 6.7875 6.09755
36.1109 17.9514 8.63789
64.003 25.1497 13.5903
44.1822 25.7698 12.3082
50.9354 19.2599 6.789
39.0048 26.1557 15.232
25.0661 17.0917 11.3794
32.55 12.9726 3.69377
34.6452 18.4451 7.02205
24.9364 19.0448 10.834
91.2946 46.3991 22.3665
18.3674 8.39625 6.85835
64.7454 33.0812 18.7491
52.6608 18.5886 9.94417
60.2057 33.3065 17.5673
61.797 37.1509 22.3225
43.5783 22.817 13.5493
13.8383 6.16529 5.04975
98.2272 56.1139 28.7878
22.8932 28.263 22.5564
67.8672 23.2572 10.2099
36.1255 14.8984 8.90537
28.1048 16.3467 10.002
35.0242 16.8528 7.80175
23.9077 13.0631 8.76634
38.3346 33.1172 25.6393
57.083 20.9778 7.17378
13.5051 12.0755 9.37788
34.7982 16.7043 7.64832
34.1031 17.4708 12.4019
70.6327 30.9394 13.6779
43.1002 26.6075 14.2886
43.5802 30.8414 16.9112
48.8269 38.6627 24.6683
33.5552 18.5642 12.8536
68.9119 32.9749 21.1385
25.8608 13.4778 8.59316
24.149 19.0275 13.9638
21.1516 17.184 13.0679
43.7376 15.621 9.8748
21.5845 8.10567 3.69397
22.477 11.3635 7.91625
53.1271 25.7705 10.7007
34.1013 22.4204 14.6503
3.93332 5.43546 4.66376
45.7822 23.6464 16.3791
59.5975 45.2512 30.5082
31.7581 13.4744 5.29443
31.2034 23.229 13.0544
32.1744 22.0725 17.0367
24.9643 19.2639 15.3646
35.8516 33.2033 26.9641
64.0253 31.786 13.1427
54.0513 33.1672 17.3663
45.1811 44.1332 34.8862
62.7066 29.189 17.5725
25.3012 23.2375 15.9266
23.9569 18.6323 12.9376
42.0656 22.1648 15.9868
13.8736 16.4734 15.5809
21.7399 18.8734 20.2738
87.4938 36.3913 15.5054
38.5024 36.256 27.065
80.3915 46.1939 29.6933
26.7387 14.5658 11.5408
111.709 80.8084 61.7175
73.4776 37.1218 18.1864
15.8287 14.1172 10.6554
15.0435 8.22814 6.69937
16.6349 13.5226 14.1329
83.5497 45.9649 27.4845
10.2626 9.24063 9.61936
30.7985 17.1447 10.2189
13.2946 9.48661 10.3924
35.0031 22.9814 15.9034
20.3791 13.8153 6.52171
35.1331 41.798 37.4185
22.8836 18.6557 16.7809
12.3382 4.6053 4.36055
37.5831 29.7858 20.2956
36.0594 16.3223 8.26311
9.9773 8.36727 6.75958
24.8118 17.0649 12.3694
12.2055 10.0549 14.1052
140.535 106.453 71.3864
11.3076 10.755 10.7392
38.591 30.1106 27.0949
28.8892 18.1488 19.1451
52.2373 31.9119 21.731
85.5568 61.0314 45.2369
14.1145 21.7668 24.0519
47.0802 20.4243 10.3532
14.6806 10.5904 9.06201
21.485 14.8854 15.3648
50.9306 43.3744 33.9834
45.8678 43.2208 37.7949
35.5944 20.4339 18.4068
48.6239 25.6086 12.3987
63.9471 43.7636 31.3503
11.6101 11.8149 12.0582
20.6271 13.3403 10.6961
9.74921 4.64231 7.96355
57.6381 43.2365 32.0289
31.4604 30.3873 31.6561
11.9879 7.52616 3.73735
16.7953 19.7434 14.837
16.4324 30.1226 39.8123
53.2405 28.2638 18.1542
59.8037 42.4996 25.2081
13.1965 17.0332 17.6047
31.6352 30.9568 23.6969
18.8646 22.6283 28.35
10.7852 2.70138 8.06815
74.1302 54.5614 31.9067
26.771 22.4108 17.1632
52.9899 47.4281 41.2335
16.4391 16.7271 19.7531
55.2418 46.5541 31.0193
11.4052 8.85544 8.39635
21.8051 21.6071 21.7717
46.2045 36.7805 33.7969
17.0818 15.27 14.7259
20.1195 11.3369 7.81156
52.1743 43.9641 39.4067
21.2002 17.2355 19.0045
16.22 13.009 9.73531
13.5934 12.1317 12.694
19.1631 28.7571 34.7046
46.7944 39.2303 38.8741
48.0071 31.7173 25.5848
31.3393 25.3114 27.9096
44.735 33.2303 21.5447
38.1658 35.3121 31.9107
28.904 26.9059 27.6852
23.3703 17.1969 12.4855
11.8937 8.14365 7.60864
25.4937 22.5239 22.9759
52.3821 68.5208 71.5162
39.3007 18.2498 10.2205
19.5407 18.5937 13.2603
33.3063 26.5057 23.4968
32.9857 33.6987 33.7146
27.2324 28.9704 37.8659
26.3884 23.0271 14.1351
7.71123 14.2553 24.528
42.2721 50.4397 40.2267
19.8295 23.2333 31.0324
34.0065 38.1605 45.3958
44.249 32.3807 28.029
21.9714 18.0106 12.8701
29.7332 18.9265 12.5479
23.6982 21.4848 15.3924
32.137 43.6259 50.8784
5.80459 1.95968 6.83433
26.4555 30.2042 34.0628
19.673 18.2556 20.181
62.9191 73.3533 63.3558
9.10407 7.09274 10.0703
10.177 8.59502 9.20084
9.14769 8.17564 12.9567
19.1672 22.0533 28.1271
60.6147 55.8147 52.6795
33.7562 32.1711 25.9703
46.2927 70.4757 75.9498
25.3361 21.5965 18.2207
57.5203 64.0147 61.2851
32.9161 41.9591 46.7122
14.4141 9.96488 7.61931
8.47669 4.17275 6.11621
44.3664 38.0936 32.6287
21.1099 26.2041 26.3873
14.6352 30.4394 56.4268
48.1078 38.4847 28.998
6.48116 9.57197 9.69973
13.792 12.2762 7.34585
13.6228 18.3032 24.1958
28.5019 46.9346 53.9602
9.01842 4.91496 12.3676
40.3073 33.8556 27.0607
20.8164 28.9859 30.9804
11.7075 19.7808 27.3045
5.62008 7.21964 21.8532
62.4327 59.4013 50.8685
30.8495 36.0565 38.6854
7.3884 12.2173 15.2426
26.2804 28.7928 36.9638
23.8101 24.3855 31.695
10.4295 14.5004 33.5026
48.0442 37.4042 25.0319
31.3509 43.7697 53.0475
14.8268 18.9136 36.7676
24.4865 33.1631 35.6942
13.483 9.04879 7.14187
25.3474 30.4139 41.3401
13.4088 11.3613 6.79752
17.7912 24.9219 29.0428
21.4585 30.5753 31.4457
15.8519 21.459 28.2176
30.6181 37.2079 35.157
39.9466 62.2368 72.912
50.6313 74.379 97.676
29.7974 18.5162 23.5387
21.4717 14.2869 12.4545
8.22088 9.8488 12.4539
35.437 39.7227 45.3588
12.8399 18.6324 34.1446
14.9934 7.53935 6.24957
50.4115 55.577 58.2772
16.418 26.5273 47.0237
29.9878 20.8976 14.6453
42.2385 58.5858 78.1003
14.2358 15.4467 20.1943
2.83236 2.84252 3.10011
8.44551 18.4076 30.3597
18.625 28.2764 47.8022
55.1277 61.1629 74.9695
40.1089 44.5783 56.1426
16.5909 18.5511 21.0986
17.0201 15.3434 14.4218
21.0613 29.5815 41.8334
23.1242 18.5792 15.7036
22.779 31.7971 43.5607
25.8983 24.2422 28.9277
22.5071 33.0812 39.3277
14.5698 21.8152 24.6781
17.1263 39.7766 55.3809
11.9222 8.71458 14.8118
14.8323 15.8268 16.2383
6.54796 13.7211 20.2399
7.90729 9.72593 19.5948
12.0461 19.1467 23.3517
16.4587 14.5898 20.5888
16.1437 28.1709 45.442
29.4366 32.8227 32.4448
8.60783 4.39168 12.9313
36.4596 41.9968 36.6711
20.0571 32.6544 36.4773
21.3959 51.1867 89.1649
28.4029 45.6733 69.8738
23.4644 22.2243 44.6772
25.0126 12.2763 14.317
55.0253 64.3745 68.9955
9.2308 12.3415 15.6703
8.21054 15.4032 43.6004
51.8049 47.9505 36.4316
4.73312 10.4443 18.0437
9.2199 8.46765 9.15823
18.7328 25.319 32.1584
12.3708 19.0142 35.6316
13.7597 15.0207 21.285
17.9976 31.1188 37.7762
10.5658 27.5157 60.1057
27.8977 26.1127 31.7518
19.4021 26.4836 31.4391
16.8438 32.2177 59.3115
27.8465 28.8352 33.3047
14.5438 12.9161 8.67809
5.99223 10.146 12.8404
1.17519 4.65251 14.7681
9.8208 17.5489 39.1844
43.1648 61.8011 75.6663
12.3049 13.0238 14.549
6.30333 26.0442 58.2402
23.1143 11.526 6.39858
22.9519 31.5611 31.8604
10.0687 18.2186 24.5614
5.60345 11.0988 19.392
7.75614 23.929 50.5539
29.501 37.502 42.0434
30.1067 32.4834 31.1956
13.212 12.8695 11.2335
13.2227 21.7161 31.2739
17.7638 35.562 59.7168
12.2211 18.8872 35.2264
25.7381 35.248 54.7612
19.0185 16.7866 21.4975
17.507 28.8894 51.5327
17.7285 14.8251 14.9754
18.1884 31.9658 37.1172
8.31562 21.931 28.8272
6.75194 24.1141 57.9165
12.4131 22.4046 52.0291
21.8152 17.4886 24.3389
17.542 13.9195 8.78534
26.056 38.0965 39.6134
12.2203 37.779 87.4711
13.1548 8.76079 26.9658
25.3757 30.2933 31.8414
15.707 35.6852 60.1554
26.7665 55.7465 93.2931
28.9072 29.5757 28.7993
5.94088 12.7188 30.5648
12.5827 10.9888 14.271
9.2009 10.6035 12.0855
13.5218 26.2773 41.4009
15.5432 19.8296 24.2619
5.35988 7.75058 18.7069
8.13291 24.0822 43.4247
13.9229 11.2038 16.4627
4.5853 4.88848 17.0282
34.1808 63.499 80.3093
21.6366 42.7561 74.6622
8.03259 8.93083 28.3931
12.129 16.0204 13.2875
7.08957 20.5201 45.9985
28.0487 45.0961 88.0023
28.2387 28.376 26.4317
11.3022 16.3106 24.2756
9.06147 11.3703 13.0795
4.19608 7.19968 17.0021
10.1087 30.2505 49.3659
10.8396 12.5807 30.1864
8.23163 3.28408 28.0409
48.3831 56.9269 45.5965
23.3743 54.7937 89.9892
10.7169 19.0487 39.9262
8.34433 8.76861 10.5165
13.2886 36.2452 64.4619
7.36142 15.7091 36.2337
20.7812 32.8725 57.9324
10.627 18.0188 29.3814
4.21042 9.02294 20.571
10.0104 26.5071 52.8498
6.69781 7.06333 41.5634
28.8254 33.4708 26.8272
11.6782 23.3178 66.9732
35.9012 60.0717 92.2783
28.1189 36.9712 50.2964
22.3304 41.105 65.8551
12.5432 31.3083 52.0301
8.42421 7.08038 20.5979
18.4675 25.8353 33.8515
8.24232 15.0799 30.0336
15.5424 14.2901 19.1991
6.17738 5.86763 16.862
24.5028 44.7269 71.513
11.7579 20.2285 25.5791
7.22352 22.0132 54.2434
9.82432 18.4686 46.0082
37.4138 88.2607 182.023
50.3697 91.5569 152.723
27.1607 23.4796 28.655
4.38149 14.4801 51.7841
22.3056 12.6807 3.2163
12.9223 22.1063 37.5403
18.8496 24.9114 35.1707
5.83249 5.71188 13.6365
13.6508 14.9606 16.6868
16.9292 28.1161 32.5858
10.4595 25.4291 50.4924
9.78306 10.026 9.21198
15.4356 32.6492 66.1485
7.8805 13.6527 32.396
12.4369 27.1275 44.7202
9.98407 17.0839 31.841
16.087 18.6877 24.8215
12.0172 23.5757 54.2116
23.0903 54.9121 106.797
7.65521 16.9609 54.8678
15.823 9.25751 7.91386
7.60122 6.11823 11.1111
9.36322 11.7456 21.4175
12.0225 22.6066 29.8465
9.31118 20.8083 48.4188
28.2842 40.2419 46.4372
3.01789 19.7064 57.7498
22.1392 70.9446 187.931
33.0465 46.5384 56.6166
8.82445 14.286 27.685
8.42826 9.74471 24.0864
13.2386 18.9754 19.8436
8.30371 22.8756 37.6663
8.6592 14.3023 27.041
4.30353 12.5996 19.6517
4.55061 6.42816 12.1599
4.74817 7.83495 15.1673
8.1555 13.9217 15.136
4.98157 15.4315 52.7643
13.0859 34.9275 59.6358
9.85063 14.7857 49.4821
19.0037 38.656 64.9157
5.16206 3.73964 7.33445
10.157 14.6698 22.9506
18.0382 39.2736 88.0316
16.9208 34.0326 39.6935
5.57477 21.9047 49.6671
14.5908 23.0662 47.599
16.7653 38.4232 70.164
19.6193 36.92 67.1894
8.30939 19.6091 30.8616
4.8545 16.0042 32.6432
9.14148 36.4855 92.0403
10.7826 5.36964 16.3889
12.1794 21.2691 49.5815
12.8166 13.0834 8.99089
6.19428 9.84938 15.4264
7.30336 16.9412 49.1928
4.04335 7.2007 20.377
10.6667 23.8065 52.0288
8.43091 13.2637 37.6312
19.3426 19.6553 21.6375
7.80985 15.0591 20.1592
16.4227 41.0205 74.1093
6.83594 16.3293 43.9959
9.20179 25.0972 67.1956
11.8434 15.9209 13.0041
3.11194 12.0703 28.0888
6.92454 24.2298 62.8477
14.8714 24.0089 63.8215
12.2672 20.9624 24.4139
9.17315 31.8088 77.8006
15.9691 23.5883 32.7392
5.28028 17.532 42.9628
14.666 26.2417 51.3098
16.6249 30.5883 65.8792
5.74904 11.7908 63.3279
30.7748 62.8653 101.207
11.2274 16.0113 20.7592
14.389 55.6447 121.083
19.2483 26.1331 38.062
5.14219 13.7683 36.3468
11.2759 20.9334 51.5436
7.79814 12.7034 18.2898
18.5627 53.5302 120.801
6.12448 6.311 16.1179
4.43538 20.562 68.8489
8.8672 13.696 77.8828
21.5573 23.9247 11.3637
5.60869 12.7419 18.5703
8.33202 18.8127 26.7127
1.59371 9.03653 37.162
14.5231 28.8046 61.196
8.64545 16.104 46.6157
10.7245 13.6784 27.0092
16.8417 26.5084 44.0989
8.41367 18.0103 22.0995
1.87408 4.57913 19.8226
3.63759 8.44563 16.6402
13.5614 34.1922 56.8015
17.3391 37.8076 99.4036
9.57302 15.2008 22.9562
1.76463 7.0591 15.8351
3.08475 18.9349 64.2889
12.5365 27.9865 58.8063
5.03302 7.07277 25.949
3.64845 8.33722 26.0844
8.88021 15.4116 44.9861
8.67885 14.8534 19.5506
7.13568 11.5819 20.8776
4.40512 6.16492 23.8611
7.90715 13.0085 19.6726
4.19559 11.709 29.3118
6.90273 19.0374 47.5974
7.54907 22.5061 72.8701
7.22935 6.90209 24.8011
10.8988 19.6935 26.0976
2.75489 2.33635 13.1321
7.86302 19.2721 41.1762
8.01838 18.5806 27.3611
1.58158 3.82351 12.3417
4.83522 10.1472 20.501
3.20407 12.6363 66.6031
14.3862 40.8055 62.4114
6.53995 17.933 64.5818
17.5091 34.9208 57.3135
3.57302 4.43302 27.5338
9.73065 17.2441 33.9406
8.06935 23.0195 45.7655
6.79683 11.6284 19.1099
5.41346 7.52044 9.00884
1.83627 2.99008 7.81791
1.99346 12.1371 47.012
7.19456 11.6695 17.3268
5.19298 13.4002 18.2155
3.5927 22.6337 55.7332
4.54207 13.1742 24.9938
3.41933 14.6593 58.8359
14.0856 24.2506 45.4808
9.22573 20.9031 37.0918
2.1218 15.8214 46.5358
4.69377 6.61586 44.3366
10.0857 8.49281 22.2981
11.6091 27.7409 61.9884
9.5534 30.667 71.4884
11.4249 12.5174 13.1651
4.26085 8.3928 25.5517
4.3563 8.96261 14.3703
3.47329 8.59678 26.4801
9.45905 26.2948 73.2466
16.2699 30.0785 43.4106
5.09476 17.3685 59.1104
6.31229 5.55847 10.8693
6.24014 14.8626 32.5637
3.79857 3.96269 14.1419
2.84254 7.32515 14.703
7.36737 28.0228 78.4859
13.7494 23.3345 25.246
