# pn-170911/RbIIR-59-AMC2-1280-1959.psd
# Power spectrum* (dif=0,1,2) (really just |FT|^2)
# NOTE: only the first half! (symmetric)
# weeks: 1280-1959
# 491 clock-days, 56 excluded
# PSD: 1441
394.105 0.076515 0.066297
12531.1 0.311982 0.142729
41372.8 0.835948 0.148922
13216.2 0.54507 0.125416
30414.1 2.30443 0.143243
4755.26 0.55447 0.128827
4474.29 0.734884 0.130825
2363.57 0.519201 0.138196
3717.7 1.06439 0.124085
1694.02 0.564025 0.122449
1495.15 0.655257 0.133963
1061.59 0.570957 0.130172
1138.51 0.712358 0.139459
804.548 0.603317 0.130379
766.961 0.669024 0.148888
603.612 0.588777 0.126429
684.303 0.779705 0.130344
504.466 0.675907 0.129977
543.9 0.792405 0.130345
446.101 0.747901 0.121719
419.433 0.764642 0.139996
389.012 0.783625 0.140828
404.415 0.872947 0.130536
347.238 0.838711 0.135371
373.653 1.00989 0.148053
336.982 0.925009 0.137312
320.634 1.00814 0.138747
312.881 1.03773 0.141982
320.308 1.12153 0.130724
301.379 1.17072 0.134851
312.118 1.23709 0.134023
266.55 1.16373 0.140721
278.235 1.2604 0.146139
240.366 1.23091 0.139239
269.038 1.41645 0.134501
262.263 1.41857 0.137294
258.444 1.49303 0.152428
245.586 1.46709 0.136182
243.401 1.6069 0.153547
227.187 1.59421 0.140236
244.443 1.80226 0.14437
219.925 1.70634 0.139624
243.148 1.96463 0.16557
226.959 1.98462 0.150817
217.059 1.96238 0.132412
194.725 1.81908 0.153704
189.926 1.88473 0.144066
192.647 1.95936 0.144637
267.279 2.79136 0.16644
201.859 2.29059 0.137757
201.112 2.28481 0.153237
201.143 2.45285 0.168105
215.177 2.6821 0.173256
209.15 2.73634 0.16413
224.401 3.0875 0.189276
192.287 2.70784 0.169803
195.598 2.90244 0.173185
190.463 2.85146 0.177813
234.772 3.61811 0.178476
215.272 3.51502 0.19185
212.142 3.5388 0.189415
198.302 3.41962 0.191303
207.474 3.69312 0.188837
178.162 3.31766 0.197035
176.941 3.32705 0.200599
199.89 3.92084 0.207773
201.806 4.13441 0.218433
217.85 4.57014 0.219622
185.867 4.09614 0.224295
201.481 4.54654 0.226678
173.316 3.96411 0.235833
181.621 4.34961 0.211973
263.293 6.44897 0.262187
187.231 4.63516 0.241292
190.838 4.94361 0.245993
162.052 4.31891 0.242168
191.564 5.22466 0.265548
177.086 4.93637 0.268058
210.347 5.93439 0.317492
166.69 4.82603 0.272756
184.308 5.51593 0.298666
159.419 4.8805 0.257578
194.698 6.19331 0.312804
186.257 6.07874 0.315012
202.249 6.69321 0.326061
167.405 5.57808 0.31995
175.887 6.13022 0.340254
185.762 6.52823 0.370349
183.451 6.74278 0.366412
177.961 6.66241 0.375954
187.776 7.09986 0.385702
195.025 7.47783 0.394602
194.273 7.81995 0.422864
157.08 6.35416 0.360502
154.397 6.35477 0.408716
154.522 6.61243 0.398681
294.45 12.9195 0.649724
165.621 7.36846 0.469739
161.746 7.22945 0.473909
159.947 7.26914 0.441691
174.404 7.94798 0.497234
176.921 8.55149 0.494839
198.279 9.59179 0.552171
162.162 8.0735 0.492437
150.043 7.53074 0.502328
148.043 7.68217 0.539264
162.208 8.71125 0.530718
143.434 7.68368 0.539028
159.35 8.65432 0.593575
144.231 8.0771 0.556016
173.893 9.95377 0.65858
153.426 8.93773 0.651994
146.977 8.56135 0.636768
160.895 9.6645 0.674673
197.673 12.0374 0.842343
157.528 9.95331 0.721851
141.813 8.99382 0.683092
149.199 9.58752 0.710174
147.025 9.72702 0.741495
161.147 10.7613 0.805719
174.755 12.103 0.8893
162.163 11.023 0.869193
142.566 9.94444 0.768959
149.169 10.5011 0.851566
138.165 9.80259 0.789967
147.686 11.1699 0.916745
181.893 13.6777 1.06363
148.147 11.1487 0.906574
147.577 11.5926 1.02758
132.812 10.2917 0.881742
148.166 11.6716 1.00847
147.081 12.1116 1.07886
176.086 14.5127 1.26807
139.127 11.6709 1.01097
144.05 12.0805 1.09969
127.907 11.0248 1.0143
120.833 10.4251 0.972136
136.076 12.0427 1.15343
135.965 11.915 1.14075
132.125 12.1495 1.18877
133.423 12.4904 1.24473
135.06 12.3712 1.237
120.489 11.3971 1.1311
141.983 13.614 1.37779
158.891 15.9432 1.64272
139.51 13.164 1.37238
123.331 12.1088 1.27307
134.608 13.7309 1.54157
122.935 12.5669 1.39049
112.465 12.0221 1.32155
153.565 16.2121 1.76102
124.027 13.1441 1.44917
131.307 14.1149 1.58713
108.917 11.8934 1.39919
114.142 12.7236 1.49733
116.106 13.4657 1.56619
144.417 16.2967 1.93256
120.679 13.9761 1.67165
116.981 13.3474 1.58523
112.344 13.5288 1.72777
126.633 15.3099 1.94942
147.506 17.8904 2.24287
131.221 15.9195 1.95911
110.477 13.8364 1.73752
116.952 14.6603 1.86271
108.706 14.1049 1.8229
115.225 14.8676 1.96277
125.276 16.6227 2.25769
130.487 17.5878 2.35206
125.231 16.5215 2.24696
109.613 14.7371 2.049
116.458 16.0455 2.19501
103.462 14.4953 2.04221
114.102 16.0242 2.33317
125.684 17.8058 2.5671
111.643 15.9805 2.33642
103.044 14.8595 2.20647
110.825 16.5278 2.49831
106.414 15.8526 2.43548
99.1498 15.2167 2.42819
132.429 19.7305 2.91074
102.512 15.6973 2.37911
106.761 16.8063 2.70102
115.61 18.1131 2.88818
107.371 16.8524 2.68116
118.469 19.2755 3.10867
111.412 17.9029 2.9493
98.4722 16.142 2.61925
107.853 17.7521 2.98257
95.2806 16.2724 2.80531
101.264 17.1172 2.93444
102.185 17.9127 3.12751
158.413 27.3051 4.67602
104.094 17.4166 2.99401
100.6 17.9788 3.20557
93.8643 16.9 3.04969
93.6139 16.9097 3.06369
90.6392 16.2335 2.91474
112.415 21.0456 3.89029
93.0602 16.7618 3.10309
98.8689 18.7853 3.56292
107.031 19.7551 3.67458
93.2818 17.353 3.27294
91.4331 17.8156 3.55266
117.157 22.5836 4.33252
91.4061 17.9921 3.44532
88.6365 17.606 3.51144
87.5765 17.6038 3.55302
96.5163 19.1163 3.8535
99.7201 20.9485 4.26971
97.0533 19.893 3.99234
85.8353 18.1735 3.79291
87.6475 18.2156 3.83529
86.2386 18.3945 3.88205
81.9538 17.4323 3.75232
89.309 19.329 4.14974
100.67 22.012 4.7424
92.1978 19.8288 4.25023
79.166 17.7269 3.95993
92.0205 20.6269 4.46872
84.3176 19.3984 4.47224
94.4676 20.9956 4.66666
95.5302 22.5286 5.27489
91.5986 20.7404 4.70336
86.1732 20.8115 5.02122
85.5236 19.3723 4.40648
80.5542 19.6985 4.70194
86.0809 20.8995 5.05144
93.4397 22.8558 5.59662
81.5254 19.0816 4.43804
76.3534 18.747 4.5795
75.2933 18.7785 4.71299
77.1417 18.829 4.61401
79.461 20.3741 5.24873
83.4636 21.0089 5.2594
74.9601 19.3837 4.98027
81.6708 21.3696 5.51401
71.8925 18.8637 4.92167
73.2916 19.0905 5.05118
77.8131 21.2378 5.67831
91.6634 24.2333 6.24784
77.588 21.0241 5.639
81.3269 21.9965 5.99096
67.6615 18.653 5.19075
81.606 22.1469 5.89882
64.221 18.2068 5.10455
81.2032 22.9139 6.26876
75.3585 21.193 5.96225
68.4181 19.6155 5.60484
70.0056 20.1999 5.67212
74.2262 21.3807 6.12121
68.3042 20.375 6.06348
75.6235 22.4487 6.63192
71.5523 21.6566 6.46337
72.467 21.1192 6.20116
64.9566 19.3665 5.85353
70.1837 21.7545 6.74219
78.6151 24.2553 7.52152
76.039 22.9563 6.83803
72.401 22.1199 6.83319
69.284 21.8749 6.75664
71.9921 22.7243 7.18402
69.8849 22.4121 7.11136
68.0945 21.7661 7.0688
72.7073 23.1027 7.30011
62.2075 19.9451 6.4508
64.399 20.9212 6.79323
62.5971 20.6568 6.74659
67.5722 22.2592 7.32239
68.9898 22.9542 7.77695
69.7986 23.7699 8.03688
64.1719 21.9893 7.60232
62.3907 20.722 6.95743
57.7053 20.2169 7.14674
65.5891 22.338 7.65908
53.971 18.9639 6.68682
67.2789 23.2555 7.89845
61.0259 21.3915 7.53106
65.8551 23.2738 8.15122
58.1298 21.1019 7.5657
64.512 23.5408 8.50978
61.5981 22.4701 8.14148
63.4533 22.9962 8.42312
61.1444 22.4421 8.32143
62.1544 23.1688 8.46523
54.8338 20.3912 7.62073
57.0535 21.4552 8.24955
62.7387 24.3444 9.61882
105.059 38.6776 14.2547
57.3088 21.6498 8.25919
52.8331 20.4637 8.01909
59.1751 23.1301 9.03119
54.0687 21.2126 8.35026
57.2607 22.4326 8.77971
57.0329 23.041 9.09183
56.5611 22.5726 9.19766
55.6439 21.69 8.63381
55.8591 22.362 8.97938
52.5241 21.4239 8.82154
54.761 21.9898 9.01933
56.5409 23.4073 9.54312
52.9211 22.001 9.23082
54.7703 22.2117 9.03651
51.8256 21.7758 9.11065
56.5074 23.8262 9.9415
51.5668 21.9397 9.36388
53.766 22.9429 9.72482
51.0094 22.3894 9.70591
54.2776 23.3455 10.1061
53.2152 23.3907 10.1535
48.8424 21.7968 9.76371
48.9043 21.5488 9.6941
59.9013 26.6176 11.5223
52.6652 23.2157 10.2691
47.8878 21.8244 10.0464
52.609 23.6919 10.6786
47.7458 21.7476 9.85273
54.129 24.4736 10.8844
51.0651 24.3584 11.5122
53.9078 24.8777 11.3188
48.6824 22.2958 10.0111
52.0673 24.9388 11.5075
48.741 23.3859 11.1298
46.8481 22.1654 10.5507
49.6414 23.6807 11.2243
44.3854 22.0488 10.8356
47.7448 22.4853 10.5038
47.6464 23.3603 11.3316
48.4988 23.9904 11.8891
45.6359 22.6921 11.334
48.5747 23.829 11.7048
44.3105 22.5188 11.4121
45.6708 22.9192 11.5215
42.8699 21.4655 10.8803
51.2474 26.3408 13.566
43.5087 21.9827 11.2748
47.4649 24.4122 12.3461
44.8554 23.0322 11.9631
46.4788 23.8864 12.2991
42.0004 21.891 11.4415
42.2699 22.0269 11.484
44.6992 23.7355 12.7015
43.5038 22.8415 12.0148
43.8627 23.4342 12.3429
42.0945 22.4135 11.8683
37.7062 20.5155 11.1829
43.6818 23.2149 12.2625
44.1541 24.5316 13.2249
44.0338 24.6551 13.6607
41.2993 22.3159 12.0884
39.774 23.207 13.4477
39.4894 21.4097 11.9502
39.0204 21.9403 12.4637
44.6913 25.035 13.9825
38.9636 21.7659 12.1837
41.1358 22.703 12.6771
41.2421 23.7701 13.5223
38.6163 22.2551 12.8703
39.525 22.9942 13.3014
40.5261 23.3811 13.4529
38.5731 22.7111 13.3559
37.6794 22.0279 13.0542
38.7597 22.9758 13.5934
39.2128 23.1478 13.8716
38.5472 22.7818 13.3591
39.5679 24.2623 14.7537
41.9758 24.295 14.2415
39.0913 24.0679 14.5166
34.549 21.2891 13.3094
37.1998 22.9814 14.2215
37.9644 23.2339 14.288
36.7777 22.1787 13.5568
36.6104 22.5279 13.7521
38.2126 23.8999 14.9676
37.0411 23.6241 14.7949
39.0679 25.5313 16.3535
37.2615 23.3393 14.546
36.3145 23.3232 14.9643
34.5725 22.9438 15.3893
38.0374 24.1211 15.523
36.2369 23.2494 15.2432
37.0821 23.5376 14.9189
35.7124 23.6354 15.8084
36.6116 23.9451 16.4097
57.2895 36.1642 21.7509
37.0949 24.7732 16.7044
34.3328 23.883 16.4044
36.7761 24.7338 16.3658
34.0002 22.3184 14.7797
35.31 24.0782 16.1719
32.6514 21.6715 14.5906
35.0215 24.0186 16.2782
31.9911 22.3408 15.4281
33.7752 22.5694 15.0571
32.3108 23.2874 16.3561
32.6423 22.6791 15.6802
32.6495 22.8965 15.9517
31.4001 22.5059 16.1155
33.2957 23.437 16.3689
30.6315 21.442 15.0448
32.474 23.7174 17.0069
31.4875 22.828 16.5585
31.8147 22.8705 16.6379
33.0084 23.5627 17.0972
33.2828 23.8536 17.0512
33.3055 24.3752 17.9455
33.6493 25.1851 18.7754
30.5995 21.8278 16.3173
37.1073 27.0114 19.6058
32.2862 24.2981 18.4138
32.9206 24.2107 18.1041
32.782 24.355 17.6447
28.8301 22.0082 16.9689
32.1953 24.0748 17.9817
30.2586 22.9544 17.4021
30.5748 23.1541 17.5872
27.9483 21.2113 16.4564
34.5007 26.1755 19.8635
31.4776 24.4956 19.0585
29.3504 22.5189 17.2882
27.662 22.1475 17.9641
29.2078 22.3506 17.3684
30.8764 24.5164 19.7664
30.3677 23.3959 18.5889
30.8676 24.2199 19.0733
29.3874 23.317 18.582
28.6949 22.3808 18.071
30.1843 24.4628 19.6629
28.2315 23.1403 19.3209
28.9463 23.0127 18.676
28.4945 23.1342 18.7205
28.5566 23.1586 19.0706
29.3556 24.043 19.8787
30.6268 24.9247 20.2838
32.2602 26.2187 21.0008
27.2527 22.9717 19.4405
28.229 23.2799 19.12
25.3678 22.3623 19.8559
30.0084 24.8013 20.4622
27.8624 22.9053 19.3849
28.8389 24.3997 20.4448
26.8474 23.1568 20.2388
29.8026 24.8656 20.6687
29.4489 25.1334 21.4024
27.4909 24.0924 20.6474
27.8336 25.7212 22.8237
24.1356 20.4265 18.1383
27.7605 24.2921 21.2024
26.8921 23.5487 20.5812
25.1736 22.7644 20.9726
29.8809 25.1774 21.6372
25.6654 22.9653 20.8101
27.9227 24.628 21.6123
27.4797 24.8552 22.3675
25.7228 22.4768 19.804
24.5644 22.8526 21.5548
25.7944 23.071 21.1366
26.2582 23.6106 21.4777
25.1855 23.6526 22.0365
25.2127 23.3794 22.4367
26.2021 23.0741 20.9002
22.7904 20.5122 18.9745
24.0387 22.1019 20.2913
25.1971 23.5763 22.3828
25.5013 24.1382 22.9869
25.9945 24.0671 23.1409
27.4194 25 22.571
25.65 24.6629 23.7081
25.5183 23.9101 22.6046
25.8443 24.5451 23.249
24.1121 23.1679 22.325
23.9965 22.8275 22.0345
23.6461 22.3824 21.1839
23.5919 23.6503 23.1121
22.7351 22.2626 21.8697
21.9719 21.4403 21.3596
22.8921 21.9778 21.1301
22.6007 22.5397 22.3697
22.8667 23.7108 24.4355
23.7436 22.9391 24.1876
37.0149 36.0354 33.2565
23.4628 23.6298 24.1777
22.9011 22.8097 22.9697
22.0783 22.0053 22.5209
21.9705 21.696 21.8644
22.5872 22.9309 23.1628
23.4231 23.8131 24.1751
22.493 23.4784 24.8388
23.1736 22.6137 22.6005
21.6414 22.1911 22.7355
21.8432 22.8603 23.3066
21.7448 22.8785 24.0482
20.8106 21.4344 22.6677
23.4445 24.0982 24.5175
21.4615 22.6842 23.7951
20.9567 22.0687 23.0542
20.5526 22.2559 24.124
21.5777 23.1563 25.0132
22.0652 23.1747 24.9066
22.9594 23.9015 25.3744
22.6006 23.6305 24.697
20.7816 22.4665 24.1816
20.2105 21.6216 23.3731
20.5282 21.3678 22.4703
20.0794 22.3272 24.2776
20.6729 22.5788 24.6159
20.3665 22.7 25.6509
20.7067 22.1772 23.8794
18.8104 20.3189 22.8138
22.5982 25.1244 27.4318
18.7257 20.1026 22.2106
19.9969 23.0759 26.6169
21.6312 23.4087 25.7543
20.7227 23.9779 27.0275
18.5709 20.1414 22.8306
18.2008 20.8127 24.4098
21.3557 23.8274 26.6688
19.6127 22.5202 26.2095
19.4843 21.7742 24.6293
19.507 22.2467 25.8951
17.6645 19.4535 22.5418
18.2874 20.8771 23.8258
19.2306 22.2561 25.7686
18.7939 21.6619 25.6716
21.2799 24.1786 27.3875
19.6045 22.6636 26.2927
19.6497 23.3892 28.2793
20.6408 23.9823 28.4484
21.5815 25.1745 28.9139
20.1189 23.7851 28.0721
19.983 23.7609 28.1853
18.8448 22.5492 27.0416
20.2075 23.9724 28.2982
18.1414 21.8056 26.4692
18.2076 22.6467 28.2728
19.8022 23.4974 27.8486
18.1899 22.43 28.2504
20.6922 24.4264 28.8895
17.6671 21.6574 26.942
18.2849 21.6182 26.5233
17.3646 21.3983 26.9399
19.5477 23.2388 28.1901
16.9009 20.6424 25.7759
18.5884 22.9058 27.953
17.8515 22.2841 28.1404
16.9721 21.5734 27.5432
19.5978 24.6191 30.5299
18.5106 22.8899 29.1949
18.3537 22.8703 28.4995
17.5451 22.0734 28.6911
17.7964 21.7767 27.6472
17.9427 22.4546 28.0135
18.3335 23.3186 29.1884
17.5348 22.8589 29.7753
19.0272 24.5527 30.5571
14.6958 19.2035 26.404
17.5892 22.1049 28.3706
17.7151 23.0685 29.7956
17.7268 22.5008 28.8936
16.3096 21.2095 28.4317
17.4177 21.9882 28.1403
17.8883 23.5803 31.2624
17.4184 22.6516 29.6675
17.5937 23.3893 30.3112
17.7369 24.3317 33.1542
17.8208 23.0558 30.1942
17.4708 23.9348 33.1857
18.0121 23.2456 30.4458
16.5812 21.9709 29.2447
16.1618 22.3182 31.4018
17.0872 22.6182 31.029
17.2857 22.7488 30.1795
16.7805 22.8771 31.4178
16.7915 22.5402 30.3374
16.4613 22.7874 31.1319
16.2552 24.7261 39.8402
27.1478 34.2872 41.6094
17.6008 24.7777 34.3324
16.7604 22.6795 30.7377
15.1381 21.2887 30.2416
15.7053 21.998 31.5389
16.8629 23.6607 33.8111
17.2291 23.2517 32.1424
16.7496 22.6909 30.0544
14.2092 20.344 29.9305
15.6697 22.3116 31.4543
15.4191 22.417 32.6587
16.4379 23.0256 32.4923
14.9606 20.583 29.6544
15.8083 22.3962 31.8601
15.8893 23.4108 34.3999
14.4586 19.4193 28.0661
15.7618 22.3852 30.8104
14.2177 21.7333 33.2375
15.59 21.4606 30.4208
14.1995 20.5148 29.0277
14.2831 21.6886 32.7158
15.9717 22.8618 33.3445
14.527 21.3648 31.6238
14.3644 21.3422 32.5154
14.5088 20.7497 30.5287
14.9256 22.3073 33.3943
14.9665 21.695 31.5268
14.5764 21.5918 31.9712
14.7239 21.9735 32.9858
13.8218 20.2026 31.1914
14.9824 22.2282 32.8304
12.8729 19.0351 29.4292
13.7154 20.3112 30.8979
13.9451 20.7353 30.5145
11.5953 17.4948 27.7906
13.9778 20.9994 32.0866
13.4771 20.1375 30.5252
13.6047 20.9166 32.5235
13.4165 19.1661 28.7856
12.9779 19.7014 29.5417
13.3134 21.222 33.1068
12.9085 20.1036 32.1825
13.374 20.2936 31.4699
13.1185 19.6836 30.4164
12.7738 19.6398 31.2958
13.4701 20.4011 31.1914
12.8794 20.316 33.0552
14.1584 21.4662 32.9127
13.5991 21.4634 34.0465
13.4657 20.7956 31.3201
11.2047 18.289 30.5634
12.6616 19.6738 31.9759
13.6566 21.1721 32.502
13.4369 21.3789 33.7834
12.7591 20.8315 33.9865
13.1747 21.0459 33.9822
12.2139 19.9049 32.1984
12.0865 19.3525 32.0762
12.4241 19.6739 32.3735
13.5618 21.5078 34.1001
12.4591 20.3501 33.6799
12.478 20.0948 34.1906
12.7384 20.4618 33.0599
12.0138 18.6763 30.9047
12.9888 21.6249 35.0717
12.8862 21.2612 35.4994
13.2491 21.6841 35.8815
12.27 19.3416 31.1465
11.9674 19.2607 30.9888
11.29 19.6458 33.7389
11.6782 18.6681 30.8172
12.4403 21.6733 37.2413
12.1379 19.2177 31.5053
11.38 19.1279 32.5217
11.2505 18.6447 32.5344
12.2663 20.0216 33.2278
11.8558 20.2435 34.6012
12.1117 19.9966 33.7617
12.3592 20.2993 34.0764
11.3073 19.1031 31.9803
10.6636 18.1963 32.022
11.5573 19.9339 34.2869
11.9425 20.9839 36.7662
11.6891 18.803 31.9745
11.8955 20.7835 35.43
11.0556 19.0652 34.192
11.5852 19.3321 32.6871
10.9503 19.3592 34.7166
11.2353 19.3101 33.7062
10.5795 17.7272 31.1586
11.8466 21.3133 36.7817
10.4867 18.4488 33.7846
11.1028 19.9521 35.783
10.9586 18.628 32.5587
10.4988 17.8864 32.1349
9.92414 18.2583 39.2702
18.5439 31.9796 49.557
11.4872 19.9167 34.6539
10.1997 18.1443 33.3138
11.0925 19.5482 34.334
10.1059 18.0325 32.3795
9.68527 17.916 33.6085
11.0337 19.4875 34.3911
10.1759 18.6156 34.9998
11.1105 20.1037 37.0827
11.1382 19.3628 35.3144
11.0018 19.4136 35.3562
10.2587 17.9308 32.61
10.6367 18.8552 33.4145
10.9742 20.3664 37.6753
10.2102 18.2999 34.2727
10.2891 18.1094 31.8555
10.1617 19.2316 34.9214
9.26371 17.9238 35.8787
10.2569 18.3037 34.0635
9.59235 16.5258 30.4225
9.57411 17.6262 32.9859
10.0301 18.6395 33.9611
9.25287 18.1446 35.3537
9.41826 17.6913 35.0096
10.7678 19.4605 35.2932
9.85112 18.9415 36.0115
9.64586 17.6988 33.4086
9.59415 18.2484 35.1592
9.54706 17.4096 33.3542
9.88169 18.5622 34.3254
8.74443 16.8024 33.1051
9.4726 18.1314 35.2329
9.90512 18.3889 34.7706
9.78047 18.844 36.3522
9.96824 19.4118 38.1336
9.81615 18.5333 36.0139
9.95525 18.7716 35.6092
9.45797 18.1075 35.5725
9.86679 18.4714 34.6492
9.20334 18.6491 37.0886
9.62895 18.307 35.2038
8.96637 17.7772 35.9433
9.67487 19.0292 37.9758
9.37816 17.7621 35.6473
9.01029 16.84 32.8314
8.71062 16.8476 32.6413
8.66138 17.5125 35.7392
9.28972 18.6619 39.0192
10.0648 18.7498 35.5891
8.49776 16.8892 33.8819
8.88944 17.8861 36.2211
8.83363 16.9916 34.9737
9.53839 18.6307 36.6433
9.00338 17.9323 36.4599
9.11533 18.0426 35.7218
8.68098 17.1861 34.402
8.89093 18.3861 37.2385
8.27645 17.0328 36.385
9.24039 18.5095 37.8484
8.96252 17.2599 34.3886
8.14006 16.8323 35.7251
8.73792 17.5529 36.9215
9.1589 17.7431 35.8119
8.3748 16.2803 33.3875
7.87179 15.5609 32.3207
8.51308 17.7142 37.7313
9.13084 18.5596 38.5378
9.07768 18.5613 37.4754
8.07421 16.2678 34.1455
8.09705 16.0044 33.6144
8.3421 16.9477 35.7485
8.15866 16.9655 36.9517
9.26593 18.4453 36.8956
8.73037 17.3447 33.8553
7.47255 16.0309 34.773
7.92304 16.5886 35.9027
8.14025 16.3941 34.6041
8.37741 17.3412 37.4913
8.85666 18.6907 38.4383
8.42536 16.9117 35.3177
8.17945 17.5383 36.8793
7.87702 16.0167 32.6228
7.09041 16.2829 37.9961
8.04492 15.9072 33.4909
7.89432 16.2373 34.7288
8.18321 18.0709 39.2033
7.79089 16.2761 35.7882
8.17562 17.1598 37.475
8.53944 17.8799 36.3909
7.59425 16.9212 38.8266
8.78046 18.2555 38.1775
7.83079 16.1839 34.2981
7.71073 17.4539 39.4489
7.98368 16.9982 38.1024
8.15932 17.5117 38.1938
7.48304 17.0404 49.8333
15.319 30.1901 49.605
6.96276 15.9934 36.7731
7.65376 17.3196 39.5025
7.7265 16.4002 36.8224
7.723 16.508 36.2128
7.38021 16.1224 36.4011
6.96271 14.6763 32.9498
7.30773 16.1708 36.4098
7.07055 15.3575 35.9691
7.74722 17.1035 37.5683
7.70186 16.4026 35.3004
6.91037 15.8155 37.2062
8.00864 17.4117 37.8789
7.08118 15.9761 36.3325
6.88925 15.5954 37.578
7.37147 15.5675 35.1214
6.73242 14.942 35.7961
7.82648 17.1598 37.3344
7.30336 17.0279 38.132
6.67608 14.2036 33.7721
7.28751 16.7718 37.17
6.91705 15.4253 34.9391
6.97446 15.7191 36.5664
6.74743 14.6056 33.2085
6.59814 15.2489 36.2111
7.00275 15.5658 36.9285
7.27111 15.2328 32.7764
6.30212 15.0309 35.4535
6.86493 15.8198 37.1868
7.16686 16.1236 37.058
6.7571 15.8499 37.4063
6.93698 15.5023 37.672
7.26294 16.224 36.5858
6.71245 15.2435 35.5488
6.76587 15.2278 35.1308
6.14836 14.3983 35.6922
6.85017 14.8277 33.9452
6.38641 14.7899 36.6089
7.39917 16.9823 39.1509
6.85938 15.5623 36.6631
6.89091 15.6726 36.6113
6.5773 15.3549 36.3252
6.53055 15.3559 35.8518
6.61302 15.0417 34.2964
5.86646 14.3368 36.5298
6.56418 15.2968 36.7343
6.425 14.7419 34.8252
6.54414 15.6403 37.4122
6.61622 15.681 37.1292
5.97999 13.843 34.2597
6.0919 14.2095 34.3562
6.51986 15.6388 38.5055
6.56886 15.1923 37.2007
6.82244 16.1516 36.9418
5.68079 13.7782 34.7039
6.31711 15.2731 37.2316
6.0735 14.1106 34.4971
6.15063 15.6033 39.1136
6.30761 14.1481 34.1371
6.05678 15.0649 36.1694
