# pn-170911/RbIIR-56-TWTF-1280-1959.psd
# Power spectrum* (dif=0,1,2) (really just |FT|^2)
# NOTE: only the first half! (symmetric)
# weeks: 1280-1959
# 10 clock-days, 0 excluded
# PSD: 1441
1563.85 0.072204 0.0122318
34258.6 0.278826 0.0168685
279433 6.31951 0.0163939
13588.4 0.41618 0.016535
81324.5 5.93313 0.0177704
4541.48 0.429082 0.0162188
6250.89 1.09483 0.0156285
2433.51 0.469301 0.0171115
3052.49 0.69556 0.0169569
1818.4 0.819498 0.0179818
893.662 0.566672 0.0182635
1769.22 0.862477 0.0195162
1201.69 0.693339 0.0170173
823.645 0.487627 0.0166708
759.589 0.513409 0.0189911
305.381 0.330614 0.0177803
666.492 0.831784 0.0192341
758.094 1.2093 0.0219344
621.002 0.581092 0.0180076
577.018 0.787207 0.0193946
561.579 0.801822 0.0179827
488.878 0.934395 0.0130404
580.388 1.18125 0.0182677
494.247 1.27192 0.0183232
452.179 0.812453 0.0205962
363.056 0.761011 0.0170327
579.596 1.51654 0.0224897
341.165 0.969864 0.0213145
403.39 1.32345 0.0199214
265.699 1.05583 0.0183192
755.308 2.77162 0.0288185
259.785 0.942788 0.0202132
364.489 1.85349 0.0207574
863.369 3.9093 0.040167
410.419 1.95721 0.0297306
339.347 1.88625 0.0284444
201.208 1.15726 0.0231146
474.105 2.70984 0.0309115
387.597 2.56767 0.0340144
250.386 1.56257 0.0248062
157.428 1.08248 0.0257185
259.642 1.71998 0.0198135
245.54 1.95015 0.0419629
190.139 1.43579 0.0196971
345.269 2.40713 0.0339476
147.07 1.551 0.0312859
283.171 3.01547 0.0401502
320.112 2.96585 0.0436752
270.303 2.78405 0.0399462
318.638 3.3437 0.0569749
214.461 2.56411 0.0419765
268.877 2.97897 0.0366013
239.916 3.04772 0.0447175
179.93 2.60564 0.0492401
227.133 3.43983 0.0598473
217.11 2.55191 0.0406398
194.279 2.98558 0.0570375
210.536 3.04574 0.0579999
529.259 7.64497 0.150917
266.019 3.9005 0.0853717
245.43 4.2827 0.116246
171.34 3.28802 0.0765793
338.264 5.91501 0.125961
467.521 8.32661 0.151934
308.053 6.30681 0.167832
135.797 2.46646 0.0733463
288.775 5.67029 0.122598
198.991 3.81157 0.107372
182.506 4.20579 0.119323
179.314 3.6818 0.0864753
152.333 3.18528 0.0790504
184.215 4.43465 0.142492
68.7914 1.99695 0.053665
133.078 3.68261 0.122875
192.648 3.79176 0.116619
132.825 3.28536 0.0969311
157.55 4.20245 0.135807
183.334 4.83979 0.153852
108.947 2.90293 0.110856
115.154 3.78693 0.134712
164.465 4.78201 0.170503
143.092 4.23898 0.137163
149.241 5.22851 0.18473
246.763 7.23378 0.28984
235.713 7.24625 0.203872
237.03 7.96289 0.263396
129.958 4.18907 0.156902
146.266 5.1933 0.232376
184.418 6.50327 0.24067
128.838 4.21528 0.131242
78.1327 3.65923 0.156334
139.156 5.0801 0.260587
189.895 7.20681 0.284727
97.9423 3.401 0.11973
172.769 6.49665 0.318194
191.325 8.47228 0.433454
124.789 4.72737 0.214264
300.396 13.2176 0.528659
84.8592 3.99721 0.185158
150.272 6.82702 0.331193
109.932 5.13461 0.264106
177.553 9.18314 0.418057
225.093 9.96819 0.500978
139.073 6.13109 0.386501
96.9277 5.2785 0.266872
106.765 5.81372 0.311365
174.588 9.81039 0.521473
94.8065 4.30485 0.243222
155.042 9.78237 0.552941
129.209 6.84023 0.360646
119.154 6.6803 0.396803
163.958 9.58234 0.57792
142.37 7.88368 0.430664
124.392 6.90029 0.434192
121.011 6.93194 0.443797
121.86 7.92397 0.535869
90.1659 5.78996 0.442153
131.809 9.6086 0.747931
178.107 10.793 0.718435
204.735 14.1529 0.939434
129.726 7.66885 0.480367
118.925 8.02872 0.627543
125.727 9.11032 0.604411
109.565 8.56689 0.696071
141.038 8.53177 0.566965
108.644 8.41407 0.684508
103.324 8.54257 0.716709
80.0009 5.51256 0.445286
153.994 9.81183 0.664848
109.778 8.00916 0.581845
99.9142 7.25884 0.642144
74.1465 6.76199 0.589207
85.6909 6.04871 0.43998
74.1626 5.71852 0.473608
122.692 8.96567 0.764356
98.0589 7.77643 0.735185
118.01 10.0623 0.941013
64.9988 5.42907 0.548755
101.091 10.0743 0.961175
144.55 12.5911 1.19672
90.328 9.08337 0.894558
130.777 11.6421 1.07788
75.4423 6.31035 0.580196
116.115 10.7774 1.04266
70.6745 5.90175 0.554196
103.136 10.7284 1.28766
102.356 10.0208 0.98194
80.5434 7.50626 0.691637
80.0764 7.96992 0.829552
120.122 13.2987 1.46328
88.2105 10.0981 1.12574
125.687 12.8122 1.35651
83.4131 8.56073 1.00526
102.681 11.3793 1.27008
69.6692 7.26361 0.842129
113.988 12.7848 1.46648
105.816 10.7055 1.12868
73.3467 8.94967 1.05711
110.347 13.4797 1.58647
72.7716 9.97721 1.27302
100.634 12.0075 1.52829
59.4014 7.63069 1.04037
140.754 17.5435 2.20042
63.5097 7.49034 0.917198
60.9617 7.06112 0.998986
84.1628 9.98952 1.14313
99.5987 12.3101 1.60571
106.039 12.2751 1.54182
85.2256 11.7734 1.63162
63.6822 8.78402 1.27121
71.1268 9.89185 1.24359
55.7278 8.1497 1.15496
68.3298 9.15243 1.38518
110.508 15.72 2.03077
85.1308 10.8997 1.5792
122.977 17.8828 2.65754
98.3636 14.4346 2.31296
129.199 18.1435 2.81116
85.6641 12.7142 2.01003
109.198 17.0745 2.76185
106.929 14.4767 1.82103
50.1366 7.65008 1.24134
130.207 19.6027 2.9633
52.4799 9.15644 1.69158
89.6916 13.2539 2.08014
87.3375 13.3623 1.98698
75.3063 12.825 1.98711
54.7242 8.74516 1.40105
53.2953 10.2158 1.65913
57.8115 9.30264 1.64324
87.1305 14.1829 2.41117
95.2654 16.7679 3.06792
77.9649 12.9878 2.43831
86.964 14.1121 2.46339
98.5556 18.6657 3.5405
81.1728 11.9477 2.02972
116.84 20.6713 3.68615
51.725 9.84363 1.95289
71.2029 12.7063 2.24253
57.155 11.0444 1.95145
59.1943 10.6272 1.91585
118.266 22.1636 4.02521
78.6296 14.9172 2.79931
62.5603 12.7701 2.58653
56.7565 10.048 2.20198
47.7999 9.41801 1.78415
101.699 18.4414 3.50219
39.0693 7.734 1.53779
52.4555 10.4468 2.10299
31.9751 6.47097 1.21056
97.53 20.9944 4.56957
36.9135 7.97787 1.8953
148.083 32.5105 6.82227
71.6694 16.4774 3.67653
80.677 15.9035 3.21864
73.2555 16.5261 4.17699
90.7836 19.5525 4.14224
99.9772 21.5699 4.64009
57.048 11.8783 2.6054
67.0017 14.2849 3.0775
101.551 24.9117 6.0016
102.576 23.001 5.20392
42.3514 8.08384 1.85005
39.0997 9.23454 2.25963
63.0248 13.7997 3.12826
90.8006 21.3415 4.83722
58.6954 13.228 3.21667
51.66 11.6388 2.6119
67.9305 17.7807 4.35081
62.6313 13.953 3.32129
43.7903 10.4946 2.80684
38.9674 9.68445 2.61469
28.6812 6.08563 1.46723
68.7602 15.2509 3.41503
72.5725 16.8479 4.03294
74.0774 19.6451 5.10667
30.3184 6.89515 1.9016
33.3221 8.31469 2.06342
64.744 16.366 4.22951
80.6215 22.3238 6.09493
88.0725 23.1906 6.39227
33.6261 8.73622 2.53117
35.2283 10.6267 3.20033
76.7211 21.8928 6.94448
95.1862 26.2875 6.83802
51.4393 12.7088 3.61734
85.805 23.1559 6.05265
62.37 16.393 4.57317
133.137 36.3801 10.0752
57.2806 17.9367 5.38924
38.422 10.9723 3.24218
40.0934 10.9686 3.22756
32.3909 8.3481 2.08998
74.9386 22.2458 6.00088
38.7729 11.6539 3.88526
43.2496 14.2101 4.46799
41.2573 12.3955 3.99742
57.7506 19.8451 6.91229
39.9381 10.9749 3.29303
68.5826 20.9141 6.49501
66.182 19.8329 6.2314
59.3298 19.2638 6.13603
47.3315 15.3631 4.95318
55.5621 19.0156 6.33231
69.6066 22.0773 6.67345
27.6008 9.3719 2.97722
34.1817 10.8081 3.35124
28.2053 8.17424 2.76924
67.186 20.5202 6.16497
59.8142 18.7106 6.40819
48.7113 18.4489 6.78531
72.503 25.1231 8.19965
49.3641 17.6507 6.81788
56.6646 16.353 4.46184
50.17 19.4212 7.27377
45.1959 15.0782 4.84358
45.6202 16.8126 6.43727
45.1338 14.4005 4.4186
22.3503 8.96745 3.72775
60.3158 22.2764 7.51562
48.41 17.624 6.5699
68.8123 23.8229 7.78845
47.7924 20.1316 8.32754
57.8464 22.47 8.12299
58.0515 21.9523 8.96028
50.7466 21.4518 8.77161
67.998 20.0411 6.35142
51.0725 19.371 7.27122
59.7679 22.3021 9.18039
51.4733 18.4296 7.47924
34.218 12.0706 4.48465
47.349 17.777 6.53615
43.666 19.9569 8.35045
41.7411 14.0148 5.09129
47.5342 18.7316 7.27491
22.6362 11.2209 5.35964
54.6018 20.3273 7.36601
41.8988 16.0393 6.36224
48.8368 20.4881 8.38314
80.4389 31.6906 11.9259
56.3682 24.3902 9.97347
32.3664 14.2251 6.07202
38.1951 16.0346 6.612
50.3872 21.0715 8.73626
31.5036 13.7363 6.60467
27.6626 10.7214 4.23171
30.3611 11.4658 5.29979
66.2702 27.9285 11.5643
47.8325 20.7432 8.99272
26.5261 12.605 5.6283
32.1567 14.9764 7.38066
27.5782 12.5211 6.3138
28.7337 9.47474 3.2372
26.5181 12.0118 5.62614
18.0257 9.97187 5.63711
56.3948 23.9543 9.98025
46.3733 21.2783 8.58232
32.7429 18.2392 10.3149
48.7178 20.2764 8.67115
33.3793 15.1873 6.7493
46.995 24.0856 11.7431
37.8697 15.6846 7.04347
34.3761 16.7235 8.12734
59.2073 26.5554 12.4758
37.3208 17.3667 8.53189
57.9334 29.7666 14.9649
30.11 11.2741 4.59149
45.5726 24.2484 12.1461
41.7439 20.081 9.44115
29.1938 17.9693 10.1679
21.001 9.47951 4.89599
28.5453 14.1057 7.80761
51.2114 24.8089 12.6224
25.3483 11.8815 5.91108
41.9963 23.5543 12.3761
29.0241 13.3987 6.39333
31.2475 17.3466 9.5392
21.861 10.3358 5.75287
30.4255 15.3795 8.27713
56.9396 28.8226 14.3692
71.7279 36.9822 19.1187
47.1717 23.9111 11.2008
32.3819 16.6549 9.06271
25.2542 13.9074 8.18659
24.0541 10.9316 5.15974
26.4289 15.1315 9.39324
41.805 26.1622 15.3462
66.2611 29.4611 13.5615
25.0938 16.0083 9.44615
21.6183 12.0739 7.20524
41.813 25.1163 15.3489
56.3533 28.842 15.6605
17.7734 9.18469 5.81096
27.4429 13.4554 6.80766
38.1978 21.8521 13.2961
39.6955 18.3346 8.14515
39.8496 23.8131 13.1525
45.0358 26.1328 14.9508
25.1462 13.2808 7.03748
19.0655 11.5796 7.83834
43.2665 24.5993 13.1732
25.0538 17.7084 12.6966
33.246 17.2812 9.69405
23.1224 14.3353 9.09777
34.8416 17.8578 10.2189
38.1606 21.437 12.1274
47.8227 27.6938 16.4552
34.8674 18.352 9.5347
24.9293 15.532 9.53915
29.0922 19.1899 12.098
18.2032 10.3519 6.79398
35.7454 24.4232 16.1146
31.4271 19.6235 11.5807
24.432 15.1481 9.9821
32.227 17.0919 9.9187
36.3048 23.0039 14.1814
25.6643 18.8027 13.6069
27.4978 19.7728 14.6912
26.4708 14.662 8.98113
40.2273 30.4321 22.6188
37.2203 15.9507 6.21916
28.5454 20.0546 11.8835
35.1004 22.4024 13.6323
30.7369 24.8726 18.8731
29.3979 16.7783 10.0236
22.0413 13.9164 9.30108
26.93 19.2056 15.0029
39.6376 22.2418 13.2532
40.3222 26.6047 16.4237
26.6171 17.7598 12.5892
24.8019 14.0528 8.22273
33.3191 26.7318 20.3773
26.8758 16.9069 11.7806
22.265 13.3579 8.52404
23.6367 17.3191 12.6147
19.7338 13.6296 8.69282
14.4212 13.022 11.7526
20.6976 14.7268 11.9901
43.0858 27.3153 16.433
20.8894 15.6097 11.1777
12.8296 7.15043 4.62423
26.529 19.861 13.8337
23.1685 17.319 13.2349
26.186 20.5161 16.7445
40.0371 29.9706 22.0414
37.8967 22.8392 13.928
18.7384 16.5937 14.4602
41.6584 30.9323 21.1164
23.5205 17.0739 12.7731
25.6929 17.1397 10.939
19.8712 18.6493 16.7056
30.5032 21.2506 15.774
24.8596 18.0136 13.509
25.1071 18.7991 15.1184
24.6103 22.4793 21.9333
48.4603 32.5439 23.2153
28.6024 20.0933 14.6363
27.108 19.509 12.6473
14.3219 11.3709 8.74844
15.2667 13.1814 10.8941
34.7572 26.6551 18.219
10.618 10.6345 12.5267
31.2656 23.2763 17.5891
20.1665 12.5535 8.42816
45.3894 35.4036 23.3884
10.9563 13.355 14.9547
19.894 15.188 11.2884
18.0632 15.7394 13.8375
33.5653 26.2327 18.9996
19.6476 15.1294 10.78
32.5774 30.4654 24.2666
8.59844 8.80152 10.2625
17.3855 13.3084 10.2619
21.5317 19.3716 16.234
20.4363 20.7196 20.4102
20.3171 14.2689 13.0072
28.6857 24.3834 20.2668
18.8381 10.3346 6.15889
26.0496 26.0044 24.1749
16.3801 13.1207 12.4078
26.5875 19.8951 15.0393
19.2569 15.741 13.087
9.69826 6.51952 5.60916
21.6772 20.5509 17.2112
21.7574 22.7661 23.5826
33.4238 25.1671 19.2533
14.5264 12.7609 12.6568
26.735 25.6357 24.5089
20.0278 17.0979 15.3917
23.8156 19.6772 16.7545
18.8614 18.2614 16.3015
17.2259 15.9637 15.4297
19.5394 16.9261 13.7512
22.1557 22.7439 22.5133
29.6304 24.2002 19.5161
16.3543 13.2289 11.9488
12.425 12.2322 12.2073
18.587 15.7212 14.4348
25.7139 22.4354 20.4107
28.4424 29.0616 29.5848
30.9276 25.1652 21.7696
10.9504 9.77375 10.95
31.7018 32.2833 31.5181
25.4378 19.8319 16.6787
20.9792 19.0957 16.74
12.6319 10.1255 9.21751
28.2488 25.4077 22.3169
26.8712 26.5767 24.4443
14.9779 15.3417 16.8387
23.7713 22.5773 21.6143
30.3111 23.9499 17.8914
28.4325 32.1871 33.8761
15.0724 14.5753 15.4271
15.4311 14.057 14.7556
19.533 16.051 12.2471
21.4058 19.7266 16.8707
16.5934 17.8161 15.7892
8.5609 11.2099 12.0123
14.7817 17.56 19.557
16.9518 16.247 14.5631
10.7999 12.2263 15.9253
23.7525 20.0051 15.4759
13.2104 19.0399 24.3082
25.8765 22.01 20.0179
24.0844 30.4208 37.3786
35.6141 31.8383 31.5572
23.0369 20.4154 17.9879
14.8767 14.3904 14.1334
25.6247 27.3021 25.733
18.3022 19.6743 20.3903
9.22731 12.9304 20.7312
23.2683 21.9604 21.2109
23.0317 22.2296 19.3071
16.5087 24.5258 31.5742
23.4365 20.3388 20.1063
21.5155 20.1163 19.8521
25.0589 27.6718 29.3166
14.4851 14.8469 15.9951
19.4117 24.2702 26.774
18.0536 19.959 24.3732
29.2533 26.7584 21.751
13.7804 19.8956 24.5553
13.9511 11.6291 13.1386
21.6927 23.9716 26.1595
23.3677 27.8798 32.136
23.9955 22.0723 18.9487
14.0478 18.2773 22.6414
18.9634 18.0854 17.355
10.0634 11.2604 13.7697
18.4655 20.4207 21.5592
13.7912 16.0684 18.3075
12.7363 19.8461 29.4163
26.6827 22.0551 17.3762
23.3353 29.41 35.4091
22.2489 24.1065 24.8917
14.1397 14.8227 16.6052
14.4531 15.082 18.6771
22.2508 28.8005 35.0349
24.7914 24.7611 23.7809
10.3637 11.4997 12.9096
9.2591 13.2209 19.1798
18.8829 20.5228 22.779
21.5118 28.9448 33.1931
14.3357 18.0414 22.0144
9.46047 9.8872 12.2934
14.9919 21.0447 31.3295
22.1502 22.745 23.5063
9.59978 9.77126 9.49614
9.46211 12.8698 17.4538
17.6852 22.8561 27.8055
8.15586 9.53666 15.7862
16.1137 18.5126 19.0036
6.46137 6.48357 7.98512
8.48535 12.6585 20.8789
18.9173 18.5539 18.9241
12.1139 15.3601 19.7441
23.8486 31.5434 34.335
10.6856 12.1232 16.7582
17.2366 23.1217 31.3815
10.4981 9.44542 11.1933
10.8738 12.2128 15.2856
10.5604 10.4101 11.401
8.82219 13.7099 24.8837
24.9821 23.8521 21.3707
16.2897 21.574 26.5185
15.4463 20.2615 24.0139
11.6029 18.9579 28.2643
12.9099 12.571 14.124
16.032 19.1394 23.1355
11.1586 14.7675 21.0395
11.9586 14.6187 15.4253
6.71722 11.9726 20.6056
11.3887 10.8726 12.2112
12.3659 19.1874 30.1878
11.5052 9.75367 12.2099
17.2314 25.7617 33.8234
15.5658 15.9792 18.7466
16.9417 21.7631 23.7799
14.8146 22.6738 37.6635
26.324 29.2664 28.5976
12.2135 17.6813 22.6279
8.17666 10.8684 18.4666
13.8286 17.5588 18.314
6.02962 8.53424 13.2434
8.12502 12.1299 17.5285
8.50752 9.13247 11.449
16.2236 28.6404 46.8485
18.0472 16.1803 17.3236
16.5159 21.2488 23.4793
10.0422 15.6017 25.6849
19.4556 20.4587 17.2331
8.0561 15.3006 24.9577
20.7512 26.0403 28.7387
17.0095 30.9604 46.2663
21.5369 28.9854 39.0042
16.0952 21.5767 31.9176
12.9693 16.0399 18.2874
9.42683 15.417 26.0066
17.3578 19.5026 18.319
10.1073 19.219 28.7297
9.74637 18.5512 34.6806
16.5126 19.0076 23.4823
10.4922 13.6589 18.0667
14.7126 25.4088 37.8246
19.5079 31.8479 45.8003
7.24923 8.57242 19.1966
17.0598 21.6427 29.3273
19.9531 29.8117 45.5434
20.1199 22.4327 22.4474
13.7604 27.6518 43.8508
8.84003 12.5449 22.0134
11.5525 17.7884 33.5025
24.1318 35.6347 46.2089
13.1737 17.4177 29.9914
18.4738 22.5968 32.1901
21.743 32.8262 42.738
9.42546 13.5306 22.5333
12.3226 16.8635 24.6281
10.9257 16.9873 28.6674
13.7034 19.1635 29.5547
12.9143 13.7552 16.4051
12.1246 20.4974 30.6477
9.65161 14.656 26.8257
15.3328 18.1759 25.8028
15.6835 24.7816 36.9609
12.7712 17.1267 26.9146
17.8945 23.7173 29.3293
11.0632 20.8831 38.0423
15.3781 18.3917 25.6126
12.7354 23.7851 41.864
15.144 15.9705 25.8101
18.3837 22.4268 24.5503
13.7096 23.3246 35.4503
13.0716 18.2548 22.1324
14.8426 27.4121 45.0573
11.1286 17.4529 36.2754
22.3666 30.9276 39.9503
16.6299 25.7711 35.3149
11.299 14.6009 21.2533
14.607 23.235 31.7305
7.6124 10.9028 21.637
17.2003 26.8499 37.4957
17.1616 27.4903 39.7028
9.35135 12.2178 15.736
7.70701 17.8821 34.1481
10.9545 18.9137 39.9349
17.7182 26.0723 39.648
13.5075 17.6514 27.0857
12.7126 20.995 34.2058
20.9748 33.2381 46.3225
7.11091 11.3497 24.9407
11.3298 15.8056 25.2773
21.8796 33.5333 43.001
15.0755 32.993 57.3594
12.4655 14.1963 19.3582
9.26705 13.3854 16.996
5.01981 10.4178 20.6598
7.49874 15.1189 33.4341
16.4554 27.0523 43.9698
13.6367 21.6723 38.3127
12.7967 16.0967 18.4687
12.3676 24.1692 33.2311
6.8946 14.3416 26.6529
8.14324 17.3033 35.8724
14.9971 20.5983 26.0214
10.5731 25.5123 52.4932
12.269 10.8939 12.5898
9.67635 17.3489 24.1842
8.85641 16.2625 26.5037
6.52853 10.8696 16.9256
9.85298 18.3286 29.8341
13.5557 27.4745 43.0494
7.46638 12.4785 23.7251
8.65517 17.8393 33.8129
11.8766 17.7872 25.7063
8.21904 18.9956 37.7604
8.80625 13.1418 26.8049
15.2532 27.1247 40.3739
4.42149 9.45165 25.3013
11.6435 19.9191 39.7589
9.66264 14.1836 26.8623
10.5566 14.8002 27.3016
15.0259 25.6573 42.0364
14.5998 27.3157 46.5487
12.0301 14.2328 19.1935
9.62539 17.2531 26.3594
13.7514 29.2091 50.099
10.1626 17.1163 28.9217
6.68118 15.8335 41.0109
13.9469 19.7975 28.7075
10.1024 20.3798 38.6988
14.2976 27.3655 48.6106
6.96289 8.73754 20.0203
11.1976 19.7297 28.6381
4.09573 10.4343 29.8261
9.02402 14.8433 27.8804
11.0379 16.5393 21.1442
4.17263 9.39384 23.1924
8.30524 13.4102 24.6317
11.1496 21.8372 41.7598
7.6774 9.70485 19.6457
15.5897 29.6174 45.6187
7.68393 15.6571 30.6712
8.18977 18.6701 48.4905
16.7565 24.6516 35.0141
8.8979 19.3282 45.6564
13.1034 22.6331 41.3223
10.0121 14.2784 26.8285
8.30358 12.802 20.1303
7.69245 14.0864 28.9718
9.26788 15.2359 24.0954
12.2971 22.3383 35.7406
11.1286 21.6826 37.267
9.30415 17.3454 29.2265
10.8158 21.9984 38.4431
6.76681 11.7931 20.0249
4.2121 9.75908 20.2167
4.76761 9.86844 24.2621
9.77473 18.6377 36.1436
6.23155 9.69031 20.306
8.64846 18.2611 39.1972
11.0561 16.8171 29.4244
10.1977 20.1213 36.6835
9.42499 17.1555 31.382
9.69062 20.7486 41.0334
6.87556 11.4677 23.7104
6.06337 12.3043 25.1112
6.79535 16.7757 42.3041
11.4765 16.7228 24.2254
7.80809 16.4981 34.052
12.17 25.6506 53.0526
12.7121 17.4766 22.7515
7.26448 16.0049 28.3183
8.20394 18.284 31.6262
5.67208 13.8369 28.5272
4.81025 9.27276 25.198
8.02908 12.803 20.2951
2.36647 7.68866 33.7424
13.5281 18.1532 25.6572
12.2923 23.2308 34.4528
11.8336 26.5326 41.3571
3.38479 10.6214 27.4595
2.85897 7.41093 23.5094
6.53493 14.6655 32.7915
8.54018 15.678 28.5077
5.13504 14.0232 43.8547
11.1617 16.1616 25.3488
9.98993 21.4953 41.634
11.0422 22.9872 43.7421
6.99649 8.91413 17.0033
8.37653 17.2472 28.3725
6.66801 14.9068 33.0117
10.0411 16.9518 22.2457
2.58695 6.6418 19.7232
11.9834 29.6268 56.2426
6.60573 15.9571 44.4457
10.3806 16.3737 27.7588
8.2593 20.3273 42.9699
10.0446 23.9642 49.0408
6.19026 8.14898 15.527
4.33878 10.8749 24.3366
6.91648 13.2787 21.9929
5.23114 16.6151 42.1495
8.31867 15.3124 30.4243
6.46143 14.8673 27.7351
4.90624 14.5647 45.5965
10.288 15.7222 26.7232
7.34125 14.3342 24.3659
6.71997 18.8864 39.3546
6.51101 18.2472 40.3537
5.38278 12.2319 40.7567
8.2797 10.3001 21.4254
8.4523 17.7605 36.5838
6.31138 11.614 30.9691
10.1899 17.6396 30.5678
6.71453 14.9738 31.9136
6.61415 12.7507 27.3142
7.18028 15.1395 32.4879
5.37947 8.77798 20.767
10.0146 23.8512 45.1479
8.98273 23.5542 59.8792
10.3762 18.7141 32.9583
4.64112 9.64463 22.7186
4.79782 8.19079 18.3657
9.46349 21.8491 36.2657
5.4398 14.0871 26.2173
3.98801 12.9367 38.9911
7.86891 16.335 37.6048
10.7446 25.7729 58.0389
8.41134 15.6316 31.9656
4.16797 9.44391 30.9497
10.2691 20.935 41.4498
9.59718 24.1638 51.2287
8.68852 19.3119 35.9304
4.50269 12.67 42.9542
9.1348 17.368 38.2552
8.43906 14.0238 22.3594
5.27825 13.1715 29.6823
5.44267 16.4657 44.3311
6.43155 9.59931 18.2821
3.04415 9.58129 33.252
7.35682 15.6148 38.1016
6.80028 13.333 44.6728
12.0335 19.5868 24.4534
5.22076 12.627 24.3532
5.77441 16.6821 41.7171
7.43651 13.6336 36.1644
10.1609 19.0944 28.5014
6.19197 20.2219 50.004
6.87983 11.6202 35.0149
10.3125 18.7599 23.1212
4.8539 14.2186 30.0774
4.69085 9.98735 17.2351
4.7869 15.3819 36.0992
4.50077 11.6981 28.3196
4.46188 12.1778 39.1189
10.1911 22.6197 35.1569
4.0785 14.6968 43.0274
7.79942 16.0437 24.4241
3.88469 16.8431 44.7327
4.0677 8.23734 28.7673
4.8155 8.54912 30.2832
9.75464 25.5512 55.9093
9.13723 23.3007 59.3768
8.70486 21.3316 65.3803
12.9855 22.3074 35.1657
6.35427 17.6016 38.4511
4.41453 10.3086 22.6537
3.28617 8.66984 26.5882
6.66564 17.6595 39.8058
5.55745 11.7862 27.008
3.54805 11.2052 42.9009
7.55491 13.7218 27.2305
4.57389 10.4112 28.8716
7.63816 22.2118 46.5948
4.17522 7.22033 27.1057
7.1244 13.7647 28.2867
5.83575 11.5389 18.5988
4.00344 12.8489 35.502
7.32308 17.7172 36.5388
3.59716 7.98668 20.1415
3.06528 10.2012 35.0107
5.70665 6.12079 6.91866
5.3588 20.2326 50.6287
6.55043 14.4677 28.7027
4.90572 16.7258 48.0339
