# pn-170911/RbIIR-45-RbIIA-1280-1959.psd
# Power spectrum* (dif=0,1,2) (really just |FT|^2)
# NOTE: only the first half! (symmetric)
# weeks: 1280-1959
# 3560 clock-days, 652 excluded
# PSD: 1441
5524.73 0.344482 0.0523872
554506 11.6602 0.10656
1.55765e+06 28.4297 0.103101
336281 10.7711 0.100112
218668 13.037 0.103896
101990 7.66091 0.105988
72976.5 8.5753 0.102904
45819.9 7.00557 0.102751
45006.5 9.54011 0.104631
27521.4 6.77062 0.106491
31805.9 10.9228 0.103288
18526.5 6.55098 0.104448
20230.2 9.86805 0.108868
13365.2 6.61297 0.105323
16410.6 11.3994 0.109336
9936.93 6.63868 0.110855
12611.8 11.2731 0.113999
8071.88 7.07141 0.109738
11418.7 13.4182 0.119569
6312.07 6.92336 0.112148
9251.03 13.6983 0.127435
5589.5 7.57959 0.116869
8407.01 15.4126 0.13471
4737.95 7.76328 0.120996
6989.51 15.1254 0.142146
4096.77 8.02557 0.124946
6903.16 17.9302 0.151505
3619.35 8.50651 0.130038
5905.13 17.8901 0.164159
3233.06 9.02747 0.137392
4976.33 17.1615 0.171999
2953.79 9.26662 0.14486
4734.27 18.9705 0.189901
2728.81 10.1017 0.14793
4400.41 19.9775 0.200973
2533.03 10.3886 0.166374
4351.06 22.9576 0.231641
2421.42 11.2744 0.172783
3559.92 20.3293 0.241284
2121.36 11.2804 0.17978
3247.79 20.5834 0.255861
2032.25 11.9637 0.195361
3217.25 22.7615 0.292863
1967.81 13.0284 0.214623
3049.82 24.2122 0.319826
1804.04 13.0061 0.225545
3150.04 27.2091 0.379406
1692.85 13.6629 0.243856
2625.2 24.536 0.359532
1610.87 14.367 0.266461
2603.56 26.7053 0.418807
1505.73 14.3602 0.274514
2476.07 27.9522 0.463811
1457.36 15.372 0.304402
2313.47 27.715 0.478099
1392.88 15.8079 0.329056
2147.68 28.5816 0.528945
1360.61 16.4725 0.358422
2021.94 28.8722 0.559455
1268.34 16.7941 0.376332
1937.56 29.2755 0.597037
1252 17.7031 0.406181
1788.08 28.7273 0.618176
1176.91 17.7014 0.430669
1724.24 28.9928 0.658448
1117.04 18.5117 0.467133
1643.58 30.1376 0.704329
1087.72 18.8172 0.494359
1588.55 31.1059 0.771125
1066.1 19.9086 0.544229
1522.32 30.8272 0.80614
1041.76 20.4287 0.578919
1421.28 30.8996 0.85615
965.614 20.2013 0.609912
1389.28 31.9833 0.919554
950.329 21.0582 0.662068
1284.56 31.1412 0.946395
892.582 21.1872 0.680801
1221.32 31.3762 1.00144
885.541 22.0206 0.744697
1166.12 31.687 1.05166
846.518 22.0649 0.786289
1148.54 32.8679 1.15473
819.655 22.64 0.823377
1115.52 33.3183 1.19777
813.906 23.3305 0.895839
1060.82 33.1126 1.25868
763.822 23.399 0.920935
988.942 31.8683 1.26633
754.624 24.0062 0.992624
972.33 33.3326 1.36185
743.505 24.8808 1.06225
902.945 32.5274 1.39253
704.33 24.365 1.07994
890.929 33.5272 1.50177
707.58 25.8314 1.18044
867.874 34.5026 1.58955
683.521 25.4697 1.21593
833.794 34.0647 1.62945
647.182 25.4891 1.25519
807.945 34.5748 1.71035
632.516 26.2396 1.33771
768.123 34.1564 1.78261
624.077 27.0442 1.43301
746.391 34.3931 1.8599
591.194 26.3905 1.48239
729.479 34.6325 1.93864
568.04 26.6303 1.51682
693.317 34.3207 1.98578
567.374 27.4185 1.63652
673.195 34.426 2.06457
546.708 26.8468 1.63971
635.181 34.192 2.13169
531.256 27.4486 1.72029
636.454 35.2699 2.25871
527.142 28.5743 1.87069
608.109 34.9775 2.31112
480.336 26.8735 1.83754
588.115 34.0823 2.32931
496.33 28.6665 1.98438
583.322 35.4143 2.50772
488.696 29.3177 2.12636
558.647 34.9783 2.52457
473.379 29.6547 2.17616
527.154 34.3567 2.5525
443.487 28.3876 2.17447
530.976 35.9108 2.78183
447.802 29.4022 2.29433
486.19 34.1241 2.72409
436.615 29.6948 2.41605
494.882 35.9312 2.95635
428.249 30.485 2.53798
480.755 36.2245 3.04143
398.65 29.0311 2.49282
457.295 35.1726 3.05967
414.219 31.0963 2.74406
455.443 35.5978 3.1709
383.283 29.5147 2.69145
437.954 35.7669 3.29365
375.717 29.6626 2.74985
437.257 36.4271 3.44494
366.227 30.2723 2.91279
419.671 36.2124 3.5394
367.955 30.617 3.02231
410.996 36.2961 3.60554
355.887 30.9325 3.13514
392.269 35.581 3.66946
357.765 31.5281 3.25531
386.299 35.7137 3.78565
340.212 31.2771 3.33656
383.107 36.4084 3.90506
338.37 31.6842 3.47044
365.759 36.1216 4.0134
334.269 32.3715 3.58944
357.406 36.1315 4.09351
327.579 32.4592 3.72158
355.692 37.2964 4.36982
317.307 31.996 3.73376
346.813 36.7275 4.37633
314.186 32.7553 3.94983
335.633 36.1986 4.43938
310.505 33.4513 4.12731
338.283 37.2982 4.68617
299.602 33.0752 4.16539
315.343 36.1409 4.64306
289.409 32.5425 4.19809
310.224 36.342 4.79383
289.668 33.5304 4.42623
305.752 36.211 4.85931
286.155 33.6317 4.52301
294.541 36.2723 5.01237
275.342 33.5465 4.59674
285.333 35.773 5.06363
272.864 33.9007 4.75861
277.671 35.5646 5.12257
258.898 32.5757 4.73218
277.077 36.6147 5.39185
262.334 34.2597 5.02178
275.07 36.4622 5.50362
254.86 33.489 5.06078
264.139 35.863 5.49968
254.661 34.5225 5.35021
259.658 36.191 5.68484
248.721 35.061 5.53113
256.273 36.9952 5.92288
245.967 35.6759 5.7648
252.878 36.8884 5.99964
236.178 34.3764 5.65975
254.654 38.1144 6.38806
228.711 33.8023 5.70043
246.495 37.3448 6.37853
229.149 34.904 6.0057
254.135 39.6652 6.87728
226.126 34.4307 6.01153
230.739 36.6777 6.56277
224.941 35.4697 6.31233
227.705 37.0371 6.66941
224.17 36.4992 6.62972
219.006 36.0001 6.68711
214.912 35.0342 6.54391
214.144 35.9725 6.78302
210.155 35.6538 6.74966
223.286 38.2616 7.37093
203.555 34.8827 6.70848
210.398 37.0182 7.28766
203.322 35.5849 7.01608
210.652 38.1752 7.63482
203.246 36.6255 7.35174
211.859 38.7939 7.94222
207.998 37.4072 7.57916
199.994 37.5611 7.76005
195.99 36.5466 7.67677
203.649 38.1668 8.06751
190.419 35.8262 7.58148
196.762 37.8083 8.18591
193.093 37.661 8.10894
186.971 36.9332 8.08431
185.32 36.0774 7.91707
189.514 37.8178 8.49621
176.864 34.9807 7.80563
185.756 38.0712 8.70818
183.675 37.0859 8.40435
180.536 37.3008 8.7373
183.803 37.8092 8.65954
178.132 37.7826 8.95438
177.929 37.0835 8.76178
181.252 38.7123 9.26346
174.52 37.7569 8.97132
172.877 38.3201 9.4162
172.972 37.5744 9.17149
169.881 37.7983 9.318
166.569 37.2228 9.22943
166.11 38.0239 9.66671
166.201 37.5059 9.45688
166.168 38.4711 9.86053
164.077 37.0868 9.49155
162.473 38.2642 9.95366
160.955 37.6113 9.77431
164.333 38.6412 10.2776
162.467 38.4855 10.1765
160.064 38.8715 10.4469
153.921 37.3751 10.1043
152.98 37.8267 10.3692
154.723 38.1579 10.5083
154.199 38.2558 10.6586
156.696 38.5709 10.7346
152.023 38.8284 10.926
153.915 38.7784 10.9724
151.218 39.3577 11.2754
147.625 38.1021 10.867
146.156 38.0813 11.0833
145.682 38.573 11.2735
144.131 38.2986 11.4347
146.212 38.7596 11.5933
144.194 38.5345 11.5385
144.65 38.9774 11.6757
142.342 38.6628 11.9067
137.725 38.2122 11.6823
144.09 40.4966 12.5216
138.54 38.7854 12.0067
135.048 38.2946 12.1253
140.673 39.5106 12.2914
134.147 38.2072 12.2192
133.436 38.2373 12.3236
135.556 39.8879 12.9098
128.455 37.4918 12.2642
132.406 39.4969 13.0327
133.485 39.296 12.9477
132.788 40.1069 13.3296
125.828 37.8925 12.7114
124.855 38.473 13.107
128.698 39.0693 13.1371
128.455 39.2977 13.4754
127.36 39.2333 13.4863
126.327 39.4149 13.6746
127.994 39.9421 13.9201
124.408 39.5633 14.0588
123.682 39.3304 13.9812
123.237 39.1675 14.0508
124.798 39.8784 14.1493
120.729 39.7169 14.4084
121.935 40.2911 14.6716
120.606 39.8902 14.7
120.559 39.9595 14.7676
121.373 40.7636 15.1839
116.763 38.7793 14.6425
118.92 40.2865 15.2574
115.72 39.4743 15.0442
135.983 46.6468 17.5841
117.783 40.6172 15.5886
115.75 40.0283 15.5767
114.26 39.8951 15.5295
108.682 38.5391 15.2689
113.316 40.238 15.8133
111.724 39.8223 15.9592
111.637 40.0312 15.8269
109.783 39.984 16.1117
109.164 40.2625 16.219
107.736 39.7184 16.2317
106.787 39.4958 16.1994
106.49 40.071 16.808
104.301 38.549 15.884
103.846 39.0506 16.434
105.123 40.292 17.0059
105.896 40.4097 17.1165
107.877 41.3745 17.5223
101.865 39.1909 16.8562
103.192 39.7149 17.1043
100.45 39.7725 17.4269
105.083 40.9075 17.9124
100.997 39.9684 17.7278
102.403 40.5854 18.0164
97.7425 38.8442 17.2697
99.0587 39.8606 17.7952
97.7464 39.7007 17.9992
98.3932 39.9363 17.9983
97.6599 40.5397 18.573
95.6822 39.7793 18.4748
98.8619 40.8902 18.8755
97.3192 40.9014 18.9358
93.6582 39.2422 18.4947
94.8988 40.2818 18.9875
94.9677 40.7524 19.4729
93.6151 39.835 18.9403
92.8953 40.0605 19.2213
94.6183 40.7128 19.632
94.7156 40.7411 19.7139
94.2351 41.2791 20.0562
94.249 42.1478 20.8112
92.5805 40.9645 20.193
89.1161 40.6491 20.3173
91.516 40.6246 20.2113
89.3532 40.5981 20.4733
89.6118 40.7876 20.7041
92.3671 42.0228 21.2436
89.6951 41.4176 21.0772
87.2541 40.8528 21.127
88.7635 41.1816 21.1969
85.9836 40.4204 21.0835
86.8861 41.2793 21.6793
84.3064 39.4777 20.7444
86.0851 41.1512 21.836
84.6768 40.4213 21.3846
87.3572 42.3363 22.4317
81.5578 40.5397 21.9312
82.8747 40.5863 22.0018
84.2925 41.2154 22.421
86.019 42.5856 23.1982
81.6142 40.2442 22.2721
81.6259 39.9877 21.9652
80.6415 40.3168 22.56
79.0558 39.7258 22.2075
80.6072 40.6528 22.8229
81.6938 41.5545 23.3605
81.7488 41.5961 23.8063
81.058 41.9514 23.8606
80.8014 41.8197 23.8917
78.6851 41.5811 23.7941
78.5977 40.8159 23.7853
81.1822 42.5873 24.7138
78.5804 41.4999 24.3793
75.7519 39.7411 23.3485
75.7973 40.6744 24.2281
75.2585 40.0584 23.8094
77.5234 42.0609 25.0302
74.8985 40.7667 24.5075
75.1665 40.5933 24.6722
75.4754 41.9905 25.6618
75.9641 41.9474 25.7166
75.569 41.3711 25.1021
70.9246 39.4095 24.5949
75.3458 42.2167 26.0303
73.7292 41.281 26.0065
74.2294 41.2417 25.6253
71.2603 40.4742 25.7956
73.4811 41.8274 26.45
72.631 41.789 26.6783
73.2222 41.3914 26.3984
70.8509 40.2247 25.8788
72.0435 41.5407 26.5622
69.931 41.4503 27.2927
68.3472 40.5022 26.484
68.9394 40.3398 26.4015
68.7303 41.1815 27.792
86.2748 52.098 33.0461
69.5443 42.1005 28.2327
69.8538 42.7311 28.8181
69.186 41.413 27.6445
69.3665 42.0575 28.2017
68.7442 42.0856 28.4744
66.0285 40.8591 28.0782
67.2473 41.3123 28.4346
69.7051 42.8733 29.1306
65.8909 41.4958 28.8061
66.1691 41.2594 28.8611
64.3693 40.61 28.2974
64.2945 39.7515 27.8289
63.7339 40.6406 28.546
64.3843 41.0182 29.1793
65.888 42.5439 30.3776
65.0227 41.4707 29.4763
63.5289 40.5602 28.8358
63.466 41.4307 29.9796
63.0799 40.707 29.5692
62.6749 41.5132 30.2925
62.9503 41.1105 29.912
60.0826 40.5264 29.9546
63.1794 41.6725 30.7081
61.7261 41.0196 30.4137
60.5483 41.1595 30.8568
59.8219 40.1425 29.9871
60.9025 41.1164 30.947
60.4586 40.5859 30.4262
60.4405 41.2355 31.3114
61.6229 42.2337 32.0214
57.7387 39.7497 30.4366
59.1735 41.0598 31.592
58.936 41.1252 32.1927
60.7586 41.9777 32.3554
58.7024 40.9617 31.4838
56.8168 40.6231 31.7942
57.5373 40.843 32.2794
59.3437 42.022 33.3905
58.6157 41.2295 32.5971
58.1511 42.2232 33.8471
57.1063 41.3372 33.504
56.6165 40.5641 32.6989
56.7566 41.5201 33.2487
56.7043 41.4893 33.7707
55.7812 41.0599 33.3949
55.2369 40.4955 32.8594
54.4531 40.0156 32.6931
54.0252 40.2569 33.3723
55.0035 41.36 34.479
55.4522 41.1842 34.3944
56.2397 42.4406 35.484
54.7212 41.0484 33.9949
55.4122 42.3557 35.3817
53.1754 40.5525 34.5326
52.0191 40.9688 35.3688
54.5587 41.0117 34.9207
52.6262 40.2843 34.2558
53.5564 41.6743 35.8636
51.8094 39.7137 34.138
52.5996 41.1099 35.4926
50.8315 40.1445 35.1703
51.9013 41.4931 36.3432
51.8983 40.895 35.99
52.3536 41.3051 36.2276
50.5211 40.4061 35.7923
51.3727 40.5649 36.2926
51.2893 41.0043 36.4476
51.0784 41.9264 37.8165
52.2813 41.4926 36.8154
51.4821 41.5409 37.489
51.3853 42.0414 38.1331
49.8824 39.8208 36.132
49.9043 41.1667 37.7257
50.0486 41.339 37.8316
48.8663 41.2489 38.1775
49.5522 40.7761 37.7624
50.5407 42.6766 39.4885
48.3896 40.47 37.8151
48.0442 40.5695 37.7722
48.9913 41.3081 38.7185
49.9844 42.4101 39.7551
48.1068 41.0659 39.0361
47.2918 40.0018 37.8674
45.1535 39.3773 38.1653
48.0531 41.0738 39.4627
48.6751 41.4133 39.472
47.1176 41.818 40.6637
48.3898 41.687 39.9598
47.3439 41.5934 40.4933
45.6474 40.155 39.7606
48.1905 43.3384 42.5678
47.6927 41.5853 40.8618
47.1009 41.8615 41.3278
46.1693 41.4155 41.7061
46.2546 41.6708 42.3108
55.5445 49.8806 48.2149
44.7664 40.3589 40.7108
44.8944 40.37 40.6749
43.7513 40.5773 41.449
45.0136 41.3268 41.7958
45.9239 41.567 42.323
43.0788 39.3538 40.4488
44.3839 40.747 41.5238
43.7973 40.4974 41.9477
45.4449 41.5276 42.3274
42.2403 40.2256 42.4189
44.6543 41.6309 43.1099
42.6073 39.8501 42.1722
43.6117 41.5446 43.4562
43.2437 40.2383 42.2595
44.2661 42.4889 44.881
42.9452 40.3198 42.71
43.8121 42.1618 44.4067
42.2324 40.3702 43.4762
42.3364 40.7093 44.0119
43.17 41.8293 44.7911
42.0831 40.4724 43.4852
42.1528 41.1336 44.5991
41.6063 40.4879 43.4646
41.0911 40.4376 44.5793
41.9655 41.9194 45.6187
39.8248 38.9962 42.9795
41.1639 40.9592 45.1301
40.0953 39.705 43.7575
39.8622 40.1271 44.9295
40.906 40.7571 44.8732
39.4517 40.2232 45.4359
40.0261 40.3006 45.4015
40.6095 40.8643 46.4729
40.1499 40.73 45.597
40.3489 40.3884 45.5167
38.5634 39.8543 45.3016
38.8573 40.3887 45.8695
38.1445 39.2225 45.3629
37.688 39.4369 45.4662
39.0312 40.7312 47.2281
39.4759 40.7569 47.006
38.705 40.3455 46.7181
38.5124 40.1811 47.0661
39.1888 41.446 47.9007
38.3639 40.8322 48.6758
37.8878 39.3612 46.1849
37.4386 39.9017 47.3715
37.6811 39.8519 47.731
38.4187 40.8891 47.9587
38.5564 40.9612 48.7341
37.7431 39.8508 47.7638
36.653 40.0127 48.1806
37.303 40.3402 48.3392
37.1112 39.8988 48.3469
34.9627 39.0591 48.5376
37.846 39.9805 48.2235
37.8507 42.4132 51.6446
37.0488 40.86 50.0443
35.6209 38.8314 47.5599
35.5929 39.6577 49.359
37.1187 40.5026 50.0857
36.2721 40.0202 49.5941
35.851 40.3178 50.5885
36.139 39.8866 50.0063
35.3204 39.5022 49.5907
36.1903 41.0092 51.798
36.0749 40.0425 49.5134
34.8186 39.7401 50.171
34.296 39.2742 50.0266
35.0604 40.4262 50.7785
34.1075 39.4003 51.0552
34.6603 40.1343 51.4602
33.8598 39.4116 50.9464
34.0805 38.6293 49.4161
33.736 38.6672 50.2866
34.7706 40.3894 52.8664
34.114 40.1427 52.2443
34.63 40.4872 53.1438
34.6095 40.9458 53.3004
33.1054 38.9359 51.4711
33.6785 39.3891 52.4129
34.0586 40.0987 52.586
33.6992 39.9849 52.8295
33.4814 40.2752 53.9725
33.322 39.6445 52.4819
33.2369 39.6631 53.3684
33.271 40.9204 55.0278
33.8506 40.3114 53.4062
32.1074 39.2185 53.9421
32.2176 39.2554 53.3868
32.1782 39.0366 53.1897
31.84 38.7578 53.2224
32.5687 39.5875 54.592
32.6377 40.4984 56.1777
32.5844 39.9636 56.5724
38.1459 47.569 61.9265
31.1152 38.6401 54.6451
31.8642 39.1542 54.2049
32.6126 40.6517 56.3527
31.6709 39.7771 55.6391
32.173 40.0556 55.8919
30.8168 38.4015 54.099
29.5342 37.3739 53.4309
31.2436 39.6914 56.2181
32.1277 40.5375 56.9952
31.5951 39.0114 54.1577
31.4841 40.569 58.3474
30.9352 38.8793 56.0348
31.5576 40.478 57.9743
30.5193 39.2968 56.2014
30.0552 38.8522 56.2413
29.6345 38.7292 55.561
29.637 38.5749 56.4186
29.9285 39.1996 57.0855
28.6735 37.0677 54.6396
29.643 38.411 56.255
29.9652 39.5348 57.8651
28.7548 37.8962 55.8789
29.3236 38.0017 56.518
29.1673 38.0472 55.5006
28.2973 37.5902 55.8957
28.5506 38.2045 57.2694
27.8708 36.9141 56.2757
29.7574 39.3046 58.1542
29.0073 38.9959 59.2844
28.8894 38.3648 57.2002
28.4221 38.048 57.7438
27.6701 36.4024 55.1081
27.9114 38.0205 57.586
27.7341 37.284 56.3644
27.6386 38.4518 59.1921
28.471 38.2203 58.1057
28.5368 39.2331 60.3769
28.0757 37.8066 57.282
26.9175 37.5654 58.6014
27.719 37.9789 59.102
27.5395 37.7259 58.4282
27.5813 37.7587 58.7545
27.2778 37.8621 59.4254
26.9339 36.5441 57.2971
27.211 37.648 58.8835
26.7396 37.55 59.426
27.2521 37.9542 59.3996
26.7519 37.7132 60.1202
27.101 37.7807 58.7455
26.3832 37.3088 59.7476
26.5309 37.4788 59.6816
26.8108 38.3674 61.0353
26.0464 37.8208 62.0817
25.9586 37.149 60.0463
26.6235 37.6361 61.3122
25.828 37.0278 58.8643
25.6121 36.6829 60.3049
25.6846 37.1046 60.4107
25.9398 37.8027 61.5984
25.3439 37.2439 61.2929
25.4239 36.7313 60.586
25.8973 38.0231 62.0011
25.7098 37.9311 62.6322
25.2914 37.2807 61.0526
25.3585 37.5343 61.844
25.1523 37.1429 61.9868
25.1979 36.9349 61.0494
25.0639 37.1974 62.0201
25.493 38.1383 63.5103
24.5067 36.9759 61.7808
24.0662 36.6496 61.8408
24.865 37.3752 63.0594
24.3852 36.0751 61.2292
23.9653 36.1003 62.0259
23.9489 35.772 60.4144
24.1763 36.6478 62.8496
24.5405 36.1071 61.1765
24.3826 37.4324 64.0534
23.9766 36.6511 64.0444
24.0073 37.1023 63.8671
24.7292 38.2543 64.9439
23.6342 36.2407 62.2827
23.1943 35.9278 62.9805
23.4478 36.088 62.9692
23.6478 36.5719 63.9059
23.9135 36.7969 64.7923
23.8569 36.9037 64.7463
24.0618 37.0189 64.2814
23.6884 37.0997 65.076
23.8805 36.9586 64.6646
23.6822 37.4147 66.0958
22.9874 36.9211 66.7684
23.4996 35.9983 63.4717
22.856 35.8837 64.4321
22.2524 35.8645 68.6738
27.349 41.9686 69.1175
23.2648 37.4178 66.6291
21.9464 34.3197 62.5003
22.7087 35.64 64.6921
22.3728 35.8852 64.7534
22.6326 35.5601 63.5181
22.2517 35.9764 65.4265
22.04 35.1366 63.3695
22.0782 36.1194 66.436
21.8495 34.6594 63.5097
21.9476 35.3616 65.4597
21.2683 34.6279 64.6976
22.2578 36.4654 66.8389
22.7981 36.9872 67.6165
22 35.2718 65.1865
21.4173 35.9363 67.1981
22.2736 35.6109 65.8935
22.0765 36.3112 67.7622
21.846 35.8407 66.6134
21.1395 35.0316 65.9689
21.371 35.0912 66.3024
21.4713 35.5781 67.9406
21.73 34.9447 65.843
21.372 35.3499 65.6693
20.7722 34.3648 65.8314
21.209 34.8313 65.5255
20.8103 35.4144 67.3752
20.762 35.0476 67.3674
20.7443 35.2363 67.9432
20.6311 33.7901 64.8859
20.5783 34.3935 66.742
21.1127 35.4826 67.7728
20.5715 34.3505 66.4284
20.6776 34.8583 66.2993
19.9684 34.5465 67.8217
20.246 33.8209 64.9798
20.3438 35.0633 68.5466
20.5248 34.4752 67.1017
19.8416 33.9464 66.4182
20.357 34.9363 67.4807
19.986 34.4074 68.5677
20.3357 35.2692 69.1108
19.8769 34.3844 68.3222
20.1008 34.705 67.8811
19.6582 34.1647 69.1616
19.7944 33.8816 65.8043
19.2733 33.634 66.7875
19.5821 34.5644 69.6106
19.8635 34.5315 68.5627
19.4959 34.6207 69.5822
19.8242 34.333 67.762
19.2031 33.6159 67.6123
18.975 33.4097 69.3884
19.7488 34.8918 70.3685
19.3607 34.065 68.614
19.6033 34.9198 70.9789
19.3123 33.9647 68.9914
19.4478 33.9207 68.3937
18.9107 33.2945 67.7952
19.117 35.0213 71.3939
18.6829 32.9871 69.7172
19.2411 34.5472 70.0023
18.8719 33.885 70.7047
18.9304 32.8445 66.2492
18.4578 34.2072 69.8929
18.5093 33.4374 69.0913
18.4932 34.0378 70.7077
18.1375 32.9423 69.267
18.5347 33.552 70.1435
18.5099 33.8837 71.3957
18.8402 34.649 71.7126
18.0613 33.0805 70.6676
18.8998 34.0726 69.8367
18.4779 34.8214 72.714
17.5438 32.5312 69.7731
18.4855 34.3909 72.2194
17.9524 32.3739 69.5636
17.6548 32.6305 70.4608
17.9509 33.1381 69.8778
17.5632 32.7769 71.1372
17.8728 32.4736 68.2714
17.8409 33.6181 72.5903
17.8428 32.7198 69.6386
18.077 33.3134 71.2931
18.1403 34.526 74.8046
18.1028 33.8154 71.6659
17.2988 32.8378 70.7949
17.0825 31.6586 70.3167
17.7898 33.6836 71.6958
17.2187 32.9557 72.8674
17.2837 32.4489 71.5228
17.4957 33.0832 70.0225
16.5614 32.1019 71.4879
16.6938 31.7532 69.5694
17.0889 33.3922 73.5673
16.7336 32.0413 76.0812
19.7191 37.9522 77.4052
16.92 32.2395 71.8913
17.3151 34.1543 74.4613
16.8627 32.2079 73.0863
17.1944 32.5086 71.3536
16.3773 31.7289 71.642
16.7318 32.8765 72.6151
16.518 31.4332 71.0596
16.5641 32.2516 70.9162
16.3433 31.7797 71.3969
16.7212 33.1815 74.5216
16.5884 32.5189 72.4184
16.0242 31.6534 73.1755
16.7058 32.8908 73.5238
16.2726 31.8303 72.0224
16.4129 31.5729 71.4961
15.8911 31.4639 72.8796
16.6195 32.5777 72.8966
15.8339 31.3947 71.7186
16.2805 32.8209 74.1785
15.9658 31.7641 74.115
16.699 32.8073 72.5035
15.5531 31.2899 72.9203
15.6448 30.8743 71.5215
15.3992 30.7917 70.0345
15.4727 30.969 71.3081
15.2317 30.9408 74.1608
15.9909 31.2578 72.7463
16.3835 32.5344 73.5339
14.9426 30.6078 72.9167
15.8477 32.177 73.8812
15.378 31.0291 73.3052
15.5562 30.9611 72.8524
15.4205 31.4302 73.2928
15.1518 31.3616 74.6199
15.4459 31.5455 73.692
15.4927 31.2274 72.3178
15.1843 30.6184 73.3042
15.101 30.9936 73.8858
15.1323 31.0204 73.2509
15.1606 30.9409 73.06
14.9022 31.1227 75.0876
14.6998 30.7702 73.6655
14.8859 30.0899 72.397
14.6653 29.9311 71.3364
14.65 29.606 70.3454
14.491 31.4223 76.0426
14.8272 29.8749 72.9715
14.7797 30.3494 72.9656
14.3749 29.945 71.445
14.6366 30.1748 72.6543
14.6346 31.362 76.3917
14.4194 29.6051 72.189
14.5875 30.7026 74.9451
14.6486 31.3528 76.4453
14.6739 30.035 73.1271
14.2105 29.5461 73.6761
14.4082 30.3781 74.0312
14.2338 30.4894 75.5549
14.6745 31.1004 76.3102
14.1509 29.629 73.1451
14.3772 29.6202 71.7872
13.8415 30.1428 74.465
14.1937 30.7119 76.2611
14.2562 30.5261 76.2996
