# pn-170911/RbIIA-27-USN3-1280-1959.psd
# Power spectrum* (dif=0,1,2) (really just |FT|^2)
# NOTE: only the first half! (symmetric)
# weeks: 1280-1959
# 306 clock-days, 94 excluded
# PSD: 1441
31073.7 0.484581 0.0162932
611710 7.17568 0.00866477
3.8438e+06 82.5177 0.0111942
389017 14.1478 0.00995072
314719 20.3032 0.00989412
162373 15.5877 0.0103285
101248 14.4191 0.0125088
76103.9 13.8376 0.0105893
62465.9 15.7716 0.0118893
40730 12.9418 0.0138826
43261.7 16.6435 0.0146043
31337.3 13.8201 0.0175906
26843.9 15.9255 0.0198395
22183.8 14.0373 0.0188854
16169 12.1824 0.0203409
16031 14.0297 0.0224498
13852.8 13.3362 0.0265796
13591.2 15.0639 0.031441
12974.6 16.4488 0.0331542
11194 15.2399 0.0351377
8601.2 13.2315 0.0336819
8291.55 14.4797 0.0383771
6297.31 12.3128 0.0370631
6395.23 12.4136 0.0383628
6387.53 13.6368 0.0469333
6381.25 15.6002 0.0586331
5886.49 15.2548 0.0540326
4410.82 13.483 0.051908
4381.28 14.1809 0.0585087
5028.73 16.7244 0.0810679
3722.34 12.4013 0.0637609
3697.08 14.2103 0.072142
3039.91 13.0271 0.0699411
3969.24 16.0978 0.0922549
3329.77 14.9893 0.0889284
2935.43 13.9331 0.089486
2942.61 14.3853 0.0926787
2805.72 14.6072 0.10821
2779.17 15.2142 0.118034
2138.91 13.2155 0.10535
2500.76 15.674 0.130151
2028.41 12.4323 0.108118
1900.19 13.2662 0.120084
2058.22 14.6562 0.135409
2059.49 15.4826 0.143823
1795.46 15.5181 0.157585
1715.25 14.8259 0.158273
1635.19 14.1295 0.159642
1653.95 14.9478 0.181221
1369.84 13.3377 0.167313
1379.31 15.1078 0.187728
1646.56 15.8263 0.208606
1315.58 12.8523 0.171114
1159.24 13.9109 0.193546
1349.58 15.0018 0.201196
1268.18 14.2562 0.207217
1021.95 12.853 0.205901
1125.94 13.9807 0.217579
958.396 11.4782 0.193642
1047.78 14.8698 0.253545
1041.58 13.3826 0.23244
880.499 11.9246 0.214268
903.013 14.3592 0.263245
941.598 14.1418 0.276881
907.282 13.5883 0.279058
780.978 12.3058 0.25344
832.821 13.6213 0.299996
822.365 14.1217 0.314629
680.507 13.0099 0.30447
749.212 13.7874 0.324632
842.1 14.3912 0.340647
801.05 15.9488 0.389055
637.168 13.1194 0.318322
711.596 14.7326 0.37679
683.57 14.8593 0.400267
635.53 14.6079 0.402771
567.874 13.8316 0.384573
752.659 16.88 0.481671
577.711 13.6544 0.427648
566.783 12.9214 0.383943
533.268 13.1338 0.407498
494.647 12.803 0.417085
517.633 15.0222 0.485404
615.482 17.4091 0.563148
561.122 15.0345 0.513687
503.689 13.1249 0.466029
492.165 15.1897 0.545084
506.228 14.0473 0.512024
484.449 15.9174 0.591687
435.902 13.9408 0.534243
435.902 13.4828 0.528934
463.327 14.9963 0.592334
507.101 16.7806 0.673869
446.492 14.4339 0.646596
294.762 10.2313 0.443723
386.733 13.9216 0.605021
402.616 15.208 0.679996
348.708 12.1236 0.534505
347.38 12.9181 0.584508
395.768 15.7438 0.747939
380.709 14.5886 0.683736
301.15 12.1996 0.612947
416.483 15.4851 0.756475
344.717 14.2064 0.724093
380.007 15.3625 0.807664
309.258 11.8507 0.622742
314.787 14.0252 0.762789
321.377 13.84 0.750366
274.8 13.633 0.782511
364.567 16.8153 0.950409
303.822 13.6274 0.807347
281.509 14.5256 0.827129
278.162 14.3675 0.850609
333.619 15.8391 0.950847
270.006 13.7489 0.831172
273.579 14.6143 0.909524
290.93 14.1626 0.887287
257.471 13.2489 0.883787
260.292 13.5078 0.891687
270.511 15.2183 1.02134
281.26 14.9416 1.04486
268.238 15.2836 1.07915
237.768 14.9965 1.0467
202.098 14.243 1.0119
261.585 15.5583 1.11417
197.822 12.319 0.908628
222.818 14.3138 1.09191
203.654 11.8636 0.909288
198.329 12.0464 0.95494
211.924 13.8783 1.10266
223.873 14.0055 1.1265
199.019 12.8922 1.05029
180.891 13.3759 1.13209
197.477 13.6481 1.18358
204.096 13.2113 1.13494
216.41 15.7329 1.35197
206.209 14.0877 1.24775
191.34 13.924 1.25037
161.744 12.9584 1.1516
177.567 14.1899 1.28084
185.983 13.6806 1.27809
192.02 14.3038 1.33094
179.823 14.4776 1.34465
177.369 13.2728 1.28347
165.306 14.1008 1.3713
172.456 14.0146 1.41472
170.914 14.7523 1.46588
168.259 13.4452 1.37893
159.668 12.8769 1.32281
165.957 14.2874 1.48856
141.077 12.2706 1.29793
124.05 11.3708 1.26731
142.985 12.4106 1.34658
150.186 13.5207 1.49031
127.918 11.0122 1.23834
151.018 12.0903 1.38855
158.18 15.3338 1.75871
178.057 16.8461 1.97666
162.67 15.0066 1.74984
160.308 15.1462 1.78286
139.797 13.353 1.59088
143.848 13.464 1.62331
122.028 12.3748 1.5651
126.538 12.101 1.51972
140.315 15.09 1.93803
128.862 13.0748 1.69368
142.025 15.6146 2.04564
138.568 14.7032 1.89691
145.722 15.3736 2.03789
116.863 12.2163 1.65427
126.867 14.9871 2.05028
131.264 13.8202 1.92059
129.16 13.5572 1.94224
127.569 13.9611 1.96712
128.012 13.2983 1.87903
104.631 11.5292 1.70538
127.913 13.9948 2.01906
88.7691 10.6428 1.6148
112.487 13.4057 1.98127
118.214 14.2822 2.09113
117.228 14.0812 2.15613
116.979 14.078 2.16691
114.741 15.4399 2.48162
103.436 12.3844 1.95301
105.349 12.3748 1.94348
97.2602 13.6657 2.15907
95.6684 12.5292 2.07923
101.47 12.8479 2.11538
82.3377 11.7527 2.01268
84.7287 11.8379 1.98144
106.248 14.4667 2.4988
84.7595 10.1772 1.76481
90.1207 13.3734 2.2875
102.685 13.3418 2.39458
79.5325 11.875 2.10741
79.1442 11.833 2.208
99.8692 15.9138 2.84712
100.375 14.0786 2.48931
81.3605 12.9466 2.3709
96.2165 15.3022 2.83078
91.0698 13.5217 2.53869
79.954 12.3945 2.30975
86.2066 12.918 2.45668
95.5192 14.0203 2.70294
80.985 12.641 2.42638
82.0458 15.0132 3.03138
76.1547 12.5025 2.49089
83.4459 13.9893 2.87457
93.3793 15.1729 3.03836
82.0998 14.815 3.02273
84.8905 13.7452 2.81715
78.9496 13.278 2.77698
72.1041 11.2638 2.31479
75.8553 13.1931 2.80797
82.5492 14.6436 3.12112
72.1973 13.6663 2.90514
68.6334 12.6012 2.76197
84.6459 13.6814 2.98461
66.0847 12.8582 2.97613
72.4402 13.6352 3.04588
76.7841 13.4703 3.05249
80.3503 14.5904 3.23304
97.7946 16.7897 3.77166
67.304 12.8114 2.96192
69.0608 13.3625 3.10736
78.7161 14.705 3.46829
67.3437 12.4018 2.94523
61.3615 10.6451 2.57306
68.0556 12.9356 3.11025
69.9586 13.4669 3.20981
67.4641 14.7043 3.61055
58.2189 12.0933 3.14572
54.5318 11.6745 2.85353
65.7548 13.1861 3.44466
56.9723 12.5757 3.22953
54.6323 12.2757 3.2489
67.6484 12.3663 3.20234
64.5819 13.6991 3.60207
65.4829 14.7 3.9892
67.6425 15.0745 4.00787
62.5392 13.7845 3.68929
48.8192 9.88907 2.74205
54.5075 12.5138 3.56873
66.011 13.461 3.67713
62.8566 14.9347 4.0519
60.5544 14.6632 4.15168
67.5163 15.3872 4.34486
67.6809 15.0795 4.29684
58.4468 12.792 3.75641
58.3121 12.2917 3.43211
55.388 12.3801 3.60941
53.7024 11.9768 3.60842
51.2978 13.5812 3.9796
52.8839 12.2841 3.55578
47.3804 9.72836 2.96022
60.5564 15.3685 4.48216
50.1883 14.2179 4.40019
50.9388 11.2817 3.20152
50.3297 12.4155 4.00303
56.1109 12.9827 4.1875
55.5389 14.0637 4.41432
55.2163 13.1526 4.15425
48.2445 12.6949 4.00072
44.3411 11.3349 3.75539
52.7873 14.0574 4.61451
51.2903 12.9415 4.0965
45.09 11.1785 3.68431
52.3121 13.3688 4.48676
49.2611 13.2217 4.27669
51.9062 12.9615 4.28056
44.0008 11.1226 3.82196
40.7454 12.1873 4.08031
48.7195 13.6357 4.74933
45.108 12.8291 4.55746
53.7807 14.4064 4.79305
50.5077 12.1326 4.21199
50.2203 13.4669 4.78815
37.3825 12.0614 4.37688
44.0602 12.1583 4.08462
49.1351 12.844 4.55109
51.8709 15.5466 5.65742
43.4362 11.6392 4.27077
47.5718 14.3361 5.18699
44.4114 12.5341 4.61808
49.9591 14.3292 5.25307
38.5269 11.5134 4.37246
44.1624 13.9996 5.56224
47.604 15.2056 5.68177
44.18 13.1199 4.91966
45.1226 13.9345 5.44367
44.2895 13.8992 5.26392
38.2103 12.0284 4.76869
40.9767 13.1055 5.16861
40.7548 12.7812 5.18863
48.5421 14.9212 5.78591
35.9766 13.0789 5.23743
42.5488 13.2213 5.33929
35.5859 11.2426 4.56582
36.3777 11.5972 4.82759
43.3032 12.6983 5.20316
28.5279 9.27582 3.77175
45.4597 14.2042 5.73507
37.0359 12.1821 5.14938
41.5922 13.7269 5.96317
47.4336 17.2851 7.40983
31.7048 11.1072 4.9358
38.5908 14.4186 6.39053
37.048 12.6968 5.17877
38.1228 13.2082 5.62233
33.8493 12.0074 5.51808
37.4556 12.6751 5.78269
37.779 12.7746 5.59952
39.5478 12.6994 5.31021
36.1841 12.5809 5.44484
31.3137 11.4309 5.51421
37.1549 10.7302 4.76551
38.5386 13.1483 6.06061
38.1995 12.7948 5.63544
37.5874 12.9116 5.90496
31.0602 11.5023 5.62505
34.4414 13.3313 6.08564
36.3293 13.8342 6.29121
32.9758 13.2305 6.3027
32.2095 13.0313 6.12785
29.6086 11.6842 5.85526
34.7912 13.6259 6.64606
33.294 12.2983 5.90532
34.0896 12.6424 6.11914
29.1134 12.2629 6.28284
30.8351 12.7162 6.29758
31.98 13.0405 6.68639
31.7763 12.7 6.46891
33.5326 13.085 6.26527
27.6112 10.9145 5.43184
28.4542 12.141 6.4604
33.5183 13.1512 6.48547
32.7692 13.3593 7.2388
34.3122 12.4143 6.23062
34.7074 14.0352 7.26686
29.1267 13.3887 6.74905
31.4994 12.7514 6.98285
32.8433 13.4093 6.93999
28.7833 12.9543 6.8869
27.1556 11.287 6.20221
27.5095 11.7626 6.33657
25.8943 11.7323 6.30061
27.9109 11.0295 6.08635
29.7657 12.6556 6.77464
30.5238 14.2207 7.8707
30.2898 13.2492 7.56322
30.5461 12.3218 6.53647
28.8474 12.4361 6.71623
28.3225 11.6697 6.72346
30.6991 14.0816 7.73786
28.3243 13.2138 7.69442
24.2814 10.8343 6.54703
29.9118 11.2795 6.07641
26.9401 13.2893 7.70638
27.1039 11.2985 6.29099
24.7785 11.8649 7.08741
29.2881 14.5874 8.61679
26.817 12.254 6.97263
25.5642 12.517 7.5032
23.1572 11.1593 6.47609
24.3507 12.2172 7.22394
28.3385 12.1403 7.22903
27.682 13.215 8.11719
26.2021 12.6394 7.75916
25.1476 12.2853 7.83304
22.7595 10.148 6.01357
26.3167 12.3952 7.63152
23.8137 11.2495 6.69758
26.8288 15.2115 9.9324
26.2799 11.8492 7.13065
25.0245 12.4438 7.99569
26.4211 13.4462 8.4396
28.8935 13.8711 9.20827
27.1646 11.7894 7.1058
21.3279 10.5694 6.65767
24.9352 12.0561 7.85979
26.3846 12.5966 8.20228
24.7849 13.0902 8.19613
24.495 12.2672 8.17465
23.4998 11.8796 8.13416
23.1404 11.0428 7.45677
21.8056 12.7392 8.06894
20.3503 10.5815 7.52603
21.6384 10.8778 7.07405
21.731 11.1926 7.94689
22.7249 12.2619 8.48273
22.3346 11.8526 7.74048
20.136 10.6967 7.20082
21.6911 11.4363 8.19847
22.5839 12.2242 8.47603
23.5365 11.904 8.30875
21.5996 11.6232 8.16717
21.5922 11.2366 7.83422
23.27 12.6255 8.69527
21.1974 12.6642 9.39322
19.594 10.4905 7.70898
20.4954 11.0087 7.81145
21.9032 11.2877 7.97036
22.7263 12.4817 8.61016
21.8417 12.3982 9.17432
20.3702 12.1955 9.52175
22.158 13.0909 9.24746
19.0846 10.752 7.66918
21.9833 12.3398 9.48887
21.1569 11.9004 8.24538
19.847 11.6327 8.70962
21.1631 12.4558 9.49247
21.7351 12.757 9.84372
19.171 11.2256 8.37049
18.8781 11.4641 8.34138
17.6282 11.6196 9.10409
18.4914 10.7328 7.71643
20.967 13.1475 10.4273
20.9817 11.4304 8.57274
19.5907 12.0255 9.02815
15.7696 10.1029 8.39559
22.2067 13.7682 10.7218
18.1668 11.2736 8.74889
21.6304 12.5874 9.92124
17.4968 12.1274 10.1135
17.4502 11.2388 8.68499
18.6613 12.0446 9.6495
18.0679 11.7796 9.81553
22.5574 13.6021 10.5792
16.1073 10.8389 8.85831
20.7269 13.4812 11.1668
15.781 10.336 8.33377
21.1648 12.3554 10.4414
20.8551 13.2484 10.0794
16.2912 10.9309 9.65774
21.7939 13.143 10.6615
18.3426 11.9007 10.0174
15.0207 11.4521 10.4231
16.0302 11.5029 9.67596
20.662 13.6606 11.2885
17.1999 10.7503 9.5749
20.8062 14.3748 11.5839
16.6423 12.5337 11.1245
18.4467 11.4922 10.2785
20.4787 12.2586 10.1099
15.7978 10.9969 9.15794
14.4767 9.81561 8.89664
18.8071 12.2201 10.437
17.1994 11.3269 10.5181
18.2601 12.6612 11.4553
15.2934 9.69189 8.73354
18.8976 13.1504 10.6263
17.4702 11.5253 10.6312
15.9952 11.6877 10.4221
15.1677 10.5775 9.41139
13.6435 8.75751 7.92029
15.3409 10.7775 9.30188
14.33 10.1498 9.30198
17.8841 12.7827 11.0553
14.3312 10.8079 10.0081
16.1753 11.51 10.3109
14.9632 11.0482 10.3363
16.4421 12.4997 11.7372
17.1642 12.5835 12.0447
14.8804 10.8655 10.5819
16.8598 11.4542 10.1863
15.5202 12.2688 12.2821
15.9404 10.9784 9.72957
16.0948 10.3587 10.1841
15.2994 12.3919 11.4731
15.3484 12.6641 12.3024
14.6655 10.6062 10.0915
13.7121 11.4364 11.1908
15.5099 11.2104 11.256
14.1088 10.3248 9.92496
15.0263 11.731 11.469
13.6658 10.8207 10.3881
17.5426 13.5927 13.4519
14.3802 11.1684 10.9439
12.5016 10.3333 10.5001
14.8922 12.2913 12.4101
15.0382 12.1365 11.7113
12.548 9.5388 10.1415
14.8856 12.0094 12.0576
15.9989 10.6817 10.2862
14.5217 10.8887 11.1096
13.9459 10.9511 11.0551
13.9741 10.6628 10.5625
13.7918 11.1836 11.6134
14.637 10.9669 11.7643
15.9292 13.4912 13.9955
14.097 12.0982 12.0445
13.3409 10.8384 11.7368
16.1567 13.4253 14.0312
15.3152 10.7069 10.457
12.8916 10.1568 11.1446
11.8339 10.2101 10.6086
13.7105 11.3884 12.4971
13.659 12.1896 13.0293
11.771 9.88068 11.189
11.4657 10.2747 10.9508
12.6223 11.5378 12.3585
13.7556 11.506 12.6391
15.7425 12.9517 13.527
15.3351 12.306 12.8452
12.4359 9.98613 10.5868
13.0267 11.5815 12.4811
11.6023 9.44261 10.3439
11.8422 10.137 11.2785
13.9185 11.3307 12.473
10.7347 10.7401 12.4907
13.8129 12.2187 13.2645
10.166 9.66807 11.6078
11.6123 10.0362 11.5518
12.2753 11.9039 13.8555
13.8413 10.1513 10.8116
15.1508 12.2382 12.6879
12.3314 11.5605 13.6318
11.5798 11.4468 12.5735
12.1406 11.4811 13.7399
11.6928 10.5786 12.2859
13.7702 13.3949 14.4685
12.3849 11.2373 13.9604
11.4836 9.64648 10.7533
13.1718 11.4065 13.8538
12.4507 11.7899 13.6497
12.392 10.2202 11.6554
12.2643 11.3924 13.6487
9.66284 9.93649 12.1501
12.0026 10.6933 12.3626
12.091 10.3773 11.323
11.8249 11.0485 12.9185
10.815 10.2791 13.2787
11.3577 10.3098 12.6784
11.5691 10.0666 12.0838
10.8961 9.70759 11.5459
12.837 12.1248 14.1033
12.5088 11.4337 14.0463
11.2497 10.8028 13.0582
11.2967 11.0233 13.0435
10.8372 10.935 13.9269
11.8952 10.7279 13.6177
12.6019 11.6581 13.6743
9.75974 10.5288 13.9173
11.5722 9.61438 11.4831
9.41779 10.2309 13.414
12.0132 11.0665 13.0291
10.0672 9.5909 13.3473
11.9388 11.844 15.2893
11.0398 10.5449 13.6138
11.3533 10.7557 13.5969
11.5472 11.5423 14.2196
12.7569 12.2206 14.2792
9.21737 10.3619 14.2812
11.9312 11.442 15.0356
10.9735 11.0362 14.1459
11.9655 11.4113 13.516
9.03528 9.67132 13.1905
10.1202 10.0619 13.6181
12.1572 12.7109 16.0306
10.4266 10.8185 14.6925
11.3585 11.1149 14.7566
10.6542 11.4706 14.96
10.9402 10.5221 13.9685
11.126 11.2319 14.4184
10.4956 10.835 14.5905
11.1069 10.5558 14.2079
12.6563 11.1446 14.3699
10.0706 10.543 14.468
9.9055 10.1547 14.5591
11.0914 10.3992 13.9519
10.5384 11.0983 13.9607
10.5081 10.3714 14.1352
9.50807 10.6877 15.0806
8.43261 9.52851 13.5637
10.3475 11.3814 14.8907
9.81496 10.0307 13.7278
9.94853 10.9714 14.9931
9.95676 10.0349 14.4033
10.5955 10.5487 14.6196
9.54785 10.0617 14.8981
10.0284 8.93167 11.7162
9.90886 10.8845 14.4965
8.30029 10.1324 14.3295
9.11633 9.60133 14.5369
9.9275 11.5817 16.741
10.9153 11.9287 16.4989
9.05637 10.3834 15.4784
9.36972 10.3863 14.3067
9.40123 10.1438 14.2636
9.9331 11.21 15.7383
10.4331 11.1453 17.2023
10.0177 10.1923 14.3945
10.3006 10.2725 14.236
9.04776 10.1069 15.1363
8.74562 9.77726 14.7201
9.28714 10.4239 14.3075
8.16307 9.38058 15.0212
9.55399 9.91552 15.0027
9.51098 9.60913 13.8771
9.84193 11.8649 18.0989
10.8487 11.3666 16.641
9.82165 11.2413 15.8508
8.92993 9.77842 15.322
9.09465 9.6519 14.4105
9.82891 10.3946 14.9344
9.74333 10.54 15.5344
7.80033 8.84997 13.5045
8.33874 10.3686 16.1013
9.96705 12.1319 18.2292
8.63897 9.7456 14.3241
7.42009 9.66731 14.1011
7.81569 9.56018 14.7838
8.59629 10.3387 16.0458
8.32396 9.57617 14.8604
9.56922 12.4501 20.3889
9.81594 10.1871 15.2973
8.03468 8.81782 13.4515
8.24737 9.9652 14.7695
8.32893 10.2363 16.8208
7.77009 10.1032 16.1402
8.78116 10.5033 16.4853
8.28619 9.79913 15.1939
8.09192 9.52178 15.3361
10.1569 11.9366 18.6249
7.71848 10.1286 15.2646
8.68318 10.9274 17.6629
8.22894 10.8196 18.1231
9.86841 11.0485 16.3065
7.28305 9.99291 17.7849
9.7547 11.7313 17.5132
7.96619 9.50814 14.9799
8.32216 10.4299 18.1366
8.83007 10.3016 17.1757
8.59038 10.2428 15.3365
7.67887 9.29634 15.3525
8.15365 9.32941 14.0371
7.90457 9.92355 16.4667
8.26962 10.5097 17.3005
7.28948 8.84039 15.4872
7.24802 8.71704 14.2632
7.35164 9.98956 17.6746
8.70833 9.82175 15.0038
7.49507 10.261 17.8008
7.36415 9.04251 16.4398
7.98581 10.0703 16.1564
7.94558 9.07377 14.7844
7.94525 9.14113 15.994
7.81214 11.169 18.1022
7.42816 9.67956 16.7932
7.68903 10.2519 15.574
7.06583 8.68854 14.4563
7.17451 8.68951 15.3642
7.87171 9.54304 15.0469
6.14967 9.3514 17.7954
7.65816 10.2837 17.2823
8.34444 10.424 17.1018
6.63352 8.16162 14.0012
7.03991 9.09424 15.6697
7.42542 9.10679 15.1306
7.66185 8.89587 15.4763
7.25287 9.4009 15.9515
7.10591 10.3751 17.7255
6.98305 9.8369 18.8824
8.55426 11.0176 18.9239
7.25626 9.63054 16.4242
8.41432 10.6827 18.2046
7.68181 9.26426 16.6409
7.55086 9.49952 17.2665
6.81465 9.59985 17.7468
6.87483 8.85716 15.8433
7.8504 10.7711 18.7023
7.61771 10.6374 19.426
8.27668 11.0706 18.4949
6.49669 10.488 19.8283
7.95162 10.3695 18.3408
7.07572 9.48559 17.2577
7.18533 9.49761 16.2119
6.96292 9.34877 16.2853
6.72099 10.1226 19.1531
6.25746 9.55385 16.8712
6.79966 9.55534 17.9882
7.05185 9.20444 16.3662
6.35667 9.70782 18.4977
7.35702 9.30118 19.0782
7.46127 9.80305 16.1791
6.38074 9.29638 16.9008
7.00483 9.2476 18.442
8.37472 10.8375 18.7571
6.32713 9.75247 17.9021
7.0303 9.73879 18.0518
6.33215 9.33173 17.6755
6.40589 9.27141 18.6115
7.30957 10.4492 18.7537
6.25021 8.11352 16.7974
6.37347 8.97975 16.2316
6.20769 8.25607 15.9022
6.75958 9.0035 15.9522
5.90802 8.5715 17.3062
6.88371 9.27277 17.5292
7.33174 10.4635 19.628
6.37684 9.43027 17.85
6.188 8.99722 17.7312
7.27842 9.73515 18.2917
6.78765 10.0388 20.2213
6.42729 10.2941 19.2289
6.87576 9.59036 19.4939
6.86268 10.6121 19.4046
6.55499 9.8103 19.8889
6.74359 9.43573 18.4661
6.63168 9.17666 18.3987
6.78937 10.1258 19.4578
6.14204 8.88693 18.2181
7.12819 10.809 21.048
7.18656 10.0166 18.14
6.24162 9.97026 19.4341
6.90879 10.4866 21.4
5.78784 8.15913 16.6062
6.21666 9.73654 19.5292
6.20253 9.56606 18.8875
5.95292 8.13632 18.1548
6.99542 9.90259 19.3729
6.16291 9.11729 18.5421
6.68617 8.93 16.995
5.70812 8.74435 18.679
6.4292 9.15656 17.625
5.6465 9.23391 17.7465
5.66432 8.34557 18.6756
6.62025 9.03917 18.7329
6.24669 9.04556 17.4472
6.63185 9.78215 19.7575
5.78552 8.86868 18.3262
5.69107 8.16036 17.4128
7.68681 9.3818 19.0355
5.56777 9.48769 18.7418
5.58982 8.81996 18.7223
6.29147 9.04428 18.4899
6.02721 8.59793 15.6894
4.93914 8.45117 18.7086
6.01355 8.63103 17.7169
6.61134 8.6789 18.3987
6.41331 9.40561 19.2429
6.655 10.2763 20.3197
5.81679 9.33495 19.3006
5.90965 8.67774 19.4479
6.07185 9.99194 21.8052
6.19015 9.01097 17.6935
5.79194 9.73129 22.2236
5.74084 9.32427 19.9647
6.83026 9.68876 19.5068
5.42567 9.3553 19.9241
5.66896 8.28148 18.1564
5.99534 9.86606 20.5053
5.61049 9.06666 20.2088
5.58326 8.43347 17.348
5.61075 9.56509 19.7829
5.58546 7.70798 17.3559
5.47696 9.79688 20.9568
6.5701 9.76336 20.1529
5.88853 9.7956 21.1505
5.88328 8.48589 18.2518
5.19936 7.76757 18.4548
5.89083 8.95708 18.6991
5.48517 9.8771 22.2732
5.99091 9.0311 21.097
6.16417 9.22154 18.4232
5.61814 9.23518 19.5152
5.96878 9.51376 21.657
6.2212 10.3028 22.2501
4.93149 8.03857 17.2012
4.89924 8.69025 20.2307
5.78014 8.74126 18.8113
5.15059 8.1921 20.0028
6.37751 10.3497 21.0751
5.27259 8.14886 18.1688
4.84406 8.7545 17.6298
4.70879 8.5149 22.373
5.83363 9.09206 19.7394
6.33113 9.37976 21.5334
5.69441 8.64794 18.1596
4.78616 7.89251 18.1024
5.3695 8.797 20.2308
5.02893 8.24235 17.2526
4.60815 8.72505 19.6098
4.81595 8.71406 21.1997
5.20382 8.82908 18.5892
4.68002 7.36483 18.1246
5.62636 8.78949 20.1983
5.79285 8.88354 20.0799
5.4687 9.06941 19.8282
4.78601 7.10677 17.3428
5.03942 7.91841 18.2823
5.33069 8.51452 17.0359
4.13352 8.10374 21.2307
5.43652 10.0607 21.8101
4.55508 8.14692 19.7417
5.00638 8.92836 20.2899
4.91511 8.58703 20.5628
5.20837 7.66756 18.9924
5.54866 8.49492 18.5259
4.73185 8.11797 22.8118
5.14112 8.20084 16.3806
4.33027 8.48599 22.4669
6.05548 9.80089 21.866
5.54116 9.23409 20.371
5.06125 9.13159 21.7989
4.89005 9.22005 21.3161
4.76828 8.23025 19.2727
4.74503 8.48682 20.4098
4.7849 8.43181 21.0943
5.31334 8.70601 20.0965
5.17979 8.94389 21.6926
5.48711 8.53645 20.0852
4.62392 7.63358 20.3769
5.32772 9.42251 22.6422
5.36732 8.098 18.6925
4.64834 9.69142 24.737
6.22293 9.95039 22.3813
5.51537 10.1089 23.4048
4.93924 8.51363 20.6727
5.63727 9.4741 22.4713
4.28247 7.55641 20.9528
4.985 8.35774 19.4621
4.32093 9.72283 22.6352
4.9342 9.20853 23.6515
5.07259 9.27345 21.8555
4.58119 7.3691 19.3689
5.00021 8.70631 21.6715
5.24315 8.14131 19.4207
5.31234 8.88843 23.137
