# pn-170911/RbIIR-58-WTZR-1280-1959.psd
# Power spectrum* (dif=0,1,2) (really just |FT|^2)
# NOTE: only the first half! (symmetric)
# weeks: 1280-1959
# 10 clock-days, 9 excluded
# PSD: 1441
1028.12 0.119008 0.115197
47722.4 0.400857 0.127362
302009 7.02367 0.177748
12337 0.505005 0.101026
97969.5 9.71799 0.151764
6053.96 0.38271 0.273396
9035.01 1.51595 0.133315
1946.35 0.342386 0.183729
4072.95 0.797128 0.20868
3008.4 0.686246 0.149082
801.166 0.515098 0.231805
518.283 0.469505 0.19522
1136.85 0.300264 0.177754
458.04 0.406872 0.205933
1293.73 1.16641 0.0993471
1062.41 0.819736 0.174766
403.739 0.397941 0.243478
847.187 0.825396 0.370715
702.977 0.955038 0.332374
382.539 0.655104 0.189737
334.387 0.674676 0.16503
413.313 0.762921 0.214537
510.495 0.938486 0.215251
494.979 0.655408 0.192912
449.013 1.15709 0.127552
466.662 0.899971 0.152973
347.483 1.0233 0.181626
227.679 0.912845 0.322707
510.329 1.67581 0.366774
505.599 1.37478 0.103236
334.759 0.851178 0.135554
186.766 0.771437 0.175884
211.102 0.946912 0.110525
276.894 1.97691 0.23331
331.828 1.74569 0.210439
262.26 1.37818 0.146862
397.719 1.78857 0.214167
372.433 1.50102 0.1749
368.092 1.93861 0.209789
309.443 1.98733 0.156435
312.599 1.71046 0.250019
297.231 2.68759 0.195208
164.373 1.38306 0.178999
262.427 2.4366 0.252671
347.452 2.46948 0.194213
324.467 2.7292 0.0816615
233.588 2.73599 0.293942
192.099 1.60591 0.181361
352.548 2.72708 0.215552
316.08 3.74376 0.225474
209.648 2.61345 0.194706
239.787 3.37764 0.127996
293.479 3.23457 0.175526
224.128 2.60635 0.281379
131.555 1.47752 0.20065
234.971 3.87033 0.176945
288.954 3.76102 0.238993
242.227 3.17512 0.166838
246.055 2.82794 0.268903
231.772 4.26155 0.131878
214.106 3.07324 0.132993
254.823 3.7127 0.208948
237.952 4.60232 0.458617
309.889 5.02504 0.378032
165.816 2.76206 0.31134
120.242 2.41478 0.228544
233.433 3.69851 0.48262
131.74 2.81619 0.216765
166.438 3.82218 0.342771
209.575 5.04745 0.283296
224.254 4.34529 0.319653
180.185 4.06726 0.40307
234.553 6.96823 0.655844
217.986 5.22616 0.415477
227.101 4.98388 0.272842
193.457 5.5961 0.184873
190.873 3.90188 0.270977
170.62 4.44903 0.191808
191.038 7.0365 0.310011
225.116 6.22323 0.447674
170.644 5.34344 0.277336
199.377 5.31645 0.301708
64.8601 2.00381 0.19918
125.361 3.57325 0.125426
238.92 6.25989 0.406975
198.639 6.13842 0.359955
177.896 6.52146 0.448586
78.9632 3.86163 0.310526
285.234 9.93518 0.590885
219.556 10.3925 0.593133
143.524 5.3949 0.381877
161.781 8.18396 0.545799
372.99 13.3245 1.21459
175.674 6.3944 0.359938
201.486 6.99747 0.548461
170.85 8.77166 0.262546
276.742 11.0597 0.790851
157.542 7.83158 0.625945
107.979 3.57878 0.449164
244.972 12.249 0.903728
210.258 8.42305 0.544252
193.747 11.3756 0.564488
233.713 11.3379 0.924728
117.596 5.65026 0.353758
196.228 11.5231 0.563985
122.699 6.39165 0.431546
94.8378 4.85191 0.438557
126.649 7.14208 0.668425
156.182 7.64469 0.748042
212.963 12.5322 0.855617
138.298 7.62842 0.726319
170.282 9.54346 1.04064
84.1408 4.57384 0.401664
225.416 11.3847 0.609318
86.0889 5.48337 0.51102
126.487 7.01243 0.576043
86.2646 4.47836 0.591556
216.419 12.7672 1.05001
169.95 10.6619 0.672763
91.3504 5.73064 0.432493
155.061 10.4669 1.20352
175.557 11.323 0.968901
97.0524 5.79831 0.564947
135.447 9.24331 0.743936
129.853 9.07491 1.13002
132.372 9.86265 0.697388
175.309 11.5062 1.32517
166.764 9.3177 0.669665
119.376 9.7187 0.819227
148.749 11.8027 1.28379
130.945 10.3102 0.964524
142.368 10.6907 0.823988
196.036 14.1386 1.23294
103.388 8.4312 0.675683
91.8543 8.62535 0.71274
119.336 10.5243 1.1384
116.841 10.9612 0.849934
75.4786 6.81585 0.5176
148.813 11.9417 1.2202
135.748 10.6362 0.925437
110.488 11.3652 1.03445
137.913 13.8193 1.42925
180.048 16.4723 1.81622
98.5291 8.19646 1.21104
81.2424 8.18958 0.970945
108.746 11.6665 1.43137
96.7779 9.81467 0.778573
147.487 14.8312 1.76229
78.8446 8.06104 1.22056
92.2644 8.12021 1.12745
149.779 14.3109 1.32224
147.323 15.9499 1.70096
113.01 10.2994 1.3161
189.1 18.502 2.04143
184.804 18.9597 2.13208
163.8 18.9231 2.55141
142.811 15.3245 1.94804
148.448 16.267 1.8628
144.549 16.7943 2.18566
58.2487 6.45013 0.935798
71.9502 10.3998 1.48314
112.427 12.2743 1.67415
118.624 12.6565 1.65695
96.1048 11.5071 1.41175
145.374 18.3479 2.19004
74.4959 7.76721 1.42891
123.136 14.5042 1.79745
122.442 13.8379 1.66937
119.991 15.4697 2.14355
136.12 16.9462 2.55397
66.1922 7.55477 1.11882
113.269 13.6703 1.91363
93.8135 13.531 1.55638
39.2513 5.8055 1.02699
153.023 20.6671 2.97587
112.161 16.2123 2.19375
135.983 21.3695 3.50489
93.5562 12.5551 1.6221
116.061 19.0699 3.23263
129.71 17.9569 2.58494
117.989 16.0181 2.66734
72.4683 10.863 1.74096
70.7967 11.3048 2.29139
76.4682 12.2127 2.18727
126.026 20.4477 3.3267
86.5487 12.012 2.00647
96.8391 14.4103 2.25107
145.857 22.8534 4.09086
129.358 22.0066 4.32161
128.843 22.5611 3.73853
168.466 27.7785 4.56137
133.381 21.3518 3.89372
180.453 30.5855 5.3449
106.632 14.6417 2.18482
78.4498 15.3768 2.95158
121.224 19.9534 3.37852
72.2154 12.4833 2.42757
132.059 24.1298 4.75994
83.986 15.4118 2.83356
86.0467 14.7351 3.01788
92.1694 18.9322 3.16155
141.977 25.4319 5.01986
69.3455 15.7424 3.58092
115.766 18.2431 3.76311
89.7363 14.7485 3.07893
86.6524 15.7252 3.14157
57.9279 10.2995 1.75007
75.6658 15.52 3.43873
151.18 29.7585 5.1634
103.44 20.9671 4.43385
62.0244 12.5224 2.65361
86.2797 16.8559 3.39372
123.204 26.0144 5.67816
148.467 31.1336 5.84985
59.5847 10.6485 2.22898
96.1499 19.9571 4.61719
153.956 32.3273 6.38929
108.938 21.0021 4.45544
127.554 26.6435 6.19386
178.396 38.2915 8.81099
69.1991 15.3384 3.94292
107.122 21.097 4.6064
89.4379 21.1087 5.39156
154.405 34.3165 7.23093
42.953 9.3788 2.55925
49.3043 13.3246 3.62358
82.9984 18.2307 5.28429
85.2691 19.9788 4.54398
65.0802 18.7172 5.09352
152.24 33.9621 7.18123
69.9952 18.3313 5.29005
49.8797 13.1675 3.34371
79.0584 19.8658 4.79868
72.674 19.3514 4.95546
157.32 39.3759 11.3532
116.179 26.257 6.53948
135.935 34.0044 8.70663
141.333 34.8609 8.58019
111.815 35.1276 10.2749
120.186 26.5954 6.67631
96.8766 28.2538 7.2957
80.2124 19.3533 5.29637
157.236 40.0439 11.4465
77.5363 18.7327 5.3507
73.3527 18.3328 5.58815
55.1305 14.2236 3.4958
80.4988 23.2019 6.15157
106.501 27.6621 7.16972
60.1918 18.9765 5.39305
77.4776 25.8209 8.37451
80.6019 26.1058 7.74688
119.753 30.9027 9.21725
78.8607 21.6639 6.14615
64.9667 20.8366 6.27311
75.628 22.2823 7.31717
142.497 38.4334 10.2482
54.3495 17.4525 5.72452
86.6839 29.0205 8.90569
69.775 20.7406 6.7447
86.2355 28.1988 9.37254
53.433 15.004 4.40777
81.3498 23.4938 8.10082
146.93 41.1814 11.7807
71.6284 20.4572 6.32812
77.6794 26.2258 8.02945
107.36 34.4388 11.1477
89.8703 25.0132 7.69217
88.0943 26.4281 8.16006
48.3621 16.0044 6.02533
68.4112 22.2432 7.13095
103.96 34.2202 11.753
39.6115 13.4092 5.28131
118.638 38.1539 11.8597
23.6098 11.4173 4.49624
77.1432 26.3479 10.1928
78.3355 26.9777 9.39029
77.8268 23.3657 7.3169
54.2331 19.8105 7.91142
90.6518 31.7699 11.3948
106.868 36.1429 11.8269
73.462 26.0422 9.51137
162.918 62.802 21.5611
76.6746 30.4045 10.3252
81.8679 28.4201 10.5491
98.4734 39.5461 15.0901
44.5391 12.558 4.7746
64.5273 24.8361 8.986
63.597 23.9844 10.1566
113.464 37.1958 12.1766
72.4381 30.2963 12.2549
125.767 51.4591 17.501
98.9667 40.6473 18.6772
123.167 42.5525 13.8939
75.2627 36.9382 16.952
358.272 146 56.4465
80.15 28.4762 12.4168
233.597 89.1055 29.6669
97.3311 40.8781 17.0078
151.859 59.8598 21.7268
79.7837 34.7973 13.7532
94.3227 45.6256 20.9561
106.709 47.1933 22.3909
45.9875 15.1864 4.7511
92.9892 36.6162 15.5515
108.027 42.3672 17.3734
103.905 39.9452 15.4496
86.1589 34.6549 14.5711
68.9276 32.225 15.5088
106.375 46.8719 21.8827
78.4078 35.8895 16.913
38.1435 18.6222 10.4691
89.2953 50.5429 30.2777
249.643 93.5371 31.7024
88.2516 47.6097 26.4514
171.221 64.3942 25.0495
128.738 71.6375 42.9269
191.722 69.9741 24.2611
110.809 56.1362 29.2422
90.6681 37.0936 13.3804
52.6406 29.4203 15.6049
97.5085 40.1866 17.0525
92.0941 41.3776 17.916
78.0334 38.1094 19.1055
43.3998 15.8052 6.47374
86.0655 44.0346 20.2501
34.5509 16.2966 8.92132
68.4693 32.6362 17.4882
54.3249 24.0209 11.2001
56.9557 25.5072 11.937
78.8956 39.8487 18.5977
49.5737 24.1627 13.797
65.8851 29.9397 14.5202
77.7233 39.0813 19.8383
91.7718 50.6077 25.766
52.7531 25.0371 13.1409
74.3439 38.326 19.728
39.3866 18.3068 8.43093
40.9883 24.1498 14.4936
83.4461 42.7299 22.6057
56.6215 25.6488 13.4711
82.8028 42.5627 22.3483
113.074 61.5219 31.2677
99.9461 54.0735 29.5823
36.483 19.6266 12.1753
64.3308 34.7303 20.1655
79.9944 40.7971 20.341
53.7318 27.6359 14.7395
43.4565 21.9761 12.9361
72.4339 38.7919 22.8033
64.3293 27.6967 12.0839
71.4061 41.2269 25.2468
56.3997 26.2281 12.5808
76.3521 42.8642 25.5165
48.0376 24.8504 12.4839
72.0294 42.9686 26.4974
74.5766 35.0878 17.0236
81.9918 45.7554 27.6916
33.3707 23.6163 16.9104
93.1466 43.334 20.9278
45.4842 23.0978 11.4078
53.8098 35.7498 22.2989
68.7105 47.8658 31.0452
22.7834 18.3731 16.5084
82.8436 39.8374 21.6041
76.5553 36.3176 17.3646
59.1827 39.0456 24.4471
38.4376 19.3638 13.6707
91.5474 53.7595 31.5073
44.6792 30.5046 19.4602
36.2578 20.0532 12.8886
45.2831 28.3682 20.1015
52.3411 31.3505 18.2294
36.0274 19.8447 11.2108
35.5999 25.3528 15.3176
42.2132 33.5391 25.2666
41.6855 27.1592 18.6243
106.878 58.9782 33.069
54.069 37.4453 23.7373
33.0087 22.7863 17.5709
67.076 38.1923 24.4113
63.1706 41.5375 27.549
56.9356 43.4899 31.8271
70.7943 40.445 26.2742
39.9293 24.2788 18.4868
60.9936 36.9587 20.1566
67.3791 41.5364 25.0741
36.7621 22.5237 15.5739
105.557 77.6331 52.5923
55.0068 34.8275 26.7796
72.0082 39.8266 21.5184
74.2504 48.3756 31.5616
27.305 19.8312 14.9554
55.514 41.8994 30.1819
46.1003 30.8189 22.8206
48.0248 39.1487 29.6304
52.6795 31.5435 20.457
56.1212 39.4344 30.2026
56.772 33.3979 21.5551
69.2064 43.9413 28.3395
32.8899 26.3072 20.0168
59.1307 41.5215 30.3252
72.2243 48.9466 38.2726
61.3305 36.0908 20.9224
62.7455 44.4312 29.7649
61.7775 50.5662 36.7863
59.3117 39.7199 25.4654
51.9661 46.3821 36.4275
78.9736 59.5849 43.7109
44.5661 34.7341 28.1133
48.7835 32.4642 23.6013
111.747 84.0724 60.743
81.8584 78.4634 76.6938
265.187 186.341 132.892
261.352 199.133 159.751
247.606 175.168 123.133
159.758 136.279 106.781
184.449 128.448 97.5924
85.958 58.1221 41.7843
33.98 22.9752 20.7499
66.5635 49.0332 35.4933
63.2027 52.2723 44.7622
81.8437 59.6589 42.2661
28.9181 22.853 19.7631
41.5802 30.5473 20.1724
16.725 19.8312 21.1122
44.5084 35.9675 31.0386
35.4135 24.7148 16.8586
29.8456 25.5698 21.196
39.5971 30.1029 24.2559
42.1064 27.1006 19.9077
22.5096 14.4672 10.5248
42.8405 36.2196 30.918
25.5253 20.8707 18.4165
35.1362 25.1254 18.8595
34.216 30.6728 33.2374
70.5806 49.7467 29.5374
31.6096 28.9164 25.1923
51.0234 54.4541 51.5137
48.0718 32.349 25.0241
44.0531 32.4479 25.3012
34.6719 28.9214 26.554
53.568 43.5898 31.2202
60.0984 57.6315 49.7203
82.0014 73.7633 66.2776
51.8324 43.7022 43.1782
37.5319 30.6021 28.3744
44.088 32.5902 29.8004
29.7995 26.1498 26.244
31.9719 28.6727 27.1967
30.7498 28.4052 29.5899
32.6615 21.4072 18.4845
58.8807 51.0523 46.066
43.7193 33.7574 26.0977
55.2076 64.783 72.9299
59.4199 40.0995 41.1239
173.23 134.361 90.8466
58.1935 80.3872 99.9572
82.4951 58.9592 39.5111
47.6683 51.3294 66.7733
194.777 144.742 89.1723
65.4309 76.7335 79.4886
102.065 85.8743 73.0762
73.2626 71.9327 60.7658
42.5284 47.2863 47.0847
27.8829 30.464 29.7942
26.6609 33.461 40.9502
38.5619 37.2537 37.3405
71.121 70.0966 64.4278
59.0367 64.264 62.5177
34.349 29.7011 30.6111
22.726 19.5419 21.9981
51.2788 49.4532 46.3795
55.6682 48.5407 42.1783
46.8279 44.4092 39.9684
35.3549 39.9457 46.8436
41.8686 30.0154 25.3548
53.5375 54.7712 54.7883
65.4186 66.9122 64.1048
54.3821 48.1493 43.3041
35.3995 34.9144 35.3396
43.5195 49.2825 57.5761
50.1323 47.368 43.0896
53.0238 58.6113 61.5397
29.0338 25.728 27.5589
29.3371 27.981 27.8586
25.2074 23.1905 26.9587
57.8784 57.8629 54.4251
35.0856 38.2926 38.6423
43.6359 48.9873 53.0452
23.9954 26.6879 39.1018
72.9643 60.9988 49.6205
61.6873 76.7679 93.0496
49.8172 41.3717 41.1229
36.3438 32.2981 24.1993
35.1785 42.6823 47.1995
27.1953 25.839 21.703
42.4835 52.3886 60.6384
45.7499 51.0658 55.9971
61.1336 59.0208 57.4835
28.3061 27.2249 26.5952
28.0909 32.3916 37.7239
42.9729 41.6626 42.9454
56.6368 63.1956 67.9865
37.7019 37.6804 33.1374
33.9581 45.9851 58.7055
27.7087 28.9777 42.8853
48.8848 52.9119 62.2425
41.0854 39.3647 43.8748
63.1196 65.3751 58.3489
22.6013 27.9654 37.5474
44.8431 52.998 55.3555
42.2191 50.7443 55.8019
31.6712 41.3931 47.323
21.6508 27.6245 45.4019
46.2785 41.2239 39.6062
22.9794 23.5596 29.5249
41.4365 42.8728 47.2389
41.8293 42.6172 48.5466
46.8079 46.9637 49.0762
42.8848 40.5892 33.7644
27.7709 33.9035 42.199
52.8006 62.914 64.8555
45.557 59.9269 72.032
31.5509 36.7919 43.7502
18.8788 20.1599 31.8212
52.4231 50.4681 48.0848
46.2949 60.4059 71.3142
29.4815 32.6376 40.5397
37.9401 46.1562 57.7368
21.5709 24.6044 36.6165
40.5552 39.8978 38.8317
15.2561 18.4136 24.9525
40.3946 56.0559 72.7548
33.3631 35.4026 41.6598
22.4495 28.7402 38.2365
31.7554 39.4313 51.411
32.1306 40.4795 49.729
33.5072 33.1567 43.7151
42.0127 56.9463 61.2218
25.37 33.1074 45.0687
30.5699 41.4206 50.84
28.9625 42.8987 61.6985
28.2861 31.5521 41.3647
31.0686 42.9367 53.9816
39.2934 44.9457 46.8572
16.5872 24.9578 34.5908
22.0519 21.2028 27.0826
22.7251 23.381 28.818
23.7007 31.2693 41.8665
16.5755 20.7722 25.9362
24.7009 31.5953 46.605
38.7908 42.1437 45.498
26.0346 30.9841 31.1321
27.3055 42.8185 55.0041
22.8414 35.0271 51.9878
50.5728 60.7185 68.8844
34.6241 51.6442 70.9593
31.3258 40.2891 58.5445
23.4797 25.5165 34.716
28.4834 35.6122 44.3045
19.6399 29.622 46.3656
42.214 53.7401 66.0409
26.0263 33.6773 46.9488
36.8981 41.5975 43.1704
21.7929 37.6507 55.6974
23.8323 25.5688 31.3042
24.7397 29.8706 37.4951
18.9399 29.6463 42.6275
24.49 39.6396 70.3453
33.9369 30.655 23.5545
35.0973 53.046 70.3602
23.8811 32.2905 45.3688
22.3396 29.3265 42.3721
27.427 30.9527 34.6849
8.48834 17.3453 41.634
35.689 42.6456 53.2363
24.7524 32.0611 44.6542
31.7253 46.6532 55.0766
21.6708 27.0611 37.7645
47.8337 73.7491 89.6783
21.2571 33.0056 57.771
33.4465 43.798 51.9759
28.5612 32.8223 41.4817
38.6175 67.3273 93.8461
31.5249 48.1439 84.8854
36.7077 42.505 57.5012
27.6293 36.3458 44.3977
11.7618 24.6781 57.9474
43.8601 50.5581 66.1015
41.2151 48.6932 51.9308
19.2417 31.9148 51.8285
31.9855 48.6542 74.9374
29.9123 40.9516 50.9809
16.4719 24.1488 46.99
45.7937 65.1266 76.5326
19.0652 24.7849 40.7751
35.7886 54.6271 68.7775
27.101 47.1469 83.1336
31.2362 39.3718 45.2525
23.1376 44.5284 76.5295
26.1271 28.5749 44.7204
37.4444 65.9443 96.2181
27.2253 32.1048 54.4869
38.7188 50.0861 57.4375
18.9799 26.9755 37.5633
19.0482 37.9478 67.8609
25.167 26.566 43.6641
32.2105 52.7747 88.4439
34.2562 41.0062 52.0062
43.7401 66.4421 89.2819
29.0324 39.452 59.7131
18.7766 24.791 37.2922
19.5183 33.076 57.4604
26.1344 38.5755 50.2729
17.6734 24.0465 32.011
19.471 33.1039 53.6407
21.2587 28.4545 46.1814
26.6165 43.7658 66.0995
24.8332 38.3836 63.7283
35.7626 63.0195 106.113
14.5466 15.2475 34.403
19.5888 28.9708 55.3649
22.8415 27.1166 41.9321
35.9308 46.7193 57.4851
23.5875 42.1179 64.6754
36.8229 74.2815 132.291
41.752 44.9113 54.286
23.4083 50.6131 97.7118
35.1821 46.303 54.6446
8.6809 26.2083 62.8576
28.2639 37.1107 52.6176
22.576 30.7669 50.1012
17.6249 32.4337 69.4796
30.439 37.695 48.5601
17.0363 24.5285 31.4601
11.8127 27.787 61.5566
25.9214 47.1893 98.1047
32.9221 34.8165 49.1489
31.6725 52.6362 84.5087
41.902 58.23 80.8391
31.7144 52.2882 75.6734
21.7213 30.8733 48.3587
34.3889 57.6627 85.9833
23.1423 36.0879 58.586
17.1356 23.4417 34.9262
22.4271 46.5881 70.2258
25.3975 41.802 63.4893
16.8375 34.4083 72.0118
28.7747 45.9368 80.427
27.7201 45.4888 69.5869
29.0301 52.8098 81.0978
24.5887 49.627 89.2492
19.1624 45.4412 99.2925
24.2087 25.171 49.9677
30.703 34.0279 39.4128
28.3131 48.6339 70.9549
25.0788 46.9774 68.8517
13.9377 36.1322 74.1671
16.5668 28.2367 55.6751
14.9843 18.3192 27.4386
17.0682 34.7401 65.0412
24.2353 40.6213 71.9802
17.9657 31.1608 60.5153
17.0139 33.4502 68.554
12.6664 25.2435 65.0898
26.3165 33.9177 53.8781
20.819 31.1667 50.8533
28.9083 47.757 64.4929
13.7626 30.6278 68.5157
24.2822 35.1825 50.7608
11.0234 19.6071 47.2414
30.9672 46.6792 59.4804
16.7146 36.1633 67.5219
17.562 43.8259 106.043
26.4574 33.8679 57.4755
20.4241 43.0262 99.5223
37.603 55.4907 84.6809
27.0199 49.9146 72.7038
22.7583 44.0366 65.0331
6.85421 17.1313 53.2878
34.3228 69.3815 139.822
31.7757 51.0761 70.7162
26.355 61.0625 126.427
37.4836 70.2725 117.625
18.0741 30.9637 48.9321
10.523 24.2587 47.6362
14.7977 22.2806 42.2888
21.0422 37.2171 57.2226
13.9741 27.4285 47.4296
9.62342 17.8109 46.9388
19.0828 28.632 39.6308
12.9242 28.5644 54.6036
11.2336 27.8312 55.5777
22.6144 42.298 92.0074
20.491 30.9398 54.6478
15.091 25.7753 62.1573
35.4466 60.9731 90.145
10.7287 24.4144 61.4145
22.965 50.963 117.174
30.4356 45.9175 77.3306
21.4808 32.6533 49.7926
22.6016 49.2423 102.026
32.8419 53.0929 82.8208
8.97355 14.0395 29.3199
10.1603 21.3209 48.8014
15.9862 26.5964 46.6258
15.7108 32.1719 61.7874
22.9679 48.9597 91.9004
14.6843 27.9177 50.5663
11.3851 25.9405 56.5751
14.3346 17.6761 30.3192
10.0412 18.5264 45.173
20.1574 45.3828 74.7902
16.8314 29.9725 56.415
11.0603 26.0332 65.5295
13.2058 21.4839 49.246
19.4251 41.1635 93.5489
18.0449 22.5951 48.2349
24.1246 51.9059 95.8885
19.9087 31.4866 58.5516
9.99267 22.0611 54.4276
16.5309 27.0078 43.9936
17.2589 32.5393 46.7695
12.0538 31.8091 71.7689
9.81005 18.3948 55.3387
14.5314 27.8995 59.6754
20.4086 37.5324 74.1124
18.4993 39.8744 77.1291
17.1316 27.4084 49.851
15.0475 32.8686 62.2413
14.103 25.2022 52.8218
11.7905 22.9257 37.4381
7.42846 15.0125 29.4344
13.4984 34.6302 70.4375
13.7578 33.161 90.5158
17.4286 30.2741 79.1155
27.4456 43.9966 71.8507
16.9529 35.4268 67.1
19.0119 45.9342 92.183
21.173 43.0851 75.5631
16.6477 42.4913 86.7533
11.764 24.1229 71.5906
22.6429 50.8375 105.692
25.6337 59.1667 130.776
34.0086 71.8098 126.003
14.3286 30.6092 80.531
19.5306 33.0087 67.4647
14.8068 43.215 125.228
30.0456 42.875 82.6882
20.1022 38.8544 76.7818
20.4962 35.2719 52.5928
14.5487 38.3193 88.8163
19.0193 33.2795 60.7756
11.5233 25.0509 48.6633
17.4406 63.0123 169.894
29.5969 49.3584 75.9117
12.4898 29.1776 84.5491
22.4804 35.0283 50.8329
13.9045 41.0076 104.881
25.7807 56.8428 93.3573
9.57508 33.1718 103.471
29.3309 53.4619 95.7631
10.887 21.7213 58.3484
14.1076 24.4031 46.7314
12.1117 23.4543 55.9816
15.1432 31.822 61.3
8.07968 14.1197 45.0493
22.1454 43.4022 84.2288
14.8957 34.2671 66.6672
12.2173 31.8512 82.7884
17.1801 40.5297 99.1879
21.6591 48.8188 92.4438
12.8563 35.6824 77.3528
12.3847 27.3963 70.2343
9.71518 18.1525 43.2768
9.10561 24.8257 69.6587
11.1037 18.6813 48.7764
9.91236 26.5575 75.3455
16.9605 34.3427 79.9657
16.7353 31.9624 78.3585
19.493 39.5327 76.9033
11.5837 19.8746 48.0191
12.9177 23.1246 38.4528
14.8868 31.458 44.6995
10.256 31.3872 52.3811
5.57506 25.8578 108.079
23.1725 39.1825 56.9937
10.263 26.3916 76.2895
16.8814 24.9901 48.0769
10.2638 19.8508 47.5048
17.1109 40.9232 62.439
16.2226 43.6978 90.2819
8.9378 23.506 68.3653
17.743 38.5145 73.2489
10.0104 32.1973 90.1874
11.2746 17.6653 44.2203
14.3723 35.8408 84.8011
20.3771 53.9882 124.75
20.6248 48.9614 107.155
12.162 30.6706 78.7426
16.1387 34.4941 85.4977
17.1567 49.1488 118.866
16.6652 32.531 73.9018
15.0115 46.0309 141.375
24.3939 56.3005 115.79
17.1549 29.4613 57.6284
15.3584 35.76 76.0971
10.707 24.6563 59.9075
9.07788 25.2482 74.8472
16.4354 38.2112 92.6385
11.773 27.2334 59.7293
12.4192 27.4505 69.9538
11.5881 23.6813 33.8968
8.68976 32.5125 93.2149
10.8463 19.1876 46.5822
9.66233 30.8367 95.7731
16.4621 32.3937 71.843
9.28829 11.8686 25.3808
10.0775 34.683 106.2
19.8507 30.9996 53.4095
11.5126 32.9248 84.5165
20.9571 58.3042 126.221
11.8869 33.456 101.56
15.1292 34.0713 89.3947
14.3246 31.2246 88.4198
22.5465 57.4443 89.6844
14.1068 57.1118 196.364
28.0679 40.3677 48.0464
14.3273 56.5811 151.907
