# pn-170911/RbIIR-43-WTZR-1280-1959.psd
# Power spectrum* (dif=0,1,2) (really just |FT|^2)
# NOTE: only the first half! (symmetric)
# weeks: 1280-1959
# 13 clock-days, 6 excluded
# PSD: 1441
956.391 0.0378598 0.015076
31286.8 0.631963 0.061473
133857 2.51682 0.0628603
11797 0.27113 0.0609189
64416.7 4.07918 0.0649198
4344.82 0.518314 0.0576904
6756.4 1.0562 0.0561229
5005.04 0.797408 0.0541972
4913.18 1.36827 0.0567887
848.278 0.294842 0.0508925
2210.05 0.586594 0.0479018
1043.96 0.452814 0.0455235
1530.81 0.980568 0.0364928
1207.88 0.653172 0.0455575
1231.85 1.14804 0.0389034
961.062 0.708597 0.0410942
2044.92 2.57417 0.0305248
295.106 0.502112 0.0336359
1178.94 1.41344 0.0401096
739.807 0.955182 0.0355501
658.035 1.28534 0.03745
615.71 1.20465 0.0279955
1037.68 1.91375 0.0413124
1008.21 2.00377 0.0337865
786.987 1.98643 0.0254261
1112.21 2.71905 0.032881
1103.73 3.33162 0.0268324
485.16 1.68686 0.0317417
735.037 2.55303 0.0154768
414.906 1.80744 0.0337897
1472.09 5.16308 0.0401904
698.093 2.87329 0.0413094
1188.45 4.82752 0.0402702
606.671 3.83867 0.039523
1264.41 7.27182 0.100349
490.842 3.06459 0.0431675
581.075 4.17869 0.0614357
1392.08 7.88067 0.072018
733.461 5.30366 0.0718225
594.798 3.88082 0.0615526
525.043 3.57441 0.0335957
524.111 4.19571 0.0745265
1022.48 8.20306 0.0789635
580.677 5.47595 0.0770811
755.557 6.43329 0.0563458
735.436 5.65668 0.0915155
668.283 6.88858 0.067303
527.701 5.40923 0.0796834
511.865 6.13497 0.0800795
788.708 8.03438 0.144284
581.664 7.27793 0.110421
438.701 5.70246 0.085385
776.308 8.91613 0.148384
599.342 8.50339 0.119797
896.407 11.0233 0.193555
789.082 11.1758 0.168539
439.594 7.1286 0.169517
973.236 13.2418 0.204778
436.347 6.83445 0.167366
664.755 10.3114 0.225185
487.998 8.41456 0.178396
420.561 6.67794 0.127837
407.313 7.01928 0.142682
328.815 6.04029 0.129317
249.353 4.74527 0.106553
513.748 10.589 0.220871
396.154 7.61624 0.186068
202.54 4.50246 0.139582
224.791 5.31985 0.17075
260.081 5.50352 0.17241
361.945 6.90307 0.178268
518.409 12.4461 0.335489
798.613 18.4107 0.431523
388.093 9.83887 0.273127
507.551 12.7834 0.359077
357.048 10.2791 0.268507
266.665 7.04543 0.277734
390.752 10.1573 0.304767
226.789 6.02783 0.213395
442.878 11.498 0.316666
390.114 12.1676 0.368511
527.621 15.5703 0.475175
294.776 9.73507 0.327644
307.875 8.42828 0.286822
387.765 11.5408 0.474994
251.83 8.38677 0.305643
258.712 8.56968 0.223731
368.751 13.5505 0.544406
226.477 8.706 0.348459
202.857 7.14551 0.283197
224.957 8.45617 0.333064
397.916 14.6765 0.588105
177.026 6.4548 0.387179
250.711 11.3486 0.604253
273.447 10.718 0.404137
304.06 12.9222 0.576443
405.156 17.2613 0.899083
303.736 13.0795 0.587114
178.075 7.59602 0.422509
235.603 11.0448 0.59017
288.662 12.7882 0.612488
264.373 12.3836 0.670829
213.702 10.0162 0.651149
188.786 9.61056 0.480693
251.855 12.8506 0.681753
172.625 8.97822 0.482067
173.5 8.77431 0.537824
258.645 12.6184 0.791755
292.401 17.6376 1.12523
343.449 17.9664 0.981486
296.786 16.4902 0.874987
308.905 17.6876 1.09877
94.8095 5.57785 0.30894
90.7859 5.44783 0.431301
186.557 11.0488 0.713392
229.79 14.5917 0.970396
190.006 12.5392 0.78331
176.495 11.3781 0.760411
153.428 9.16083 0.57215
194.657 12.2853 0.952525
164.502 10.9651 0.743415
320.44 20.9547 1.45396
143.435 10.9037 0.779433
196.8 13.6684 0.97425
135.974 10.3201 0.804602
170.435 11.6215 0.914199
110.688 8.30768 0.663985
103.692 7.37363 0.574685
109.816 8.90548 0.824938
121.888 8.35346 0.708919
217.467 15.7299 1.36285
139.121 12.182 1.01715
119.481 9.48224 0.807234
87.4281 8.57258 0.778255
200.809 17.3571 1.50434
129.128 10.1791 0.829548
184.624 16.0603 1.35424
95.8367 7.45349 0.685913
172.823 14.4707 1.25554
125.388 11.0537 1.06393
80.4229 8.69033 0.854508
146.838 13.4597 1.23554
122.662 10.1991 0.93598
116.032 11.2863 1.12498
141.981 14.7412 1.44606
143.907 13.8425 1.35775
96.1262 9.68639 1.00896
119.223 11.6595 1.09412
130.397 13.6537 1.50588
151.898 15.9211 1.71775
103.74 11.5784 1.35704
138.674 14.1934 1.46524
168.337 18.1802 2.00304
167.37 18.2164 2.13865
106.585 13.9461 1.71013
196.203 21.6256 2.57427
82.5168 8.91287 1.09116
116.379 13.428 1.62353
85.5702 9.6072 1.09393
138.706 14.3539 1.64392
127.926 15.2039 1.79501
130.962 15.6071 1.81683
122.42 15.2071 1.86384
88.1223 10.4192 1.27695
162.607 20.9711 2.75391
102.805 13.1617 1.76924
106.348 14.0539 1.8889
165.507 20.2138 2.61496
146.163 19.8558 2.7469
111.588 15.5749 2.24315
171.099 23.3754 3.19107
127.698 16.1216 2.19038
114.535 14.6165 2.29783
87.2233 10.6513 1.28281
81.6011 12.6065 2.051
71.7907 9.22998 1.37369
75.6368 11.2606 1.83199
93.9628 14.2345 2.37048
104.093 15.2165 2.32038
98.0278 12.7873 1.72316
87.8222 14.0132 1.95932
103.647 14.6033 2.30418
78.0142 12.4862 2.02475
77.7807 12.2942 1.95022
95.0471 14.475 2.25174
99.756 14.7098 2.20773
133.196 22.218 3.68443
89.6072 14.0244 2.43845
115.524 16.2799 2.5634
91.2546 16.1547 2.8647
99.6665 16.3979 2.84082
96.5617 15.2225 2.68872
168.853 29.6128 4.82213
116.357 19.4386 3.35456
82.1277 14.1644 2.36618
95.7675 17.1015 2.98387
104.647 18.1393 3.25668
71.9851 13.3635 2.65146
139.828 26.5936 5.3191
59.6085 11.5357 2.30173
84.4864 15.9898 3.21406
63.5961 13.1088 2.69079
108.343 20.1653 3.72563
136.058 24.3919 4.39301
81.2573 15.0944 2.88473
51.5252 9.01802 1.66169
75.5139 15.8614 3.44745
57.3811 12.2763 2.64406
82.9425 13.6113 2.59223
53.7847 12.488 3.03048
136.341 26.2176 5.65307
98.0613 18.8886 3.45491
51.8921 10.0843 2.08023
122.235 26.2983 5.70748
82.0809 18.8261 4.04786
73.6251 16.8263 3.68066
101.212 23.9538 5.30346
81.3208 15.1567 3.00352
97.5806 21.6592 4.7265
46.0267 9.16698 1.98567
109.542 24.0067 5.6711
76.487 16.8537 3.8254
138.486 31.3527 7.04391
74.4206 17.2047 3.87666
83.8037 19.908 4.40092
61.4958 13.4162 2.94334
93.3624 23.2896 6.19744
74.7271 16.895 3.85806
81.3547 20.1755 4.76853
70.6916 17.6265 4.56739
86.8032 19.2085 4.26009
50.6547 10.3963 2.58142
133.54 31.2366 7.62353
85.2364 22.4767 5.63912
64.4647 14.3699 3.45919
82.6764 21.6995 5.62529
41.4661 12.0092 3.38448
58.747 14.6958 3.85121
83.6932 23.5274 6.35313
100.605 23.8334 6.2687
58.8464 13.9114 3.57999
66.1081 17.9926 4.7745
51.8446 14.2522 4.15777
62.8049 16.816 4.51812
67.8672 18.4157 5.14054
53.4479 15.4872 4.55422
45.8728 13.3981 3.63563
51.9638 13.6211 3.72834
58.603 15.0578 4.3994
65.03 18.614 4.71766
32.16 10.8483 3.7395
103.645 26.1043 7.00491
49.2618 17.1277 5.44561
50.3222 13.3952 3.90142
44.2641 12.676 3.90361
55.6252 16.5064 5.05847
59.9496 18.8574 5.93814
66.3728 19.2017 5.68286
97.054 28.8953 8.54616
47.7749 15.4949 5.06279
34.3019 11.0031 3.54941
49.6515 16.8338 5.77621
97.6039 30.881 10.0831
69.4268 20.8535 6.65785
73.7761 23.374 7.39531
64.9384 19.0507 6.17907
56.5932 21.2391 7.29964
36.8931 13.1174 5.14678
52.1583 16.2887 5.70523
65.4401 21.066 6.46714
54.4895 18.7214 6.91748
64.0195 20.021 6.73232
49.7402 16.6601 5.92864
47.6272 15.0781 4.89178
68.5755 23.1976 8.2791
92.847 31.6948 11.2918
53.1393 15.4868 4.32897
43.2417 15.7843 5.36468
37.4444 13.222 4.50833
48.1536 19.2548 7.67143
65.4198 24.5585 9.84683
42.47 14.0215 4.74403
48.2206 18.4302 6.61669
36.1754 12.7633 5.23964
39.0848 15.1015 5.47956
52.4109 16.1322 5.69299
53.2386 21.5411 8.26202
64.8988 26.3342 10.8877
88.6219 34.4066 14.1195
75.6378 25.4027 8.43574
47.5025 18.8405 7.05589
38.617 15.8417 7.1603
68.8997 25.3676 9.28022
76.7754 29.4697 10.7387
64.3764 25.8728 10.6639
55.6354 20.4824 7.37548
62.3931 27.2312 10.6751
52.5702 25.3894 12.4401
72.5723 24.824 8.76797
43.3607 19.1504 8.64231
49.1579 18.2375 8.04094
56.294 20.2676 6.71658
64.2701 26.7256 11.408
35.0205 13.9457 6.01482
40.5373 17.0639 7.96458
71.6146 31.9262 14.5268
40.0008 13.3931 4.75614
51.0681 23.5423 11.0714
72.4664 31.3584 12.9078
30.1591 15.3211 7.38185
41.5201 17.987 8.52419
78.5122 34.2177 13.7709
41.0617 17.7087 7.92709
40.6688 20.7069 9.67263
76.5653 32.4353 13.4065
43.1782 21.4248 11.3592
55.7354 22.5488 9.4197
63.4365 29.2765 12.5556
80.2957 36.0451 16.3256
49.6977 25.5765 13.1346
44.6353 17.1322 6.6921
65.9505 32.7409 16.3316
48.6124 22.1267 10.1834
46.9633 24.2166 11.0671
33.8485 16.8312 7.71685
52.9965 27.8754 14.0629
43.0442 21.3329 11.2003
57.0322 23.6932 10.5191
40.4579 19.0099 8.49655
20.9024 12.0923 7.47932
41.4302 20.226 9.62561
43.2602 23.3728 11.7124
53.1493 28.0582 14.3595
42.4029 20.428 10.7015
57.9387 23.8148 9.34663
56.8092 31.817 16.7296
40.7592 19.049 9.50016
38.2994 22.5359 11.9732
38.386 22.0472 12.5001
51.9492 23.0785 10.5038
32.7503 16.6818 8.30007
44.7568 24.4631 12.7659
29.5561 17.0093 10.53
68.0135 34.1609 17.1888
33.1416 16.3044 8.81415
29.8573 17.2667 9.99048
50.4132 30.7626 18.3893
56.1193 27.3868 13.3686
26.3895 17.3819 10.5951
37.9111 21.531 12.1999
32.7133 13.4556 7.17863
43.45 23.7298 12.1914
48.0188 27.711 16.7104
44.8994 24.991 14.9973
45.0941 25.184 14.1478
43.8067 22.2693 11.3478
41.4064 25.5644 15.5389
25.8312 13.5892 8.90515
58.7178 33.5169 18.7053
49.8654 28.4685 16.0495
48.2564 27.2866 15.0397
44.066 26.9607 16.1982
34.0125 19.1638 12.4103
43.95 23.0896 12.1692
44.3049 25.5262 13.33
37.6884 22.9522 13.3912
16.9617 11.4059 7.51119
39.6659 27.0565 17.8479
27.1139 16.3236 10.7194
45.2496 28.7942 17.0612
27.894 16.442 10.723
31.3296 18.7875 10.9597
20.5673 12.2239 8.47
53.643 34.9213 22.2882
45.9481 27.6298 16.4792
45.9169 33.3789 22.1392
40.5789 24.5378 14.9169
32.7273 23.3083 15.7848
28.8376 15.9767 9.80546
35.526 23.293 15.525
34.8381 24.9158 18.7756
52.1293 32.29 20.3455
26.4362 17.0881 11.8057
42.272 26.2862 17.1681
88.7774 63.0483 41.0427
48.9622 26.2456 14.0318
34.9615 24.1525 17.4451
38.625 22.7081 13.1396
47.5131 32.1192 21.6267
41.2633 28.7418 19.9161
28.6804 20.2223 14.4895
34.1273 23.9624 16.6389
34.9146 22.602 15.1933
23.5668 13.387 8.9032
21.5562 13.8024 9.65918
58.6672 40.6413 25.9159
30.1375 21.8982 17.1096
49.249 30.8963 19.2593
33.9023 28.0257 21.6923
43.9336 31.1897 21.6306
37.8241 28.2901 22.5877
35.6385 22.9254 14.5473
19.8302 16.8387 15.2792
43.6184 27.0499 15.2565
51.2419 41.978 32.0192
41.8401 29.172 21.9423
26.1799 20.9238 17.2261
43.0618 35.0095 29.0767
34.711 22.0589 14.2187
31.1057 19.3338 11.8414
13.3486 13.1019 12.2255
35.685 28.3083 23.9929
41.672 27.991 19.826
45.2493 38.2959 30.1434
39.7377 26.6076 18.3829
26.664 21.2012 18.3727
34.909 25.4357 18.6473
31.573 20.0868 13.223
31.6924 23.654 16.9552
21.5242 18.4659 17.4644
35.9804 26.4846 20.3753
43.5694 33.4063 22.5669
23.5127 21.3851 17.9252
17.6677 16.2221 15.7713
27.3071 18.9124 13.9641
21.6643 15.2891 11.5577
26.6306 19.4006 13.6966
22.3334 16.0707 10.8304
21.9367 23.6335 21.842
31.4352 25.0571 20.6338
32.5385 24.0625 18.4172
27.6336 26.8311 24.8774
28.6584 21.7297 17.7498
21.655 20.5903 21.0198
43.4279 34.1576 29.3542
37.8204 26.1689 19.9066
27.345 21.87 17.981
24.3089 19.9502 20.4013
66.1477 46.5436 30.288
38.2059 34.3691 29.027
39.0769 36.2201 33.088
48.6111 38.0517 29.6594
17.3844 13.6099 11.0666
25.7714 26.137 24.5832
36.3255 31.513 27.9242
22.7839 17.2245 14.4632
20.895 20.2451 19.4014
29.7577 26.4122 24.9423
37.5742 29.3174 23.2547
34.0959 26.7523 19.9989
25.0668 20.8278 16.2354
22.9623 24.0419 22.55
24.258 23.3931 22.0613
19.7557 22.5722 26.1744
31.1 29.9713 32.1904
39.5592 26.8548 19.6761
25.1134 24.3659 23.1259
13.6695 10.6599 12.4096
31.0133 26.0659 20.7577
26.4324 23.4026 20.3762
21.3986 16.7068 12.7092
10.6003 11.4172 12.5813
33.0771 34.804 33.125
27.9216 26.9274 26.8175
23.5759 20.075 18.7484
21.4712 18.845 17.8704
24.8889 21.1204 17.2867
25.7603 25.1747 22.534
15.2356 17.0421 18.7989
17.1824 17.3487 19.7001
27.6676 23.645 18.9687
22.6259 25.7503 26.9482
35.1442 34.3069 33.6325
28.2067 23.5605 22.3791
26.3732 23.5697 19.8329
17.6666 16.4867 14.5185
19.5386 21.2364 21.4531
17.1043 19.8872 23.5654
33.4649 29.7957 25.3564
23.7678 24.628 24.9516
38.5543 42.7776 44.3577
26.6703 22.3284 21.3264
25.4697 27.4521 28.445
13.8231 11.5855 11.8892
14.9655 13.5753 14.75
14.1638 15.7931 18.6857
15.781 12.4548 11.2598
15.2587 14.1716 11.9456
20.4709 25.0375 27.3201
19.5321 20.8713 22.3581
21.8761 20.7467 21.2109
24.6359 21.8972 18.6427
27.3298 32.1415 32.2224
13.0224 18.3957 24.7289
27.8612 26.2393 25.1362
18.9766 19.2603 19.5458
20.3694 21.3325 20.0891
16.2385 22.2991 26.7519
15.74 17.1262 19.5877
16.1191 16.7712 20.6053
20.4914 18.0152 19.1281
19.2991 20.3713 22.3545
20.6653 17.126 16.9101
25.5403 22.6175 18.9139
19.8182 26.9257 33.4658
23.3339 20.3602 19.507
19.4355 20.5922 21.2637
30.4895 40.4976 52.8294
34.7344 33.867 31.8484
28.0417 35.5374 40.0803
21.6603 23.8507 30.1421
21.5327 17.4332 17.4362
23.509 25.3707 27.7449
25.45 26.2199 28.3304
22.3971 22.1768 23.576
31.9728 36.5373 39.451
18.2924 21.1778 24.2119
17.1042 24.0524 32.2413
20.8856 24.3797 28.9084
18.0187 16.4338 18.2607
23.4037 25.5025 28.5629
19.6014 21.2424 24.6837
20.2188 24.0168 31.0468
25.7682 28.5124 29.0672
20.9984 26.8739 28.9282
10.2815 11.9372 16.2051
13.0565 14.9968 20.0969
24.0928 29.3248 35.0889
21.1106 22.2906 23.9658
14.5956 18.8652 24.4027
20.1924 21.8066 22.8005
14.2203 20.7939 27.5599
17.2248 22.2165 28.5051
20.9363 29.2739 42.0566
22.9379 20.0737 24.5622
26.2958 25.761 21.8252
18.1255 22.5001 25.6828
17.4975 22.0932 29.5577
24.7199 31.9408 38.9337
18.3883 19.5632 23.0051
21.1462 29.4621 38.6068
15.5941 17.0996 20.881
20.0957 26.2228 36.2655
25.5716 30.1001 35.9813
15.3806 15.7128 16.4281
13.022 18.3097 26.1694
16.0293 18.8122 22.4317
18.7534 24.4902 32.3303
20.9217 22.0547 25.338
21.8727 27.3353 30.2291
21.0621 30.9963 43.3753
18.1972 21.0843 28.4177
24.3267 29.6754 37.0405
16.4309 20.3972 27.5965
19.4153 21.9379 22.7755
15.7612 25.3467 34.7069
14.414 18.2172 27.473
18.3059 23.2165 26.8003
10.1285 11.9863 18.155
14.4123 18.302 21.6828
15.1617 22.1463 30.8482
11.3398 14.9464 22.9816
16.6861 20.5755 23.4458
17.8395 28.4155 38.5016
16.0918 22.2316 33.636
18.2466 23.7532 31.0956
9.85973 12.2764 19.9083
23.2366 30.799 40.6712
15.6783 20.6773 27.6662
12.7625 17.4038 24.4444
15.4916 17.6756 21.2548
17.3059 24.3688 32.6073
15.0342 20.2785 27.6543
15.2985 21.0197 28.1773
9.83907 17.834 32.9265
15.0158 19.5307 36.0296
37.3386 48.5505 52.378
11.7215 16.3784 24.0894
10.3562 13.2658 18.3924
20.7767 34.355 46.302
11.1594 18.5347 38.1567
21.9943 20.8759 21.5847
9.10795 12.5759 19.8633
11.0321 11.1794 13.4111
16.3419 22.6102 26.3198
15.5261 26.4323 40.6753
17.8896 22.9881 29.1981
14.7181 26.5236 38.8254
10.5963 14.3979 23.0392
11.8416 17.0609 27.8646
13.1853 20.8238 35.227
16.7774 21.5971 28.0342
14.5625 19.6988 27.6722
15.8656 20.4175 26.5871
16.3941 28.5181 44.1317
16.9422 18.1285 19.3005
6.50725 13.2888 27.517
24.3245 35.6872 48.434
13.2917 18.5309 25.5804
8.41059 10.8444 21.0711
13.9427 19.584 30.0628
16.9288 22.5524 31.2143
19.2927 31.5566 44.6252
19.3262 30.0042 43.7415
10.6124 13.1488 21.3476
18.0659 30.5671 47.0321
12.4886 12.2536 14.5367
10.2419 15.9959 25.2528
16.844 24.4739 39.2012
17.4756 23.0602 29.781
10.9557 16.725 26.7497
18.4257 26.4037 35.3589
10.4869 17.3845 28.4281
10.0838 14.9509 22.2945
12.4104 22.6228 36.1619
8.29934 10.2121 17.8984
10.7891 17.525 29.5117
13.6735 19.9659 30.0729
15.8543 27.2075 47.8496
14.7744 17.76 21.5977
15.8321 28.8858 44.7492
9.94439 16.0869 29.0054
12.4251 17.4367 25.0067
11.5303 17.7414 25.2439
6.82217 15.2099 31.9713
10.8038 15.6468 27.9546
15.4123 28.104 47.51
13.3443 15.9392 24.8215
13.172 19.5321 27.2942
13.5698 23.6669 36.9835
19.8958 36.3494 58.2325
11.8985 21.5675 45.3182
19.9161 22.9054 22.3992
10.3152 21.348 38.5692
9.40686 17.4323 34.6314
13.6902 23.3096 37.2167
9.82266 14.3082 28.4916
14.7453 21.8499 33.776
10.2709 12.5188 18.1066
14.0802 25.5565 45.845
13.5345 17.0094 25.7762
16.1726 30.2461 50.768
13.2819 15.5924 20.7664
11.7145 19.811 28.4515
9.13546 19.0919 33.8139
7.54492 13.3892 30.9271
12.825 16.3864 22.6611
12.8276 23.1404 34.7752
7.82045 19.5246 46.6662
16.0218 21.6435 35.2647
15.6791 28.4327 47.2616
12.8109 21.1468 37.0528
10.5801 15.7575 30.5552
18.0511 33.8186 58.2622
14.7221 23.7395 42.6795
11.6186 15.3316 24.2463
14.0264 23.2783 35.6778
10.6687 21.2467 43.208
16.3902 24.7365 39.3058
9.69343 14.7967 23.8489
9.48661 21.5893 47.1236
10.8116 12.405 23.4634
13.5207 17.0287 20.314
12.7676 26.1743 43.9269
13.3805 28.3708 55.3181
12.4019 18.0722 29.964
8.04933 13.3537 24.9996
8.01306 13.3393 29.3853
17.085 27.5584 36.8409
8.89915 19.5279 43.3208
10.779 17.7272 37.2524
12.0636 22.174 56.848
31.295 47.6458 54.7091
11.4061 21.5704 34.1419
7.83312 16.5846 34.1045
12.9282 25.8062 47.3741
11.1974 12.5244 17.9108
11.9708 26.7684 44.6788
9.19019 16.5507 28.4963
7.11111 18.6987 44.791
12.8525 18.1048 32.0146
11.8431 16.998 21.7282
11.4259 27.2649 54.5621
10.6164 17.3939 34.1783
13.1132 22.2999 38.3633
10.5551 21.7973 43.8749
13.6905 18.7739 24.8936
6.48598 14.732 32.9295
10.6658 19.7448 34.9417
10.1105 17.9611 36.6874
12.6777 22.3718 39.9417
13.541 24.7277 43.641
11.2158 19.998 28.9717
5.33134 12.9994 29.5254
9.81654 22.159 41.8747
6.96041 13.017 32.79
14.0201 23.5149 43.7108
12.7669 22.9273 44.4802
12.131 18.0912 24.7743
7.54468 17.4342 34.8933
10.1737 22.4085 51.3665
18.0756 32.0922 52.5953
9.63898 15.5783 29.5866
11.9063 24.3333 41.7022
9.95194 25.3371 50.9057
8.07426 14.1071 35.5815
15.8707 33.6522 74.3494
14.5612 22.9153 43.3974
12.9103 24.9445 46.61
9.56945 18.4659 37.1181
10.4598 15.949 27.6891
10.1232 23.7626 48.472
11.9195 21.2085 36.2327
9.41406 21.5543 46.6014
12.3878 28.0962 56.0106
12.8813 22.4582 41.8199
7.16934 14.6413 36.3734
10.9125 23.2549 53.2071
14.2873 22.4297 34.3282
7.06443 16.3685 39.0318
11.6748 19.121 31.1568
9.12191 19.0834 40.7418
13.2104 23.4196 44.1289
10.2469 19.5924 36.0386
7.79566 17.6772 35.8251
7.65032 15.086 33.2261
8.75197 16.0321 28.2619
7.06599 15.2153 32.5003
5.8103 9.4228 18.7943
7.51266 16.0742 37.6053
6.05549 10.6858 33.7722
16.7826 34.5234 62.7402
11.0753 20.2863 44.5277
14.9843 27.4848 45.8042
8.51271 15.7379 26.0657
7.83117 20.2667 40.2133
10.0443 20.5872 38.5675
11.2679 26.057 52.4191
9.8651 23.1051 49.2538
9.62368 16.9112 39.5597
10.6362 18.5251 28.8459
8.53148 21.8015 46.5718
6.77925 12.6074 30.1383
10.4052 24.9572 52.4649
8.03902 11.0924 21.4864
8.54112 21.3817 40.317
8.70607 21.404 49.8669
6.28634 11.9948 33.1049
9.3343 13.1875 22.1835
6.80637 17.5596 37.7233
10.4039 21.0046 31.2876
4.25226 12.4375 38.0157
11.1052 21.521 32.1371
5.8929 16.3058 37.9495
7.68666 15.0958 25.5703
3.60663 10.908 30.6577
9.75526 23.841 50.9528
9.82084 27.9786 72.5593
8.93011 7.35314 16.7103
8.96976 21.4772 46.6093
9.43036 17.4575 29.2728
6.06064 14.6054 32.9853
6.8654 16.8877 49.9051
11.605 16.4361 25.5127
7.89204 19.9292 42.2485
10.5197 30.0215 70.7358
11.4006 22.6092 49.6918
9.44242 24.4307 73.9809
21.6679 36.729 50.8435
7.95224 23.4986 56.4598
9.10591 16.158 31.5114
7.21454 19.9111 52.3724
9.16033 14.6473 31.357
8.53994 21.2194 44.5968
9.07582 19.1074 41.7659
10.0751 24.2427 55.5201
9.54041 18.1498 34.9964
8.08842 19.8566 48.2048
11.0994 23.2455 48.9721
7.59397 14.8622 25.9618
5.35205 16.5856 46.258
7.94194 13.129 31.4534
9.99337 28.567 69.5382
10.9505 22.1779 42.4781
6.56968 13.8909 30.0619
6.08317 14.8591 37.6916
7.95789 20.7704 49.5478
7.32366 13.9416 36.5813
6.65171 13.3537 35.0225
9.54803 19.3666 37.369
8.72551 22.7691 44.4334
3.7431 11.7568 41.7338
9.06842 17.5931 41.5681
10.1743 23.6657 52.1895
8.53313 20.9743 61.0675
12.1652 23.1197 46.8564
9.20126 21.2087 44.3974
4.98934 9.63083 24.4317
4.85393 13.8935 36.8794
7.66126 15.2379 30.5653
6.17538 15.1965 33.5831
4.93317 13.4251 35.9917
6.23581 11.541 23.4261
7.50481 18.8439 45.0035
7.58395 19.044 42.0373
5.03079 11.5763 32.5092
5.35463 12.7121 33.2721
6.79042 16.8622 46.7847
10.4296 23.0612 46.5653
7.53222 17.2337 47.1434
9.1786 13.7435 23.9018
7.41274 25.8095 68.1529
9.8692 19.3196 40.9624
7.02257 19.5096 52.3906
8.71767 18.8444 38.1431
6.29226 16.8118 45.0994
7.29479 15.964 47.242
11.6894 24.0316 51.2413
13.4707 36.3386 70.0388
6.50131 17.2215 53.3816
8.00493 14.4216 35.4425
9.06919 24.1938 47.2979
5.69169 17.6899 38.9485
5.11022 14.5128 43.2166
9.66883 26.5869 67.6164
9.10555 16.9413 43.9628
7.48373 13.7914 26.778
5.93682 16.7806 40.3212
