# pn-170911/RbIIR-45-RbII-1280-1959.psd
# Power spectrum* (dif=0,1,2) (really just |FT|^2)
# NOTE: only the first half! (symmetric)
# weeks: 1280-1959
# 325 clock-days, 13 excluded
# PSD: 1441
63760.4 1.32232 0.0533932
2.15421e+06 53.2124 0.170917
2.98759e+06 51.4453 0.158459
829598 17.5477 0.180966
567844 18.3224 0.151489
345254 10.1458 0.163352
237597 9.9977 0.155841
162424 8.35631 0.162539
130698 10.2128 0.130617
102869 8.14825 0.154826
79190 8.70601 0.135517
76465.3 7.87906 0.163185
54439.7 9.78489 0.148952
52130.3 6.61868 0.144515
46028.4 9.40355 0.151103
41485.1 7.53121 0.161992
36234.4 12.114 0.138165
31650.7 7.35402 0.155789
34764.3 19.9668 0.177751
25071.5 6.56767 0.158674
20935.6 15.7762 0.179273
26262.5 7.59113 0.167692
26091.7 21.6231 0.206252
14913.9 7.20859 0.160942
16801.8 16.0534 0.178548
13858.7 8.04298 0.183904
15714.3 19.7843 0.199591
11808.7 7.45445 0.157668
14104.2 18.8184 0.219843
9796.62 8.53855 0.187539
11256.7 18.7106 0.235335
9394.96 8.30397 0.184896
11390.6 23.5981 0.233784
7217.97 8.9304 0.201194
10602 21.3249 0.272646
7184.33 9.16821 0.193551
8872.07 24.8474 0.288029
6709.17 10.1767 0.214293
7786.41 21.7551 0.325812
5895.25 9.82937 0.22782
6832.1 20.8532 0.286325
4483.28 9.62786 0.241733
6902.31 26.082 0.354233
4483.75 10.7704 0.258942
5271.67 20.0583 0.351569
4384.21 11.0058 0.269884
5941.95 26.6156 0.401774
4613.87 12.0712 0.300315
4684.39 25.3705 0.408376
3938.19 12.1251 0.282546
4998.67 25.2312 0.427946
3859.71 12.9916 0.285701
4426.54 27.0378 0.456025
3254.3 12.573 0.31653
4881.07 32.4221 0.567532
3258.81 12.5206 0.300905
4197.48 29.4026 0.565511
3482.38 13.8293 0.372868
4171.36 26.7184 0.597069
2876.73 13.2401 0.379545
4033.87 32.3415 0.705946
3054.93 15.318 0.416005
4013.04 33.3844 0.782023
2895.34 14.5995 0.38571
3444.22 29.9962 0.74183
2808.17 16.7126 0.47987
3638.39 35.9576 0.889994
2690.86 16.4936 0.516921
2686.15 28.0212 0.771338
2475.26 18.7056 0.567609
3151.9 36.1066 0.951155
2196.24 18.6648 0.57663
2708.56 33.3626 0.987608
2039.61 17.7211 0.644419
2641.01 31.1135 0.951399
2165.56 18.5649 0.677849
2519.61 30.6763 0.980058
1888.67 18.1796 0.660955
2181.12 27.9724 0.973504
1925.6 19.3429 0.714524
2089.61 30.3104 1.15828
1715.29 19.3165 0.753905
1996.11 31.7609 1.21882
1474.67 18.5782 0.784789
1847.79 31.2619 1.20329
1688.27 19.2638 0.831344
1753.67 35.6989 1.43456
1514.7 20.4006 0.914125
1812.47 31.8453 1.35282
1402.66 20.5072 0.922982
1585.32 33.6004 1.3986
1423.14 21.0336 0.971009
1572.82 33.4328 1.5397
1273.14 19.5627 0.937561
1595.7 28.9953 1.39595
1424.38 23.1483 1.18172
1473.71 34.1044 1.65846
1377.58 22.0241 1.09702
1649.88 35.4565 1.70103
1085.93 21.6325 1.15847
1335.89 30.0013 1.49284
1422.15 21.6964 1.18236
1424.88 34.1491 1.82538
1216.31 22.1346 1.16066
1386.85 36.0324 1.94513
1158.85 21.2626 1.3049
1109.69 33.6026 1.93789
1162.41 23.2805 1.39338
1167.63 33.9747 1.94921
1063.45 23.2054 1.44865
1147.2 34.1667 2.1092
1091.65 23.6352 1.44934
1242.08 33.4507 2.14216
849.517 23.3682 1.55473
1049.3 31.0666 2.06786
968.49 21.7042 1.46482
935.356 35.3722 2.3395
772.067 24.2292 1.64504
1047.93 33.869 2.34654
801.381 21.1071 1.53128
1039.24 30.616 2.27284
775.195 23.8482 1.79947
839.798 32.1215 2.4063
1001.1 24.6534 1.8434
903.494 33.2952 2.51393
852.93 23.5102 1.81062
939.804 36.8874 2.87247
729.59 25.3222 1.98541
860.335 33.2399 2.74172
718.605 26.2415 2.12523
917.704 35.8384 3.04463
784.497 26.0901 2.20368
761.17 32.8394 2.95558
778.155 27.1033 2.3222
779.115 30.7819 2.62662
740.535 26.5354 2.4381
853.896 30.039 2.73412
661.736 24.2105 2.25254
744.877 35.4126 3.34043
724.888 26.2208 2.40349
759.841 31.8727 3.05057
700.075 25.6711 2.51433
592.391 30.9996 3.08242
641.681 25.8259 2.71342
733.329 32.6943 3.34719
642.212 26.7971 2.76721
640.802 33.6768 3.51679
655.877 26.0002 2.80822
626.641 33.776 3.6766
586.184 24.9253 2.87581
618.755 33.6636 3.61166
558.992 27.0469 3.09623
686.39 34.7325 3.91922
663.021 30.0904 3.39328
639.952 32.271 3.80664
546.381 27.5809 3.22775
615.057 38.3501 4.45525
597.419 31.5646 3.68335
570.313 31.1157 3.69644
509.774 27.6073 3.38808
554.104 36.9371 4.54248
486.953 28.7148 3.65376
532.17 33.4721 4.3639
518.993 28.6134 3.51102
575.105 31.0005 4.11545
544.534 28.2765 3.83215
549.342 40.2581 5.18959
457.316 32.587 4.31083
564.209 32.8747 4.49436
463.184 30.3246 4.01787
486.789 33.0163 4.50943
385.747 30.2631 4.14646
413.265 33.5703 4.75682
494.02 27.6966 3.82789
448.75 33.8162 4.93059
398.845 31.0465 4.55589
433.865 32.6098 4.96731
474.716 30.0086 4.34648
473.891 35.0387 5.37605
425.141 31.8357 4.79143
474.117 37.6959 5.7867
478.924 30.3025 4.77152
406.287 33.6236 5.3876
458.045 34.2008 5.44013
485.581 37.9112 6.18378
497.297 36.2679 5.90264
403.402 34.74 5.61266
485.264 30.5657 5.07345
385.299 36.5273 6.30976
377.91 32.301 5.32714
419.068 31.3953 5.57603
477.904 33.7214 5.82268
395.768 38.3067 6.67804
438.657 32.0027 5.44875
415.396 33.2979 6.04833
387.654 30.1036 5.24183
378.048 32.1596 5.83293
450.391 32.085 5.7596
292.902 27.8548 5.26561
360.31 33.5364 6.17755
406.134 36.8213 6.96941
351.273 31.9456 6.19271
320.962 35.1427 6.91443
378.786 32.8309 6.36587
353.641 36.7454 7.40072
337.965 32.1384 6.397
383.258 34.7644 7.14969
349.572 32.7164 6.61116
350.896 33.305 6.97293
360.389 33.9033 6.65839
332.825 34.1094 7.07784
343.246 30.7407 6.30009
378.116 38.3965 8.05184
324.109 33.2256 7.03959
371.745 38.3572 8.30693
301.699 35.6475 7.55577
330.765 35.9959 8.05128
331.942 33.8573 7.5174
339.744 37.3343 8.44072
314.552 33.1953 7.42743
316.352 33.924 7.86361
334.232 30.1947 7.00343
312.879 35.4957 8.27294
325.691 36.1972 8.24184
325.325 36.5186 8.71599
331.603 34.1415 7.95871
309.787 37.6079 8.97423
295.759 34.4584 8.38483
289.983 37.2824 9.14729
304.997 36.2497 8.86887
295.523 35.2766 8.81706
290.727 35.0228 8.71744
291.573 34.2777 8.75336
291.401 35.6362 8.79661
267.441 36.1239 9.32318
255.105 33.0395 8.3521
248.408 32.3195 8.5674
267.422 32.0257 8.27388
296.565 37.2603 9.98651
285.365 34.1654 8.91038
268.852 36.7017 9.89029
283.933 35.349 9.57404
267.647 39.8175 10.9889
245.581 35.8735 9.84545
222.964 34.4734 9.7355
260.196 33.3072 9.27296
265.84 38.2131 10.6811
237.941 34.2793 9.61784
244.43 38.8597 11.2762
270.02 35.7797 10.061
244.576 34.3507 10.0844
259.618 34.5401 10.0916
250.645 39.358 11.6477
232.612 34.6999 10.6752
253.192 36.157 10.8612
214.743 36.2794 11.0815
252.887 31.0754 9.87512
234.694 35.1649 10.9067
249.302 37.2319 11.4654
219.652 33.0605 10.2718
262.322 40.1871 13.0251
230.826 37.5603 11.8351
210.028 35.0576 11.4092
216.155 34.7141 11.3307
229.068 39.8074 12.7321
208.338 34.0137 11.0021
260.053 37.7056 12.4537
248.91 36.3976 11.9346
195.761 34.9623 11.7226
246.649 35.8643 12.0414
215.824 34.603 11.6976
206.835 35.0979 11.9969
213.512 34.3114 11.9265
209.345 33.807 11.3988
225.025 37.2772 13.1666
215.177 38.2225 12.9749
198.658 37.649 13.5577
216.615 32.9001 11.6866
199.62 36.5055 13.2177
203.614 37.5415 13.5932
178.177 33.7946 12.437
208.305 38.8575 14.2175
195.943 36.0126 13.1363
189.859 36.4286 13.671
191.545 39.0774 14.4302
153.667 35.5927 13.6647
154.286 34.7918 12.9392
209.868 35.638 13.693
171.559 39.8557 15.3785
158.596 41.196 15.5977
192.744 42.365 16.6399
154.996 33.1076 13.2331
178.448 37.9194 15.0985
193.528 38.4742 15.1489
176.112 36.2468 14.4748
180.496 35.5385 13.9532
177.235 34.8184 14.2591
182.99 40.3834 16.1321
166.604 36.0763 14.9614
198.001 37.2736 14.8049
170.547 39.1675 16.5354
186.167 35.8242 14.4296
161.114 37.2929 15.9823
193.247 40.0369 16.8636
182.472 40.0042 16.9501
170.674 37.9469 16.1057
175.428 39.072 16.5028
169.446 39.8521 16.6966
147.409 33.9023 14.9497
190.147 37.6727 16.3843
178.301 40.7464 18.2512
151.967 34.9323 15.7627
143.781 32.8527 14.3998
159.041 35.5133 15.9553
143.57 38.8953 17.819
164.561 35.8814 16.4698
147.876 36.7827 16.9336
147.389 35.581 16.3648
137.548 36.6569 17.1858
155.509 35.8737 17.0385
156.141 39.8048 18.3495
138.402 34.0359 16.5926
187.876 41.6494 19.6638
147.922 34.8529 17.0937
148.773 37.3116 17.6324
155.268 37.6495 17.8872
159.258 39.3332 18.6143
150.288 36.2157 17.3862
133.938 33.6962 16.5704
126.673 36.2773 18.0738
144.474 36.9781 18.2577
118.748 33.8094 16.9904
138.657 38.7056 19.799
122.329 35.9 18.7028
133.882 37.7426 19.1937
157.351 41.1052 20.4185
132.351 39.5159 20.5293
123.607 35.8821 18.4966
136.258 38.0774 19.9165
145.332 40.5531 21.3059
124.64 37.0181 19.7452
122.175 35.9469 19.1817
133.8 39.343 21.1561
130.983 36.1452 19.0158
133.225 35.8076 19.4782
132.481 34.0012 17.962
143.495 36.1318 19.7576
131.092 38.4756 20.3646
119.133 34.995 20.0546
139.615 37.7825 20.3938
132.344 34.5583 19.3885
137.932 36.6717 20.5187
131.962 34.9399 20.0872
151.477 39.7962 22.1185
131.051 38.2782 21.8762
153.352 41.1996 23.2309
139.722 36.4268 20.7609
125.656 35.3608 20.6872
130.92 36.5312 21.6667
142.85 39.4938 22.423
131.519 41.3809 24.2778
112.727 35.2995 20.4245
127.161 37.2156 22.2015
134.123 38.8059 23.0914
128.886 38.1452 22.6201
103.772 33.6775 19.365
118.832 34.4733 21.4122
123.964 38.6982 23.29
115.668 35.6508 21.8742
110.676 34.5283 21.3101
106.407 34.5029 21.0317
116.606 39.24 24.246
122.947 39.2044 24.8594
115.978 38.6045 24.5989
110.132 36.171 22.1718
114.294 39.8813 24.9127
106.577 37.5335 24.577
108.644 35.2983 22.7131
101.72 37.7188 23.9486
114.189 36.327 23.6312
113.657 36.6641 24.3468
114.583 38.0105 24.4226
120.263 38.9332 25.2973
108.541 37.1501 23.9593
108.2 44.3913 29.7392
118.207 34.9035 23.8411
118.626 41.3731 27.8779
102.982 41.9635 28.6955
119.668 39.2387 26.247
123.987 40.6159 27.0093
113.604 40.4628 27.2838
115.854 38.9793 26.4978
101.257 37.0483 25.8599
115.844 37.2621 25.0815
88.3467 33.7497 24.8598
111.588 37.4111 25.6869
94.8119 34.5424 24.4671
112.452 36.6278 26.1061
100.322 37.0054 26.5239
114.067 37.9134 27.321
117.204 39.1063 27.6791
94.9902 37.6208 26.5196
108.88 39.8246 29.0812
113.685 36.4525 26.0749
94.9805 39.289 28.6939
93.9815 34.2238 25.3478
102.165 36.4585 27.0889
102.823 38.0172 27.9847
104.105 37.0203 26.927
88.2121 35.6757 26.2877
99.311 37.0878 28.0199
106.215 33.7385 25.1866
94.201 39.1901 30.5038
101.143 35.9012 27.3659
91.5153 32.5485 25.1069
84.7038 33.4153 26.0602
98.5751 37.3688 28.9488
90.4703 37.0795 28.5429
99.8768 37.5358 28.5911
94.3351 37.9613 29.2592
87.6769 36.1284 29.0774
85.9311 37.1771 28.942
83.9745 37.1117 30.5779
88.9796 37.188 29.0459
90.9127 32.6 26.2832
91.7972 38.5448 31.6133
91.7739 41.9195 32.3737
92.3754 38.4749 30.621
97.8435 39.4134 31.8799
93.5119 36.8473 29.8152
78.7643 38.2695 29.9875
84.3113 33.99 29.1018
95.5928 35.8393 28.857
84.2725 35.4462 29.4673
86.6562 35.1636 29.6438
87.5378 36.8138 29.335
85.9818 36.2054 31.7974
90.6111 37.1811 31.7645
92.6006 37.0865 30.9822
88.2549 35.9521 31.4187
88.9162 33.9622 27.7368
89.1949 37.712 33.6113
87.033 35.2725 30.5808
94.12 34.1697 28.2688
85.8267 38.709 33.0782
92.7796 35.8243 31.1685
81.71 39.0466 34.4917
84.9567 40.819 36.2512
72.8468 39.2247 34.4424
67.0938 33.0413 30.0373
82.6253 35.0034 31.4334
81.0824 37.3173 31.385
90.1937 38.2915 34.5986
88.7242 38.7144 33.8222
68.8313 37.703 35.4198
85.8148 40.2419 35.9725
105.164 36.9081 34.1078
74.9268 37.9654 33.7571
77.2137 35.3194 32.4978
70.0313 35.6413 32.3225
71.963 37.4577 35.2239
88.1912 37.912 34.3145
76.4391 34.6866 32.5576
70.8426 37.1689 34.5279
74.8252 37.6657 35.431
77.0714 38.7572 36.5927
76.596 38.2599 36.6913
71.5646 36.608 34.8856
77.5513 38.2789 37.4291
79.149 35.4971 35.2416
73.8425 38.685 35.176
73.8278 32.5886 32.1879
72.5472 39.6753 37.7702
86.2533 44.2869 41.3845
74.8428 35.3079 35.4215
77.9535 38.4569 36.6116
67.1643 33.5881 33.7686
70.6945 38.8528 38.3717
80.3812 38.338 39.0228
76.2527 37.598 39.0389
70.1056 40.5465 40.5149
70.1861 34.4678 34.5091
76.1176 33.8783 34.6781
69.3443 36.2895 36.2078
80.1486 36.8783 38.6732
80.5452 38.2458 38.084
66.1884 35.6679 37.325
79.4579 36.5417 37.2766
69.3481 39.1705 38.0755
72.3328 37.486 39.023
67.0724 36.9091 38.7723
77.7129 38.8041 39.4693
78.1379 38.7151 40.4328
63.4455 35.1681 37.5899
74.9429 34.6201 37.759
73.0763 38.5444 41.7802
70.9832 40.5372 42.0843
78.5293 39.7538 41.4002
68.1075 36.0242 40.6982
75.593 36.453 37.9573
71.1551 34.8988 37.935
66.6531 34.7404 36.0128
63.5564 36.0838 40.0595
71.4799 40.065 41.9612
68.8371 36.6461 42.6134
65.0102 38.3787 42.6775
66.9174 33.9756 38.098
62.3531 38.803 42.7093
67.9186 36.2586 39.6418
71.9944 38.1571 40.6038
63.1088 36.2442 39.8808
70.743 38.2105 42.3603
66.9196 36.8024 42.7112
64.3208 38.8678 43.602
72.1894 36.0343 41.5712
66.8378 38.4983 43.2649
66.1093 34.1438 38.5412
69.3195 39.2684 43.4959
60.1841 37.3682 43.127
62.2729 35.8986 43.0256
60.9959 34.1905 40.0513
69.5037 35.9334 40.4092
64.0401 36.1689 42.5005
63.1834 37.1227 43.1692
58.2868 34.2758 39.3736
66.6712 36.4393 44.8325
58.972 35.4695 42.926
70.7208 35.5414 40.5654
58.6597 37.4708 44.5746
62.019 33.9305 40.3748
61.3936 35.6402 41.8504
57.6878 36.6366 42.6643
59.9195 37.0901 43.2281
58.7468 35.2392 42.6442
60.1983 36.6698 44.516
56.5263 36.4701 44.4977
57.6265 33.732 41.4226
63.0671 35.828 43.0409
56.5949 34.9101 44.3746
65.8296 35.3672 41.7633
57.115 33.3093 42.7105
57.8618 35.2056 44.0122
58.5711 33.3335 40.5918
59.2267 36.3935 45.107
54.8857 31.9553 39.8977
58.789 38.2683 48.8902
56.2509 31.5502 39.4256
53.6014 36.1166 44.3219
61.7966 31.7544 40.7284
60.515 39.8557 49.1105
48.9381 35.5245 44.4563
57.0893 35.3205 45.5376
55.5119 40.7915 54.1093
53.1285 35.407 46.0075
58.4945 36.6235 46.7945
56.0897 33.3232 44.7181
50.7304 36.5612 47.9951
64.3659 35.6425 45.4208
61.9427 36.9712 47.3477
54.4867 39.1046 50.3551
52.5152 39.3745 52.5944
56.6873 31.056 41.5358
54.0855 35.717 47.4155
60.5107 37.6526 48.3391
54.9382 36.7754 48.7709
58.5592 39.9097 51.5093
55.4317 38.7233 51.9924
59.1365 36.1306 49.6374
47.3081 31.7606 42.4095
55.7021 36.5967 49.5298
50.481 34.7279 48.5833
55.5761 39.2179 53.0337
47.537 33.8064 48.0544
43.8011 34.0369 46.308
48.5892 39.1181 55.985
67.8821 34.1904 45.5532
48.5476 40.9454 56.7409
48.9142 37.978 52.5402
53.3104 35.9267 49.0132
50.9449 35.1856 48.3877
57.1326 36.8946 50.7564
54.3415 36.4248 47.7309
48.3104 35.4198 53.7028
51.0619 32.8137 47.8933
50.8014 38.9085 55.9349
46.0741 36.2396 50.5967
47.5507 32.4411 44.4103
49.4022 35.7509 53.2138
48.9705 38.5797 54.5513
51.5356 36.7267 51.5112
47.8006 34.5576 48.5803
47.4711 30.9445 46.8327
45.4098 34.4249 50.5584
47.4683 33.109 47.0626
43.7818 31.5328 47.2692
43.8483 34.6937 50.9981
48.322 38.4866 54.2553
50.0129 37.0618 52.9708
47.2575 36.5161 58.0611
51.7 34.8718 51.2744
43.1458 34.1035 50.0284
49.5523 36.5675 54.5737
46.1307 35.1396 50.5852
47.7641 32.0391 48.4705
48.1209 36.5622 54.2628
43.9357 32.902 51.1864
39.6455 33.327 49.2478
47.9377 33.6691 51.149
44.5965 32.4393 48.8066
49.187 34.6034 51.3216
48.3807 37.5761 60.1797
50.0129 38.6885 52.0473
43.4542 32.6716 51.2098
45.5454 33.9354 52.7238
41.8182 36.0373 53.821
37.3657 31.8506 48.9773
41.681 31.425 48.9914
43.4292 37.4655 60.3887
50.482 36.6331 57.7802
41.2888 35.3605 53.9272
47.7418 36.6957 54.5758
42.9571 32.6641 53.4674
46.4441 34.655 53.1635
45.2828 35.1047 56.7379
41.8513 36.6998 57.4941
42.1362 33.8532 53.5462
43.2379 33.7817 55.2366
45.5537 35.3615 54.6042
43.7381 35.2765 56.0931
44.5602 35.1734 56.9683
41.969 29.3678 47.8428
42.7928 34.8919 57.9173
42.8168 33.9342 53.216
43.6785 34.8495 54.5581
47.7677 38.4006 61.8699
46.6367 36.9369 56.4823
43.1495 31.5421 54.0632
43.8475 37.0101 61.3829
42.5874 34.2166 57.3436
42.672 34.6288 59.4252
41.5143 35.879 62.2818
45.9986 35.365 55.3469
40.9875 30.1044 50.0147
41.1787 33.7617 56.4122
40.9754 32.4617 53.8986
43.9519 32.0633 53.1712
40.5346 31.488 52.2084
44.7541 33.7733 55.3899
41.8547 35.5997 62.1495
38.2155 33.7297 54.8442
42.9806 33.7895 56.7747
44.0393 33.2759 56.4048
43.1115 32.9931 53.4903
38.5657 34 62.1019
42.5873 35.0336 58.3499
39.8554 32.0281 57.8422
44.6276 30.995 53.5042
37.9719 31.9614 55.8968
40.4769 35.6467 61.3942
39.6812 30.9356 55.765
42.8984 32.6499 55.4645
44.2452 34.4876 59.621
32.8364 29.6208 53.2681
41.6756 33.2421 58.5407
41.9002 33.9882 58.3459
38.5312 32.8347 57.8854
38.6466 32.3467 55.9933
41.5314 34.7289 65.7769
39.9519 34.0038 59.3799
34.3673 33.308 59.9014
41.0893 33.8254 59.4876
39.4042 30.9368 57.3264
38.1571 35.3789 60.9127
38.8446 34.9303 59.1566
39.8194 33.6556 63.1915
35.3494 33.6934 64.3144
43.4802 33.2871 59.3399
42.1066 33.7276 59.4018
35.1466 29.4119 51.4146
36.446 29.7863 56.2339
40.7059 33.0123 57.085
35.2854 31.0931 57.1
36.2348 32.1698 58.1719
39.0777 33.3195 64.652
38.632 32.6749 56.5192
38.6424 33.8868 63.7245
36.2506 32.8614 60.6284
43.4599 31.4222 59.7442
43.6452 34.1264 62.4779
38.4258 30.6511 55.2356
38.005 32.6264 62.1218
36.5875 31.8341 59.8426
32.9384 28.843 55.1737
38.2783 29.506 55.9215
38.9282 33.4658 60.6371
36.9581 33.4253 59.9696
34.2322 32.338 62.6275
35.2813 32.386 58.6857
38.4529 33.0025 62.7688
40.8435 30.027 55.9966
30.5746 31.4855 63.7996
38.5447 33.6453 61.6404
35.8501 30.6868 59.9238
34.6224 28.7881 59.2982
35.6081 30.7124 59.4014
37.1473 28.8811 58.3362
37.6969 32.2593 61.8851
37.0444 33.7645 62.6377
33.5323 32.4362 64.387
38.9638 33.4314 63.0768
31.1885 28.4758 54.887
36.3722 30.6487 59.2049
30.128 29.7681 57.0844
29.8357 33.756 66.3471
32.0909 28.8563 59.3426
36.5882 33.0178 61.9569
36.0154 31.0369 66.8648
38.1022 30.1134 62.77
31.3755 30.809 57.3383
34.8806 34.5617 69.9579
37.745 35.3316 71.0965
36.8389 31.8706 61.8687
37.3223 33.1149 62.5146
30.0161 31.476 60.8578
31.4699 31.8168 65.9268
34.1846 30.6711 62.3692
33.5455 30.6698 62.4034
36.129 31.3067 65.6933
33.7932 29.9597 60.5616
40.314 30.3948 60.8139
33.0374 32.6557 65.0153
35.4319 30.8395 59.6211
32.7999 29.5399 64.0746
38.3101 33.9796 67.9022
34.358 30.0147 60.9132
32.7326 30.3928 65.7707
34.0811 31.3537 63.5966
32.0182 30.0155 60.9801
34.3738 31.3145 64.4149
31.3418 30.778 65.6339
37.1487 30.0434 62.1436
34.1727 29.613 60.6703
31.7957 29.3308 57.5554
31.6274 30.4294 66.0945
35.6635 28.8644 57.6426
27.6194 31.7759 69.6498
33.9817 29.2672 59.5821
30.2076 30.6901 67.8762
31.325 33.9013 67.584
27.9769 28.6814 63.692
31.4639 30.5841 64.3445
29.1117 30.8417 67.9572
27.4782 29.8502 63.9541
32.567 30.7703 62.6515
30.3418 29.6913 63.8051
29.5991 31.9916 64.8337
33.1314 25.9156 62.4853
31.3815 32.0777 68.6275
28.3406 29.3637 61.5635
26.8274 28.5986 62.2409
31.1426 31.3534 68.0137
31.8442 29.7158 67.3008
27.4287 29.6121 61.7783
28.9509 29.0535 58.9469
27.7381 27.0776 58.9776
27.6367 29.3125 65.5877
30.9992 30.2442 65.7487
32.542 28.1472 64.2443
27.5245 29.677 64.6787
31.5165 29.7181 65.865
30.4977 30.0683 68.1219
28.1007 28.544 64.8833
30.7498 30.112 68.1655
31.2346 29.17 63.889
30.4212 30.5461 67.1679
29.4549 27.7567 59.8784
27.5418 27.6593 64.1616
30.0603 28.0829 61.8624
27.8908 33.087 74.2639
33.951 28.417 62.8964
29.0014 26.9108 62.4724
28.9726 27.4919 60.2471
34.8412 29.4348 66.3669
32.4296 28.2995 64.0307
28.0778 29.0398 68.6524
32.6984 29.3829 65.8755
31.2394 30.5487 70.7958
35.5294 26.7226 61.2539
28.9848 29.3202 62.4777
25.9566 29.4063 70.6505
28.9947 26.9131 65.4945
30.3934 29.2832 64.4729
30.6029 26.2267 58.8184
27.0771 27.8208 64.4763
27.3408 25.5029 60.5631
26.113 27.4052 64.8539
25.0634 26.3555 63.9527
26.5498 28.5576 66.6296
28.2858 28.9607 64.9608
28.4229 27.6634 64.9478
27.4996 28.6081 61.6931
27.7925 25.3942 61.8498
28.8351 26.5493 62.374
27.0006 26.5679 63.7674
25.3881 28.906 69.537
29.1734 30.0922 68.9044
27.1704 29.5567 73.6204
25.675 27.9109 61.8402
24.9985 27.6672 66.596
34.4209 28.4607 70.0209
28.0269 29.6597 65.3393
29.2593 25.0473 61.2864
24.9703 28.0494 64.6425
29.6962 26.3853 61.8627
26.8804 28.4297 70.2803
27.6413 25.3855 66.9982
29.4524 30.2209 72.4297
27.7458 28.4616 65.4636
25.3972 27.0761 65.3989
27.72 27.2055 65.9651
25.4285 27.3109 65.8649
26.7246 28.0358 64.2669
29.3925 27.6121 71.9255
27.1509 27.7989 67.6727
26.3516 26.3174 59.3281
27.2595 29.4077 77.9962
25.9387 28.559 72.5784
33.0224 27.3511 66.6082
29.8357 27.9749 63.5849
26.0037 25.9954 64.3323
26.194 25.1079 63.7621
24.044 26.9984 69.1347
