# pn-170911/RbIIR-58-TWTF-1280-1959.psd
# Power spectrum* (dif=0,1,2) (really just |FT|^2)
# NOTE: only the first half! (symmetric)
# weeks: 1280-1959
# 6 clock-days, 0 excluded
# PSD: 1441
590.306 0.0102543 0.00939628
28190.7 0.268111 0.0166645
191212 3.67118 0.0169406
14124.7 0.488862 0.0170994
56085.7 4.25292 0.0175034
4403.07 0.45693 0.0158582
4441.3 0.770051 0.0164168
988.824 0.149576 0.0166443
2300.22 0.639742 0.0171892
499.194 0.136049 0.0175482
1194.95 0.481976 0.0145956
908.456 0.306391 0.0157122
824.631 0.566013 0.0150887
514.397 0.454876 0.0204451
750.331 0.758154 0.0199703
587.792 0.763801 0.0205017
358.536 0.406083 0.0152341
223.481 0.325082 0.0156609
539.853 1.03037 0.0142272
378.725 0.760907 0.0137395
448.469 0.906341 0.0178459
566.543 1.21225 0.0185753
404.04 0.853156 0.0241115
386.312 1.14218 0.0211094
482.249 1.22309 0.02467
494.452 1.38552 0.0246976
305.632 0.977298 0.0155829
638.942 2.07287 0.0238876
442.791 1.20511 0.0197017
276.503 0.846862 0.022445
165.806 0.673299 0.0245852
160.96 0.701211 0.0141186
154.837 0.707674 0.02451
438.511 2.18817 0.016015
190.998 0.995517 0.029687
132.742 0.693348 0.0129368
399.114 2.58741 0.0251653
121.318 0.854712 0.0256916
231.812 1.86713 0.0392217
134.159 1.25605 0.0354504
55.1866 0.615583 0.0248972
119.916 1.1007 0.0227811
267.452 1.85844 0.0397532
270.339 2.34956 0.0503529
290.238 2.44095 0.0531415
378.407 3.47573 0.0508831
223.404 1.88019 0.022062
126.204 0.961184 0.0335447
78.3666 1.13931 0.0322787
161.473 1.46957 0.042209
97.2292 1.36773 0.0437076
155.054 1.96917 0.0283745
139.395 2.05437 0.0369774
91.6127 1.32287 0.0486468
106.503 1.42815 0.0293384
217.241 2.95657 0.0506376
76.5304 1.06835 0.04969
90.016 1.43443 0.0184803
314.604 4.14625 0.0681177
145.206 2.50355 0.0752313
133.226 1.9616 0.0527565
98.3426 1.88428 0.0740961
215.21 3.83234 0.0542605
176.507 3.404 0.0937771
51.4539 0.800828 0.0392394
173.129 3.2531 0.075444
136.375 2.74585 0.0986826
177.234 3.65998 0.13218
148.649 3.44182 0.130234
179.392 3.74011 0.129975
132.103 3.10485 0.0724688
103.211 2.32879 0.0616607
207.808 4.29399 0.113481
133.208 3.19091 0.109011
161.619 4.01349 0.0799657
151.445 3.99722 0.13362
103.328 2.84302 0.109597
164.837 4.59104 0.185977
94.3274 2.27536 0.0692343
145.891 3.61565 0.130986
63.3467 2.1082 0.0763039
63.0715 2.20521 0.0987623
168.296 5.32437 0.144949
152.374 5.52837 0.230978
134.08 4.38537 0.152998
177.734 6.25229 0.266074
91.6697 3.18432 0.118813
123.422 4.23281 0.187833
94.434 3.61021 0.156385
132.873 4.68012 0.142702
116.64 4.26246 0.223228
126.111 4.50124 0.15804
188.514 7.9163 0.3044
119.48 4.66433 0.252284
83.8464 3.65985 0.218126
96.5585 4.32418 0.22491
187.37 8.02523 0.286255
92.9009 3.62926 0.12991
218.244 9.01738 0.405467
136.168 6.36562 0.283676
123.472 6.08763 0.226163
92.7082 4.18731 0.25354
67.4848 3.05284 0.222697
42.8759 2.68446 0.144014
167.48 8.14487 0.516295
98.3646 5.34626 0.305911
111.711 6.46397 0.376023
167.588 8.45696 0.418996
163.979 8.79404 0.443763
62.6877 3.50594 0.16345
188.413 10.7181 0.627365
127.405 7.86446 0.426446
166.685 9.56996 0.559525
117.668 6.4415 0.412936
84.6298 5.16203 0.383753
227.039 13.7403 0.843916
96.9429 6.18707 0.457498
71.0352 4.61734 0.27316
90.2836 6.43266 0.504763
138.964 9.48967 0.701577
172.009 11.1783 0.739285
106.421 6.85685 0.446696
67.1678 4.99553 0.338647
31.48 2.37095 0.1613
61.8388 4.21348 0.317187
92.0416 6.46665 0.559983
101.742 7.31507 0.528095
45.0163 3.55888 0.279041
110.497 8.30573 0.741656
108.498 8.25994 0.602532
43.3483 4.10201 0.465843
164.801 12.0164 0.948033
101.844 8.09348 0.603364
149.908 12.0869 0.951538
86.7697 8.25515 0.818303
136.288 10.9957 0.773561
141.28 12.0076 1.09362
77.9317 6.44122 0.604548
106.459 9.43933 0.788937
115.422 11.8554 1.11085
97.2112 9.22109 0.881736
112.518 10.1367 1.01643
57.2254 5.62012 0.522698
96.3505 9.22715 0.88832
111.368 9.97452 1.01021
42.1703 4.0571 0.466335
110.705 10.9201 0.998855
70.2517 7.43025 0.681986
73.7334 7.59662 0.8473
135.551 14.2115 1.57695
74.1859 6.59706 0.50725
128.831 14.42 1.60536
169.236 19.1169 1.86378
135.633 16.9586 1.96641
41.6561 4.99715 0.626922
78.4436 8.40184 0.935103
62.7527 7.86686 0.946499
127.953 14.8369 1.67184
129.393 15.3082 1.59907
107.357 13.5653 1.60183
76.5503 9.91825 1.17784
69.8299 7.16045 0.760767
81.2874 10.1183 1.33652
165.639 19.1604 2.53182
42.1528 4.28418 0.400845
147.965 18.3927 2.30812
71.4294 8.58353 1.12918
120.969 18.41 2.94116
37.9717 3.7404 0.367204
118.545 15.0933 1.97543
101.855 12.0932 1.41996
96.8978 14.0835 1.92863
121.535 15.1455 1.95812
161.146 24.118 3.87993
80.7616 10.25 1.22437
158.674 23.0145 3.38091
119.425 18.1407 2.36066
78.0791 11.3436 1.66092
131.27 20.6385 3.22323
141.951 19.1806 2.68717
59.3026 9.59077 1.68026
128.195 19.7504 2.9074
48.9796 8.39112 1.33006
85.7361 14.2161 2.25351
118.444 19.6119 3.35403
55.2305 9.95503 1.73972
68.4314 10.244 1.51327
81.9222 15.5898 2.88667
61.8822 9.51116 1.48748
91.2162 16.7029 3.14345
57.2258 9.12748 1.50166
42.9896 7.0633 1.06684
45.0508 7.31893 1.20436
66.4136 12.6598 2.46622
95.5008 15.4485 2.23251
65.5353 12.2048 2.35834
66.7224 13.9797 2.56765
96.4754 15.5095 2.62769
85.4875 18.8764 4.10246
102.828 15.8697 2.55233
100.214 17.7819 3.24296
33.8548 7.37262 1.565
66.8223 12.1353 2.32873
94.7065 20.3704 3.97569
52.4846 11.0886 2.45787
78.7829 13.5649 2.4015
77.4129 15.8438 3.2186
45.7912 8.81279 1.86359
115.55 27.7291 6.68101
103.749 17.6494 3.3648
57.6978 11.4535 2.37937
62.312 11.2945 1.89322
161.013 30.7013 5.66713
70.7474 15.5627 3.5391
94.3706 19.8992 4.21381
135.894 28.6998 5.91337
74.3845 16.7307 4.14979
101.407 22.5749 5.1034
75.3596 16.7349 3.49541
108.578 26.0276 5.76282
108.018 28.8702 7.49269
121.471 25.576 5.66209
78.1129 19.1476 4.72722
59.6092 15.2189 3.96929
75.5079 16.8771 3.8072
67.7629 14.1408 3.28712
57.2515 13.2702 3.23007
162.695 36.0557 8.24485
57.8219 13.6967 3.35432
46.6044 13.2554 3.91869
76.4825 16.0983 3.36501
40.7295 10.1214 2.60219
67.1851 15.1331 3.56884
63.9132 15.1758 3.84005
86.4484 20.2288 4.8298
69.2701 19.1406 5.44349
43.2271 9.79214 1.95314
60.6762 17.5084 4.83019
63.4997 18.7385 5.5343
61.7789 14.0734 3.29402
90.114 24.2774 6.23281
85.8407 24.1636 6.83277
135.629 38.0523 10.8925
26.3616 7.48436 2.47059
39.1671 10.8655 3.17104
111.679 31.0379 9.50889
133.12 31.918 7.01899
97.8855 27.3419 7.14345
156.516 44.8105 11.9861
59.0451 20.6808 6.83787
51.4578 16.53 5.266
18.8242 6.68129 2.3912
36.7704 13.1908 4.26398
32.1372 10.8021 3.85338
20.3297 6.30604 2.52071
87.5469 29.0269 8.73037
43.4016 13.906 5.06838
81.4413 23.8692 7.1792
45.2106 15.2066 5.46681
94.0321 24.1015 6.26292
28.3593 7.89784 2.16326
57.3055 19.5867 6.83976
52.5783 15.9386 5.01666
71.2854 26.6249 9.79576
49.1954 12.8878 3.34616
44.5535 15.671 5.49839
33.7691 10.2682 3.44912
55.2265 17.8503 5.62932
58.325 21.8842 7.99131
32.9157 10.1967 3.95244
97.4279 32.416 10.9756
36.6159 10.7837 3.65654
58.9983 17.0935 5.6168
108.271 34.298 10.9956
53.0256 20.0996 7.86418
142.139 51.8323 17.7162
100.657 36.2574 13.4581
55.7828 16.9452 5.56648
65.7783 23.9666 8.81167
54.3949 20.3583 7.45377
51.0265 18.7701 6.95884
37.3793 10.6594 3.09569
82.8986 31.7336 11.3526
49.7668 24.0693 10.6726
80.7516 27.9092 9.73479
70.5509 25.3595 9.38485
32.5897 10.8409 4.00954
28.9632 10.9063 4.09688
65.431 27.0951 10.0467
39.4482 15.1627 5.92458
37.3236 16.8518 7.42256
89.4308 30.8508 10.8431
28.5079 10.8454 4.21583
59.481 22.1677 8.57086
46.6079 20.6153 9.34819
43.8874 18.6855 8.66932
46.3939 17.3589 6.38732
72.9675 28.9075 11.5628
36.3116 17.3118 8.41834
59.4047 22.0475 8.16136
51.1425 21.1337 8.8171
59.1124 20.4439 7.64229
56.5027 22.4543 8.68864
48.1682 21.3606 8.9321
66.7482 32.1975 16.0997
77.1542 28.6587 9.94915
34.4337 16.1524 7.19285
30.3313 15.1719 7.04335
21.67 6.20513 2.00219
51.0869 25.676 11.8987
63.4785 24.1468 9.01638
52.4599 27.3653 13.0032
33.1657 16.9519 9.24171
53.4883 22.0499 9.52201
24.0766 9.39594 4.63274
61.8459 31.1699 14.6576
39.1471 19.5551 10.9937
67.5434 29.2467 13.3901
61.183 25.525 11.5786
113.807 53.4684 26.1511
94.6057 42.6396 19.3307
33.3343 11.5999 4.44438
82.1228 36.2971 14.5305
49.8484 23.9418 10.8887
30.9338 14.8208 6.81446
54.0442 29.5289 15.0271
48.4885 22.6596 12.2896
73.9999 33.383 15.0669
42.3117 19.9134 10.0997
44.0919 19.5001 7.94781
25.8751 13.9191 7.55857
27.0308 11.0911 5.66783
47.1966 19.5249 7.27029
43.0167 18.7903 6.71166
70.6251 43.9307 23.9317
35.2198 18.1104 9.70783
41.7696 20.7908 10.2605
25.3189 13.8665 7.74721
32.5414 16.8265 8.60946
44.0541 24.8933 13.8529
68.1051 33.1305 15.0529
33.3206 21.3227 13.2645
42.8245 21.4584 11.5999
37.528 18.6393 9.60827
61.5029 29.7715 15.0307
41.8727 20.1282 8.9924
49.4832 29.1037 16.4711
36.1561 21.3435 13.3007
52.6956 28.867 15.0703
27.8966 13.9414 7.41945
56.6065 30.6601 15.2649
29.3472 18.9964 12.0901
17.2835 11.3593 8.04725
53.3758 27.6449 13.4465
39.3622 23.0098 13.0796
28.5016 18.5892 11.1861
21.8639 15.5376 11.5325
63.726 32.6087 16.6815
43.3929 21.4631 10.018
70.6915 45.3265 26.2139
32.2216 23.4487 17.5799
53.4872 29.6187 17.1146
71.592 37.297 19.9411
127.682 77.4227 42.1358
32.4301 23.4657 16.4541
13.8352 11.5841 10.3739
50.2347 28.2634 15.6797
34.6102 20.0525 11.6647
22.5783 15.729 12.3944
57.3306 27.7437 13.4982
47.4411 32.8623 20.8731
29.6819 19.1182 13.0447
50.3896 29.0701 16.6415
26.2722 16.4013 9.58847
25.3265 17.991 12.8863
26.8185 20.476 16.9595
54.0204 25.3596 11.04
31.3453 23.379 15.0975
27.6512 19.5604 13.7554
15.7317 11.3459 8.94127
35.2686 20.3106 12.5197
37.1 20.7645 11.5807
35.6503 22.3739 13.5993
64.4089 49.9796 34.9451
17.4117 12.3391 10.4797
22.8466 11.8743 7.97533
34.1691 22.253 13.9412
37.5373 24.5494 14.8959
21.9204 16.7259 11.7462
7.45728 7.56253 7.8425
25.3707 19.4728 16.5297
47.0292 25.6289 13.7619
15.9844 11.162 9.32645
34.6467 22.2341 15.1087
38.1654 26.6476 18.2793
37.2395 22.6449 12.5835
21.7899 19.792 16.7257
27.266 17.4027 11.9142
33.5644 21.4505 13.725
31.3876 25.4592 21.3728
36.593 20.7714 11.7841
25.0783 18.9048 14.4461
41.6541 30.4122 21.5235
42.905 30.652 20.1992
16.9711 10.8648 8.05578
33.2095 27.0078 19.5043
21.8993 19.1492 16.8936
16.4782 10.9883 10.1542
37.8508 23.0947 14.3339
37.4658 28.0752 21.4321
72.4977 49.3432 29.6983
21.7286 21.4287 19.3085
25.399 21.175 18.4327
24.8828 16.6037 12.7411
33.6398 25.9287 19.9757
39.7088 28.6636 19.9636
21.5145 14.852 10.9028
10.8101 7.07421 5.60598
38.7805 34.0186 26.7552
22.1266 13.6941 9.34343
17.9383 12.6641 8.75459
26.1036 26.2775 24.8565
30.9709 25.6473 21.7373
18.2641 14.873 13.8249
22.522 13.8826 9.8487
18.4475 13.2817 9.17157
31.3659 25.442 20.2223
37.4424 29.3133 21.67
12.7113 11.4856 11.1874
18.554 13.8343 11.5197
23.9314 21.4476 17.8254
12.0816 11.7776 13.0157
18.0075 10.0642 5.98875
22.2747 20.5844 20.3632
51.8621 39.0468 29.0391
58.9982 46.5052 32.0116
48.539 43.4689 35.2407
19.8814 19.829 17.9523
17.3928 18.3814 20.1292
35.0592 27.9046 22.1833
19.5846 15.6491 14.2538
19.7325 15.6199 14.847
35.6095 28.9568 22.5349
25.7643 22.8764 19.8501
28.5104 26.0851 23.5861
33.997 31.4268 27.3183
21.8022 18.2532 18.0375
35.1445 29.5928 25.1568
30.1395 27.3765 23.757
32.4094 32.9319 31.5699
21.1324 16.1901 16.3974
48.1833 40.4991 32.5903
34.2502 30.2994 25.1704
11.6982 7.41182 5.28519
19.9963 21.1121 21.7544
26.298 20.697 17.7227
17.7625 14.8882 13.7774
16.5046 11.0039 7.23037
25.3802 28.3398 26.939
31.1282 28.0814 26.0301
14.351 10.6433 10.4981
29.8739 22.656 14.2926
22.2612 26.5092 26.1975
27.0748 27.4697 26.1343
23.0697 27.9318 33.0652
19.5556 12.7931 11.3896
20.1838 15.7402 12.8398
22.9638 22.0344 19.6239
23.2255 25.9896 26.5673
22.7866 21.0342 20.8208
27.2592 25.5681 23.1776
8.83742 8.15607 10.1579
37.6013 42.6634 48.7859
44.157 30.0561 17.3011
18.3459 20.2393 21.0753
43.027 44.1719 39.3463
8.74198 5.95477 7.08505
26.2074 24.0304 19.0072
15.3307 15.1885 12.2985
27.7759 40.3574 46.774
30.2671 30.9571 34.8295
36.5153 30.7389 22.1322
13.8411 27.3531 41.1553
36.6279 33.7481 34.3627
22.8658 19.6013 21.8497
45.8852 44.9749 44.7739
21.0498 14.8981 12.053
14.7162 10.4146 8.54157
22.6427 22.4252 21.3403
20.7367 18.4593 14.587
18.171 21.4115 23.2818
21.7462 21.835 20.4758
16.6047 19.4697 20.6323
23.9396 24.1941 20.5605
15.3744 26.9971 36.7094
9.90862 7.58123 11.747
32.3278 34.1789 39.0117
24.6607 18.1796 11.8478
21.8898 27.2852 30.2177
29.2968 30.085 27.3863
19.415 31.175 42.3577
14.675 8.98379 9.45396
16.2772 17.1722 19.0796
26.5967 30.2378 33.1384
22.9898 22.0044 22.3073
29.9991 35.4694 35.9737
24.4913 35.3814 49.8766
30.066 23.7257 22.6686
43.9755 46.7131 39.8092
10.6939 18.522 28.7051
20.275 18.8677 18.9919
13.7209 15.7839 17.8613
11.2863 14.6636 18.8333
16.7013 13.4381 10.0396
23.1041 34.6534 40.4498
7.93883 8.80538 12.6903
6.83901 8.76829 15.55
27.1346 29.8515 32.3146
22.373 24.3007 27.2739
18.4998 24.3231 30.8415
13.4621 15.5995 25.228
23.5133 17.2912 12.4181
10.9181 10.8243 12.1777
20.0623 17.4515 13.6286
11.4958 13.6995 18.5175
37.4407 41.6009 38.3128
28.1702 44.5847 54.3118
14.8121 24.2994 40.5647
16.3959 12.6479 16.3724
20.5202 17.232 13.3981
20.3373 29.8804 39.6224
21.4422 24.4625 32.159
27.369 29.9186 32.3358
11.2637 12.3684 15.5662
15.8874 20.3451 28.8212
22.9279 22.2178 22.4629
24.3485 35.4319 48.6795
45.5288 44.9944 37.5068
15.7702 29.4761 48.403
28.1406 29.7257 28.4237
21.6085 31.5209 43.054
21.0377 20.8441 23.0588
19.0999 25.1361 29.5366
9.06242 13.2323 21.4712
12.7578 11.2735 10.8084
16.5317 21.1085 22.9613
23.6068 33.6292 39.8253
9.86096 17.9902 32.3325
16.7248 14.2207 12.7184
17.5893 31.2104 51.643
36.7794 41.842 43.8321
16.3071 22.6891 31.9971
17.5575 22.533 28.9909
19.1137 24.0395 26.9526
12.3389 17.3225 24.6582
25.2491 43.2758 62.2584
13.5525 10.2473 16.7304
25.0425 33.5019 40.1007
14.7752 17.8051 22.7406
11.1507 13.2886 18.8791
24.5524 37.7904 51.725
12.5522 10.0743 14.3335
29.1731 37.5582 42.3804
11.837 12.626 12.733
21.0614 39.9981 60.5094
19.5155 27.7628 41.3628
18.6137 24.7321 39.8702
25.4573 29.1531 30.5098
9.20123 11.2952 16.2891
10.8131 19.0977 31.7015
12.0199 13.5768 23.2889
18.1789 16.5569 15.7243
18.7114 25.8074 30.8797
21.424 27.1391 28.9314
11.1381 17.3481 25.4985
16.2359 25.1883 38.032
6.92547 6.69085 16.5712
44.1796 67.5052 85.3958
27.5255 36.8948 41.8208
6.81533 18.0099 41.7132
28.2374 29.4483 29.776
11.3359 17.3257 24.883
11.5096 17.984 28.8881
18.2678 22.5802 21.9961
14.3517 29.2434 43.4596
8.07335 17.0398 36.6018
18.0805 21.6972 29.4105
17.7367 27.8919 37.9271
7.14998 11.4631 25.4356
15.8944 21.118 34.9118
15.2878 15.238 20.9782
19.2289 22.8571 23.3689
8.39761 14.8945 26.0121
12.1822 17.389 26.8634
15.1366 21.4303 32.9514
10.992 9.80016 11.5812
25.2155 39.1363 49.7876
12.3078 17.3813 23.4805
14.5804 25.5149 33.7861
12.3682 28.3045 53.3368
22.6292 30.6912 46.2631
20.8945 27.7141 28.6752
6.16365 21.0782 51.1407
23.5097 31.7479 45.024
8.29925 10.1058 21.5497
14.0896 16.5505 20.1506
14.1409 27.3733 48.5385
13.6074 19.1077 34.7331
17.1688 21.6566 32.1509
16.7777 21.5747 27.9985
16.5266 25.8926 39.0443
17.7253 30.5658 52.5648
30.1101 45.3269 63.2555
17.2346 25.1985 46.9948
32.5269 46.0733 60.0996
20.7722 30.3507 39.2895
11.6162 18.228 26.8126
6.7035 14.0017 27.1997
8.49312 10.6686 17.4284
12.5999 22.4515 36.91
8.42958 9.62861 16.7354
18.4431 33.2605 52.7606
13.0975 14.6091 17.7421
11.3075 16.5971 20.1701
5.68331 14.5156 31.6502
10.1981 14.3652 21.8
8.37209 18.2658 37.6864
11.2887 21.1764 54.3664
30.8568 30.9955 22.9786
14.9866 30.2796 43.7066
7.36967 12.9824 25.4747
9.50584 15.9962 32.2773
20.5312 33.6265 54.1434
16.3676 17.4335 18.7617
12.5986 24.7552 38.8303
8.28754 11.7052 23.3946
14.5327 22.0614 30.7395
14.0731 25.7493 45.065
17.5186 26.3542 37
19.0901 37.0334 56.9406
5.97306 3.7344 7.09204
16.192 32.4736 55.9094
16.8811 27.2226 41.0955
12.1901 20.4103 35.5645
16.1248 28.8681 46.6403
13.9833 21.7536 33.2778
12.1188 22.5664 36.4666
11.6248 29.499 63.9008
11.9164 12.1119 24.0106
15.5626 20.3763 29.1335
18.0588 28.4102 38.2465
9.18833 16.1996 25.7745
12.2909 22.7191 34.9016
6.83547 12.9766 23.3653
9.64825 22.0316 47.1741
13.4347 17.1918 25.7021
15.276 30.9081 53.273
13.3473 23.0657 46.1518
13.6107 18.6285 27.1052
11.967 24.8123 45.2837
10.1228 14.5574 21.9382
5.70853 10.6009 25.5375
15.6904 30.0531 49.4891
9.2676 13.9171 28.6821
14.7918 27.1172 60.5785
27.7701 41.5893 47.4053
6.70517 14.58 34.1473
17.2767 29.6941 39.7247
11.8947 30.0316 61.6551
11.552 16.3622 30.1153
9.26293 20.0336 46.6183
14.0194 22.5187 54.0698
31.5914 51.9851 68.2907
13.4083 22.2119 34.6495
6.61992 12.505 24.3428
7.55033 15.5628 30.4566
5.48053 6.62541 19.462
17.9657 32.9735 58.1367
24.5651 43.8458 58.2892
7.02 14.6404 31.0734
11.8641 25.3762 46.0279
5.73205 9.14367 27.9617
17.6068 27.5246 34.8026
9.9178 26.5609 56.5755
16.1038 25.469 39.8851
8.34824 13.4289 21.3318
10.466 28.6833 66.3888
14.4418 18.4894 28.7858
14.6657 28.0078 47.1457
14.2156 26.2273 34.802
5.43418 13.6925 24.9116
10.9783 32.1115 66.3649
11.1325 22.9118 50.4307
9.69965 23.6406 68.6476
17.3048 22.8935 39.0672
15.7497 29.5166 47.4011
8.56628 15.0636 37.3221
12.17 15.8256 19.7464
11.0683 22.5699 30.5947
9.07554 30.5184 70.218
12.2445 22.7865 48.7192
9.53891 15.2779 31.29
7.75195 12.7364 26.8695
11.5704 25.381 58.5986
25.0912 55.4287 102.017
10.8856 16.6782 50.5433
19.4115 26.9351 39.3062
10.7177 19.1392 34.4874
9.97622 13.3698 12.1443
2.89958 10.1386 28.0977
14.2945 30.5307 51.5799
6.51002 14.4018 35.883
11.7998 23.465 46.9165
10.3482 21.501 49.9894
13.5042 23.9781 41.3856
5.65573 11.3389 29.9542
9.25456 18.8723 43.0937
7.57772 11.0901 35.3986
17.3137 27.5 33.8745
5.74084 9.51671 19.0046
10.8329 20.0938 28.766
11.026 32.3403 66.9667
11.5516 23.8489 48.5326
9.48817 18.7925 41.239
6.93063 10.8576 24.5427
9.07747 20.0871 39.8605
7.88297 13.4582 25.7637
7.21231 14.3241 27.9919
9.19258 21.9013 48.531
8.57994 15.7308 31.8058
6.95168 18.0653 57.3481
18.0032 27.8548 36.4804
9.21199 20.7801 38.837
10.173 27.2649 57.1897
9.9542 16.6177 32.0427
7.24011 15.5125 30.047
3.23726 8.2603 32.9931
11.471 21.1863 38.8134
4.19675 2.83357 8.18085
5.91254 11.1966 24.311
9.46287 15.7807 21.8991
7.81647 18.4825 34.4379
6.99936 13.7527 22.7916
6.9211 25.3923 71.9264
12.2985 18.2155 26.1828
3.9012 9.05724 24.4749
5.98526 11.8328 32.4699
11.6984 23.0209 38.5443
7.53311 20.4115 50.7179
9.79996 18.6181 37.0324
8.00818 13.7607 24.7695
4.45739 9.70503 23.9346
10.3613 27.3676 50.1543
4.85221 9.49427 27.7637
9.90216 24.1383 51.6743
6.76393 10.7657 25.2973
8.33736 17.4442 33.9997
10.6147 30.6997 82.5236
13.5283 19.4354 24.4498
4.82953 16.3095 47.544
10.9294 22.4198 46.5372
8.6926 18.7985 50.1841
12.2969 24.5582 44.248
4.96634 6.8783 15.9709
5.94374 10.5323 18.7671
4.35234 10.5254 30.0178
8.72733 19.4961 42.7369
9.66086 16.9711 26.369
6.89879 15.102 26.3836
9.11561 27.7084 61.482
11.4891 30.2593 70.7176
15.0982 36.5177 82.2327
9.281 14.0639 37.0909
12.9921 27.3868 43.0485
4.78618 13.111 28.0251
5.19033 18.5822 50.2217
6.45168 13.7076 37.0327
3.90507 3.52609 12.901
6.37858 14.4868 32.2227
5.93491 14.0806 30.3012
5.73415 17.9913 60.8636
10.6477 14.5501 31.0008
10.0704 21.0502 38.1326
7.36696 16.3135 30.4106
5.18085 14.6192 35.489
7.25854 18.39 39.5838
4.81431 8.11969 24.1433
6.16566 11.2688 22.2193
7.00197 20.2265 47.6974
5.22817 8.08246 20.6563
5.64446 12.6343 24.033
4.16791 14.3768 50.1131
8.133 13.9901 46.6917
13.5098 22.0083 30.5715
8.34235 17.2874 23.8795
6.92879 24.1299 65.2611
12.1945 25.6376 37.4209
3.28541 12.9301 35.3271
4.73009 10.8672 29.7046
5.15782 11.946 24.8849
3.79722 11.4896 38.3998
6.1797 7.79389 9.57361
2.95821 9.73261 26.3671
4.79989 12.4485 27.0764
5.44888 19.7275 60.5159
9.92635 21.2173 50.3965
7.02315 11.2337 21.8595
5.77434 17.865 56.4648
11.2118 23.8725 51.7879
11.1264 28.2884 63.1491
6.20689 10.9019 43.774
12.7865 23.0737 28.9148
6.04632 20.3279 43.2948
4.40987 11.9623 37.1854
10.1052 27.2064 49.0758
3.76791 11.3568 33.3111
4.50066 14.1634 51.6837
8.52927 16.191 43.171
8.15165 18.3774 43.431
7.24501 15.0446 28.7399
3.76254 10.3662 35.0895
8.0681 17.9678 37.4352
6.69057 18.9342 47.7545
6.1315 10.3851 19.749
3.39952 10.1515 28.6372
4.86823 12.0509 32.1622
