# pn-170911/RbIIF-68-RbIIR-1280-1959.psd
# Power spectrum* (dif=0,1,2) (really just |FT|^2)
# NOTE: only the first half! (symmetric)
# weeks: 1280-1959
# 991 clock-days, 46 excluded
# PSD: 1441
535.184 0.0470808 0.0211649
29275.5 0.563235 0.0133275
133126 2.72321 0.0133242
24753 0.901304 0.0131284
67685.3 5.15467 0.0130999
8329.11 0.760694 0.0128983
8318.25 1.15676 0.0129847
4081.65 0.728664 0.0130191
3555.22 0.863989 0.0127908
2533.9 0.752429 0.0128113
2183.76 0.828919 0.0138585
1656.76 0.759259 0.0123557
1545.4 0.833056 0.0130823
1281.1 0.800196 0.0136366
1105.65 0.836981 0.0130478
975.196 0.830548 0.0134058
860.582 0.822818 0.0135121
812.152 0.886376 0.0144922
680.05 0.84799 0.0139368
600.658 0.841975 0.0144599
540.411 0.868187 0.0149067
554.901 0.943182 0.0146896
474.261 0.94289 0.0145043
471.015 0.986417 0.0165852
440.349 1.0058 0.0153662
401.992 0.975758 0.016122
380.398 1.01592 0.0158947
372.62 1.08986 0.0155364
344.812 1.09085 0.0168573
325.555 1.09418 0.0175836
339.007 1.24673 0.0182048
307.442 1.18431 0.0179951
299.36 1.22333 0.0192763
283.389 1.28379 0.0192063
286.12 1.36741 0.0210837
267.713 1.33522 0.0202966
248.918 1.30515 0.0207731
246.892 1.42161 0.0213699
247.779 1.47963 0.0234763
236.511 1.47784 0.0240346
227.649 1.48799 0.0234205
224.571 1.60116 0.0261967
216.435 1.58076 0.0265685
215.191 1.67727 0.0274816
218.971 1.82402 0.0302207
202.282 1.7206 0.0301114
201.862 1.80062 0.0316609
196.281 1.83055 0.0326546
204.3 2.02491 0.0357423
188.007 1.91622 0.0348288
192.692 2.06152 0.0371805
181.849 2.04828 0.0370809
180.039 2.08412 0.0390388
177.72 2.16987 0.0404381
181.707 2.28795 0.0456149
171.13 2.34139 0.0482565
172.107 2.35693 0.0492637
167.849 2.39982 0.0523975
165.155 2.46583 0.0523528
176.498 2.74269 0.0581742
161.558 2.51564 0.0540489
157.772 2.57549 0.0574652
158.152 2.69849 0.0626908
160.719 2.85114 0.0680302
155.407 2.83606 0.0674773
156.673 2.95187 0.0726157
161.55 3.05333 0.0771257
150.669 3.02435 0.0771965
155.49 3.14753 0.0824644
149.339 3.15817 0.0843971
145.319 3.20214 0.0894933
146.682 3.28361 0.0881724
140.7 3.24101 0.0947798
144.936 3.42238 0.100872
139.385 3.47311 0.106208
142.058 3.54566 0.107234
142.64 3.66761 0.114272
136.875 3.6482 0.113679
134.41 3.64407 0.118176
134.544 3.79964 0.13064
128.509 3.74855 0.129235
133.243 3.83642 0.132297
134.186 4.08049 0.142527
131.021 4.0335 0.142881
131.707 4.09272 0.152148
129.659 4.20106 0.160188
135.271 4.55928 0.174011
128.327 4.38261 0.170164
120.078 4.20846 0.169829
127.294 4.55502 0.182757
130.948 4.7597 0.195463
127.879 4.78186 0.200399
124.635 4.81844 0.205102
129.019 5.07553 0.221153
121.963 4.90125 0.218719
121.315 4.93292 0.224997
124.899 5.27585 0.244278
129.208 5.46828 0.259593
123.434 5.37529 0.258895
111.72 4.99172 0.248527
125.126 5.6797 0.285934
121.674 5.57824 0.279691
119.994 5.71322 0.297928
123.479 5.97678 0.310932
116.168 5.6242 0.300974
115.956 5.86649 0.317746
115.051 5.9216 0.329823
113.701 6.0084 0.336178
108.406 5.82213 0.340238
108.431 5.93095 0.354988
118.688 6.43384 0.381635
113.422 6.29108 0.37977
108.957 6.3322 0.388219
112.119 6.67341 0.415212
119.127 7.01537 0.442386
114.52 6.89424 0.445991
110.813 6.82796 0.450192
112.357 7.04681 0.470198
105.834 6.71714 0.460254
105.523 6.90129 0.474313
112.749 7.47393 0.52187
106.442 7.27049 0.519539
105.192 7.16584 0.515002
104.283 7.23734 0.532958
109.629 7.75487 0.582186
101.762 7.27624 0.555818
107.295 7.86823 0.609903
105.147 7.77742 0.605369
101.333 7.80086 0.615212
103.881 7.87657 0.627307
99.5894 7.74978 0.635007
98.5869 7.77007 0.653109
102.972 8.33276 0.700104
94.7225 7.81466 0.666675
96.4101 7.96701 0.693287
104.001 8.80774 0.769184
98.8457 8.64442 0.763069
98.107 8.4189 0.766273
94.3915 8.31648 0.766719
97.7963 8.65977 0.803133
99.5356 8.88832 0.832216
95.159 8.77466 0.841181
95.7501 8.80922 0.849822
93.8006 8.88288 0.881751
94.2873 8.98292 0.894759
96.4304 9.36147 0.94396
91.5139 9.01204 0.916138
92.8825 9.35924 0.96658
93.7356 9.33661 0.996311
101.036 10.3621 1.10532
93.3236 9.53498 1.0137
94.9665 10.0321 1.10212
83.5983 8.95063 0.982003
94.9285 10.3177 1.15339
84.7247 9.17567 1.04763
84.9479 9.56807 1.10657
88.8214 9.97949 1.15001
84.8057 9.62531 1.12968
91.4625 10.5025 1.24724
92.7156 10.7181 1.28555
88.8185 10.4734 1.29534
88.2088 10.4937 1.30302
85.7398 10.4369 1.2991
94.8411 11.4517 1.43229
87.051 10.6537 1.35474
91.396 11.5532 1.48519
84.2344 10.6743 1.40613
86.1347 11.1283 1.46919
82.099 10.7425 1.4352
84.9002 11.2062 1.52036
84.7366 11.432 1.56568
81.0923 10.8926 1.5054
83.8243 11.5233 1.61516
85.0106 11.7515 1.67289
84.1462 11.7064 1.6786
78.8243 11.0684 1.61295
80.2283 11.3791 1.64323
77.4832 11.1824 1.66048
80.2374 11.8118 1.7573
73.5417 11.0161 1.70327
79.1153 11.6814 1.77788
79.196 11.925 1.84099
80.2253 12.2541 1.92095
79.283 12.2328 1.94177
73.7719 11.5287 1.85456
83.2128 13.1629 2.14167
81.2728 12.7727 2.08966
79.2916 12.6487 2.06242
75.0037 12.3947 2.09024
80.0596 13.1648 2.20661
73.8655 12.3856 2.1331
76.3831 13.0113 2.28323
76.9142 12.7645 2.19789
74.8634 12.8442 2.23785
72.8131 12.6311 2.26086
73.3393 12.8245 2.28658
74.6422 13.1167 2.36083
72.712 13.0752 2.38477
75.2066 13.6386 2.54191
73.8427 13.3703 2.50472
72.2306 13.1972 2.50202
76.9393 14.2258 2.68622
72.2901 13.6249 2.62624
73.8579 14.1254 2.76411
72.0738 13.7495 2.66669
73.0193 14.321 2.85002
73.8821 14.485 2.88093
68.4947 13.3841 2.7125
72.1413 14.517 2.92664
67.1482 13.63 2.8295
66.9208 13.4473 2.79143
71.3498 14.3763 2.96065
68.3365 14.3394 3.06052
65.2772 13.6913 2.94866
65.2436 13.8372 2.98703
68.1763 14.4669 3.14645
67.7948 14.5204 3.1412
66.9503 14.4968 3.18252
69.0733 15.1783 3.39558
65.4393 14.3062 3.19327
64.9838 14.451 3.29068
62.2831 14.186 3.27736
68.0894 15.1891 3.49193
62.8902 14.4914 3.38491
63.6094 14.8022 3.50271
65.4754 15.1763 3.5731
64.9219 15.1697 3.62144
60.6045 14.3498 3.48888
63.2497 15.0211 3.664
62.9217 15.0467 3.67243
60.6951 14.6833 3.61865
60.0635 14.625 3.62955
62.3067 15.3686 3.8661
62.7213 15.6519 3.97188
62.6067 15.745 4.06358
61.123 15.5878 4.04148
59.8593 15.1415 3.92844
61.3275 15.7722 4.15734
57.4144 14.7148 3.88011
61.5841 16.2901 4.36636
62.7738 16.4115 4.40218
59.7383 15.7961 4.2735
60.9794 16.2143 4.42346
58.6949 16.1609 4.52538
59.6921 16.0046 4.42518
62.9495 17.509 4.95608
57.6086 15.9441 4.50099
59.7628 16.2549 4.52623
59.7289 16.8924 4.84436
57.911 16.5079 4.81697
58.6302 16.974 5.00697
55.9661 16.3065 4.83116
59.6894 17.1835 5.0432
60.6133 17.7587 5.28945
58.0352 17.0926 5.14463
54.3482 16.2435 4.90499
56.8752 16.8654 5.11169
54.5102 16.4425 5.04226
55.3994 16.9456 5.3136
57.2138 17.4546 5.39349
52.9714 16.1744 5.03115
55.4832 17.4093 5.52302
56.0377 17.6762 5.60104
49.6503 15.779 5.10348
52.5802 16.6838 5.37899
53.4302 17.1456 5.58023
51.3771 16.8501 5.55579
52.119 17.1361 5.64356
51.3204 16.8143 5.61417
53.4702 17.3538 5.80806
50.4157 16.7695 5.68831
52.9716 17.8236 6.02454
49.3087 16.7746 5.82917
51.125 17.3571 5.96269
50.9407 17.5367 6.0441
50.3832 17.2452 5.99746
49.2969 17.1643 6.08333
48.7657 16.8748 5.96189
48.197 16.7394 5.96323
53.027 18.9028 6.83037
49.4287 17.5682 6.33396
50.3421 18.1693 6.61452
48.6971 17.6823 6.4954
48.7973 18.2467 6.86797
48.4709 17.7876 6.60945
47.481 17.4243 6.54097
50.9129 18.7071 7.03422
50.8608 19.1611 7.29141
53.64 20.163 7.64162
48.0688 18.3344 7.09917
48.4158 18.4133 7.19118
49.0456 18.7597 7.26672
46.1926 18.05 7.12194
46.3591 18.3204 7.30771
44.35 17.5598 7.13063
46.6989 18.0687 7.14577
46.6808 18.4171 7.32878
47.508 19.1396 7.72555
45.6094 18.489 7.59337
44.7041 18.303 7.6308
44.8482 18.2014 7.58186
46.4581 18.8325 7.75153
46.1234 19.062 7.98584
44.7002 18.6268 7.84688
43.3648 18.3936 7.81534
42.1186 17.8734 7.62224
44.6677 18.8543 8.14484
45.5913 19.3535 8.34999
45.705 19.7078 8.6785
47.0832 20.4214 8.90818
45.6893 19.8364 8.78519
44.8932 19.3224 8.37914
42.0058 18.7595 8.58558
44.7368 19.7448 8.79842
42.4967 18.7684 8.39054
43.1151 19.3753 8.78882
38.8291 17.4057 8.07596
42.2616 19.2183 8.88454
41.2493 18.634 8.51586
40.5997 18.7184 8.65733
39.0048 18.2685 8.62835
43.5937 20.251 9.49479
43.3735 20.335 9.61894
39.872 18.7447 9.07491
41.0837 19.1796 9.03692
37.6866 18.1396 8.8792
39.5226 18.7307 8.94739
38.3611 18.6633 9.18966
41.4911 20.1145 9.8424
39.0585 19.0569 9.49752
40.4287 19.7448 9.73093
39.6372 19.5223 9.7005
37.3387 18.5499 9.42124
40.2121 19.9661 10.0856
37.7004 18.8938 9.73463
39.5867 19.8411 10.0418
37.983 19.549 10.1583
38.0177 18.9729 9.68696
39.4489 20.6292 10.7771
38.564 19.9787 10.4926
37.1634 19.4391 10.3852
36.2354 18.5202 9.69549
36.2086 19.0115 10.0337
37.3895 19.9336 10.6195
35.7819 19.1887 10.4411
35.7091 18.9241 10.3824
38.276 20.3269 11.0015
36.5699 19.6729 10.7662
35.6527 19.5959 10.9923
36.4382 19.5092 10.7153
35.8024 19.7151 11.0608
37.3237 20.4981 11.3696
37.9981 20.6046 11.2856
36.8595 20.8537 11.8254
36.287 19.821 10.9063
34.3361 19.6431 11.2926
34.348 19.3602 11.0989
35.3941 20.5579 12.188
36.7121 20.5659 11.7153
32.3762 18.6566 10.9676
34.1859 19.8744 11.6717
34.005 19.6721 11.5628
34.6365 20.2343 12.0252
34.2266 19.67 11.4774
33.5504 20.5062 12.5656
34.1022 19.7357 11.6331
34.5997 20.5554 12.2334
31.7932 18.8804 11.4249
32.4487 19.989 12.3655
33.3485 20.4443 12.625
33.6425 20.1562 12.2263
32.5508 20.135 12.5479
32.0205 19.6583 12.2157
29.5896 18.6621 11.9918
32.6856 20.4105 13.0391
32.4817 19.7669 12.3035
31.2129 19.8116 12.8591
32.3347 19.9622 12.4847
31.1426 19.7289 12.6187
30.046 19.2156 12.5705
30.5825 19.4608 12.596
30.1189 19.0253 12.2299
29.1017 18.9077 12.6292
32.5788 21.1884 13.9121
32.0255 21.1667 14.145
31.7046 20.6451 13.6326
30.5842 20.0567 13.3904
30.2125 19.9928 13.4527
31.0569 20.7362 13.864
30.1837 20.3195 13.86
31.3197 21.2764 14.568
30.959 20.6529 14.1922
30.4272 20.7083 14.331
29.8471 20.1327 13.7052
29.4076 20.4407 14.5563
31.0487 20.9834 14.1881
29.3738 20.7113 14.7541
29.2231 20.4218 14.3462
29.1251 20.4429 14.5356
28.0061 19.6598 14.0946
28.8241 20.1165 14.2964
27.4918 19.6416 14.2495
28.6383 20.1775 14.5616
29.3598 21.3129 15.5393
28.8278 20.7925 15.2145
28.3237 20.1609 14.5443
26.62 19.7299 14.8422
29.2472 21.1016 15.4562
28.087 20.4013 14.8294
26.9452 20.1455 15.2342
26.6463 19.6675 14.9248
28.3523 20.8424 15.3737
25.6872 19.1166 14.4864
27.8389 20.8648 15.8673
26.9211 20.3535 15.5392
26.8809 20.1947 15.318
25.6151 19.5603 15.1883
26.816 20.3161 15.6344
26.6975 20.4008 15.9138
26.1019 20.195 15.8211
25.8653 19.9736 15.581
25.8288 20.2472 16.1957
26.772 20.6798 16.2423
25.8152 20.1007 15.8306
25.4866 19.9876 15.8481
26.1473 20.6139 16.4473
26.0944 20.6732 16.5154
25.4576 20.4603 16.5933
26.4076 20.8841 16.8099
25.3301 20.2753 16.5604
25.6178 20.5813 16.8455
25.2641 20.4456 16.7552
24.5807 20.4103 17.0476
26.9215 21.7853 17.7554
24.188 19.9328 16.719
24.1294 20.0181 16.9477
25.1483 20.6289 17.1516
24.691 20.6376 17.3712
23.781 19.9663 17.1501
25.0361 20.7796 17.4747
22.8874 19.5158 16.9683
24.7999 20.711 17.5086
23.482 19.7902 17.059
24.8812 21.4699 18.4237
24.598 21.201 18.319
22.9412 19.8651 17.4064
23.426 20.497 18.0071
22.7705 19.8091 17.5461
23.7263 20.8518 18.4596
23.4033 20.4826 17.7803
21.7769 19.2771 17.4644
23.9545 21.0424 18.8547
23.5801 20.9366 18.7938
23.8564 21.2992 19.3728
23.738 20.8681 18.5599
22.8914 20.6634 18.8139
22.7418 20.7639 19.1448
23.1061 20.3522 18.2984
22.805 20.6917 18.7772
22.6014 20.4935 18.8512
22.2131 20.8656 19.9065
23.5162 20.5834 18.5744
22.2941 20.5519 19.0845
22.1166 20.4707 19.0674
21.9025 20.5679 19.7288
22.4006 20.6358 19.1403
22.2781 21.0479 19.9731
22.0644 21.1677 20.4996
22.108 20.5968 19.758
22.4468 21.1129 19.9698
21.7057 20.7866 20.0416
22.2602 21.469 20.6714
21.5988 20.4637 19.6453
20.4763 20.1238 19.9801
21.2638 20.3547 19.9391
20.7439 19.6163 19.2208
21.428 20.6772 20.0081
20.4851 20.3681 20.6156
20.4593 19.7835 19.6644
20.2161 19.7754 19.4902
20.1638 19.978 20.0418
21.5814 21.4756 21.4945
19.7759 19.5798 19.7653
21.0357 21.5644 22.1674
20.7467 20.8605 21.4309
20.4438 20.4158 20.8377
20.1441 20.2153 20.4912
19.9149 19.8385 20.0486
19.7443 20.2681 20.8345
19.7204 20.1099 20.818
19.8181 20.4761 21.5083
20.2395 20.8054 21.3381
19.7437 20.8158 22.3044
20.7188 21.4089 22.5499
20.7384 21.2611 21.6795
18.3682 19.4614 20.9737
19.3948 20.593 22.1592
18.5254 19.0655 20.2661
19.4878 20.462 21.5459
18.5312 20.0306 21.8476
18.3107 19.4807 21.2489
19.3674 20.462 21.8241
19.4278 20.9375 22.641
18.5478 19.7296 21.3348
18.4716 20.1043 22.1704
18.5143 20.46 23.174
19.4625 20.1849 21.3032
17.7917 19.8267 22.4401
19.126 20.7379 22.9276
19.6779 21.119 22.7496
19.3592 21.8875 24.5512
18.9966 20.9485 23.1845
18.3592 20.6631 23.4848
18.2227 20.0407 22.6055
18.7589 21.2229 23.8366
17.4419 19.5553 22.412
17.6121 19.961 22.7347
17.6351 19.1816 21.5943
17.551 20.4125 23.7404
17.3978 19.333 22.0274
17.2397 19.8868 23.1619
18.3799 21.205 24.1941
16.9983 19.4441 22.7801
16.9594 19.8642 23.6065
16.8697 19.4347 23.0522
18.1076 20.4254 23.4784
17.4915 20.0395 23.1883
16.4825 19.4723 23.1092
16.563 19.6028 23.5063
16.9117 20.0749 24.254
16.5248 18.9912 22.6367
16.4522 18.874 22.2455
17.3929 20.7877 24.4814
15.8018 18.8578 23.23
17.4745 20.9996 25.2712
16.5215 19.9706 24.5086
16.891 20.9796 26.231
17.2143 20.1817 24.2857
17.1804 21.0227 25.892
16.7826 20.6877 25.8032
16.2171 19.3589 23.8595
15.8452 19.1304 23.5202
16.0399 19.5347 24.4738
16.5894 20.507 25.1633
16.552 20.5422 25.1617
14.7839 18.5294 23.556
15.8764 19.6293 24.5953
15.7843 19.7777 25.0079
15.9237 20.0542 25.5988
15.7173 19.2846 24.1393
15.8038 20.3136 26.2441
16.4265 20.8607 26.5657
14.9346 18.4632 23.624
15.2868 19.3297 24.65
15.2275 19.7499 25.3094
15.0123 19.4343 25.1658
14.3094 18.4871 24.604
15.3338 19.5594 25.7279
16.1195 20.4607 26.0736
15.0834 19.8124 26.4574
16.2139 20.7129 26.3652
14.603 19.5964 26.7455
15.0197 19.2187 25.3274
14.7081 19.4191 25.6765
15.3102 20.602 28.1683
15.7028 20.0825 25.9731
14.7302 20.1919 27.3784
14.3701 19.3709 26.5167
14.2288 18.744 25.4294
14.4379 19.2244 26.4047
15.4539 20.3985 27.134
15.1827 20.4063 27.5224
14.0388 18.8391 25.8016
14.6906 20.2496 27.8164
14.4718 19.943 28.0692
15.2402 20.7287 28.7388
14.9226 20.4621 28.488
15.6669 21.2793 29.4985
16.3903 22.6638 31.1428
15.0841 20.5759 28.1777
14.5517 20.3441 29.055
14.8659 20.1113 27.5786
13.349 19.1349 27.9761
14.6743 20.0409 27.6892
13.4405 19.0145 27.6839
13.9788 19.1861 27.2927
15.1634 20.6261 28.0748
13.4123 19.2559 28.2327
14.118 20.0403 28.8398
14.7507 21.1937 30.3643
14.0605 19.8197 28.1122
13.1481 19.0008 28.0229
14.3827 20.5626 29.4328
13.3872 18.9171 27.4171
13.8974 20.4946 30.4911
14.1211 19.973 29.2498
13.888 19.7182 28.3021
13.6608 19.9345 28.9504
13.3779 19.4253 28.6312
12.3913 18.1302 27.7561
13.7482 19.5733 28.4488
12.8484 18.9398 28.0601
13.0127 19.4796 29.4908
13.4695 19.7756 29.6654
13.3385 19.7164 29.9052
13.5592 20.5321 31.6421
13.5452 19.3048 28.8354
13.9468 20.613 29.5248
12.8043 20.2965 31.8062
13.1851 19.8771 31.0976
13.8749 19.9582 29.622
12.8243 19.4151 29.6187
12.3001 18.1486 28.1398
13.0488 19.8622 30.1602
12.3995 18.8259 29.5754
12.6542 18.3623 26.8638
11.7641 18.4511 28.8137
11.9122 18.2057 28.3065
11.7207 18.3307 29.31
12.3251 18.9805 29.7496
11.6131 17.8541 29.0576
13.3742 20.5046 31.4351
12.4266 19.2506 30.4901
11.9602 17.759 27.8015
12.9462 20.5146 31.7297
12.2353 19.5834 31.08
12.0768 19.2679 30.7049
12.0018 19.2774 30.903
11.0509 17.1477 28.1857
12.0306 19.0441 30.2191
11.9447 18.8726 30.6787
12.5386 19.9903 32.2003
12.1654 18.9935 29.9362
11.0851 17.9615 29.7027
11.8988 19.155 31.1681
12.0548 19.4509 31.4496
12.5769 20.7649 34.7078
12.5344 19.2868 30.6528
11.8188 19.4162 31.4325
11.0865 18.1642 30.384
10.8431 17.6356 29.8207
11.5124 19.1299 32.2328
12.0408 19.5294 32.6916
12.4361 20.3281 32.5939
11.0207 18.0746 30.5831
11.1834 18.2122 30.3156
11.1979 18.6922 30.7899
10.9322 18.2785 30.7777
10.8978 18.633 32.4268
11.3503 18.8942 32.0618
11.449 19.3558 32.9227
11.0561 18.2087 31.407
11.6578 19.6689 33.5314
11.5035 19.0254 31.6921
10.457 17.6442 30.8123
11.6053 19.544 32.5855
11.5594 19.9897 34.2463
11.3266 19.2096 33.0832
11.4941 19.9454 33.9178
11.0589 19.7838 35.325
10.7149 18.2253 32.7803
11.061 18.2723 31.0395
10.7269 18.5052 32.5701
11.155 19.3003 33.2494
10.624 18.2235 32.0827
11.2187 19.5962 33.2699
10.6754 19.6119 35.4819
10.8681 19.2337 34.864
10.5981 18.3158 33.0328
10.626 18.4752 33.2051
10.6932 18.4675 32.5171
10.4284 18.4751 33.6953
11.2086 19.4955 34.3177
11.3832 20.2791 35.677
10.5494 18.713 33.8602
10.6059 19.0105 34.0381
10.1022 17.8625 32.5263
10.1957 18.1382 32.3916
10.0508 18.5241 34.7646
10.8622 19.5462 35.6862
10.5461 19.1187 35.3329
10.804 19.1487 33.9902
10.1416 18.3419 33.6844
9.91965 17.5296 31.746
9.7003 17.8427 32.6871
9.61738 17.8431 33.8953
9.80581 17.1168 31.2167
9.9048 18.9247 35.5665
9.91629 17.905 33.4935
10.3254 19.1217 35.1509
10.0079 18.9586 35.9746
9.85253 17.4651 32.2564
9.39056 17.158 31.3041
8.95519 17.5016 34.0053
9.55762 17.6642 33.2561
9.39548 17.7701 34.5991
9.68157 17.6112 33.3496
9.89895 18.1628 33.3291
9.49787 18.0345 33.3537
9.09613 18.1176 35.8288
9.43742 17.2372 33.2348
9.38344 17.3283 32.4435
8.79511 16.8024 33.1218
9.78287 18.9579 36.4854
9.45682 17.4754 33.2588
9.4215 18.2759 34.4764
8.71719 16.7548 33.3047
8.76649 17.0095 33.951
8.9949 17.3205 34.3087
9.23029 17.3132 34.1004
9.45278 18.0372 34.5622
9.28109 18.1279 35.5099
8.90604 16.9489 33.1436
9.25277 18.8203 37.5448
9.54356 18.8506 38.2884
9.90647 18.2843 35.3545
9.33354 18.2479 35.7325
8.61749 16.8116 33.5735
8.9136 17.4691 35.0894
9.17829 17.9136 35.7387
9.19075 17.7976 34.9223
8.87663 17.8374 36.5543
9.31723 18.1012 36.1278
9.27604 17.9431 34.3962
8.44043 17.5746 34.9938
7.88767 16.1941 35.2309
9.1696 17.4645 34.1106
8.80661 17.8026 35.3173
8.61511 17.8659 36.2258
8.43376 17.3518 36.21
8.41886 16.4 33.2735
8.24974 16.9118 35.7805
8.7303 17.3152 35.1539
8.52987 17.2153 35.2659
8.30995 16.6769 34.9021
8.52576 17.3355 36.104
8.48736 17.1294 35.5443
8.8095 17.7862 36.1482
8.10428 16.7794 35.9383
8.66981 17.5703 36.8166
9.02587 18.3227 36.8719
8.42959 17.2816 35.8098
8.38429 17.3367 36.0587
8.38055 17.5284 37.1211
8.37378 16.9528 34.6156
7.82809 16.7681 36.6103
8.30272 17.2399 36.6446
8.72601 18.2135 37.2415
7.80797 16.569 35.5743
8.05569 16.9614 35.7161
8.08577 17.3197 37.4938
8.04341 16.555 35.6994
8.02844 16.8069 35.6848
7.69828 16.7095 38.1427
8.55247 17.2189 35.9642
8.30573 17.7294 37.6082
7.87992 16.0802 33.3999
7.70117 17.1958 37.4619
7.98008 16.9504 36.0765
7.3496 15.8755 35.064
7.88708 17.1696 37.1767
7.65407 16.4685 36.5631
7.94302 16.7289 36.3278
7.83407 17.2266 38.1259
8.00038 16.9709 36.8146
7.86505 17.3526 38.0364
7.756 16.9064 37.9709
7.95547 16.7103 35.8251
7.68716 17.4536 38.8708
7.66645 16.165 35.6615
7.64607 17.1418 37.9516
7.08846 14.9043 34.4204
7.60381 16.5997 36.4841
7.5977 16.3561 35.5839
7.45082 16.4369 35.225
6.98617 15.8505 35.549
7.14674 16.5238 38.1641
7.53812 16.6204 37.9223
7.38738 16.5369 37.83
7.38695 15.7687 35.1371
7.08971 16.0238 38.1861
7.9252 17.1787 37.8211
7.29105 15.6933 33.996
6.97482 16.464 38.16
6.92851 15.1195 34.57
7.2988 16.7772 37.9233
7.11289 15.9266 36.9116
7.03581 15.146 34.8136
7.54342 17.5768 40.3013
7.78105 17.2709 37.8283
6.87123 16.2258 37.9494
6.7923 14.8273 34.9917
7.41424 17.2242 38.1032
6.67816 14.9703 34.6584
6.96033 16.7156 39.5117
7.13321 16.0183 36.5739
6.63107 15.6263 37.5605
6.96611 16.4935 40.7724
7.7867 16.6482 35.5997
6.42957 15.7885 39.1195
6.88699 15.331 36.5192
6.72679 15.0413 35.4607
6.95329 15.8305 35.5851
6.75201 15.7803 35.6179
6.26906 15.7813 39.5394
6.90948 15.3646 36.5567
6.93796 16.2299 38.9113
6.99071 15.7925 35.5918
6.24425 15.0116 36.9501
6.64082 15.7431 37.9579
6.43399 14.2749 33.9042
6.28223 15.1387 37.191
6.82155 16.1109 37.0476
6.31134 14.7045 35.7878
6.5666 15.9705 38.731
6.56556 15.484 37.6099
6.73702 16.4358 40.1156
6.92716 16.0963 38.418
6.49025 15.2188 36.8657
6.46376 15.5945 37.7994
6.59408 16.4415 42.9444
7.50515 17.3821 40.7437
6.67347 16.1155 41.293
7.2544 17.1126 40.8892
6.93177 16.7846 40.7464
6.78439 16.0413 39.4785
