# pn-170911/RbIIR-59-RbIIR-1280-1959.psd
# Power spectrum* (dif=0,1,2) (really just |FT|^2)
# NOTE: only the first half! (symmetric)
# weeks: 1280-1959
# 4491 clock-days, 232 excluded
# PSD: 1441
198.082 0.0971257 0.0459562
24645 0.583572 0.0540742
77330.1 1.51052 0.0544972
29314.3 1.17764 0.0501187
35821.2 2.63015 0.0527245
10876 1.14445 0.0505922
8509.14 1.29655 0.0527762
5645.44 1.1768 0.0507185
6349.66 1.78207 0.053809
3634.39 1.23623 0.0508651
3162.67 1.35088 0.0542634
2474.45 1.2635 0.0531623
2347.73 1.43344 0.0542168
1856.39 1.33533 0.0528177
1716.06 1.44432 0.0554581
1432.13 1.3532 0.0521703
1365.92 1.49643 0.0536826
1167.32 1.44075 0.0522722
1084.68 1.55232 0.0538338
970.648 1.50291 0.0515183
914.146 1.5752 0.0552918
842.1 1.62114 0.0570529
805.358 1.68177 0.0546141
735.404 1.67604 0.0559303
702.971 1.74352 0.0597231
659.131 1.76461 0.0565802
642.138 1.91654 0.0568784
599.445 1.9063 0.0582766
588.548 2.02424 0.0581671
554.178 2.05684 0.0604628
565.55 2.23989 0.0611801
503.523 2.1128 0.061318
506.807 2.33855 0.0647319
479.602 2.31323 0.0639716
487.043 2.52495 0.0656414
471.656 2.58522 0.0661038
452.214 2.62466 0.0703679
455.305 2.78267 0.0687568
449.811 2.8942 0.0718605
443.791 3.02239 0.0719506
424.903 3.06228 0.0753043
409.986 3.11659 0.0759769
416.741 3.31354 0.0815186
410.04 3.42389 0.0829456
411.641 3.60695 0.0839759
390.515 3.58373 0.0865558
374.255 3.62834 0.08682
383.144 3.83204 0.0915807
406.406 4.29558 0.099363
376.602 4.13317 0.0978103
376.198 4.27782 0.100132
377.392 4.48178 0.109781
375.783 4.69139 0.116136
368.979 4.75608 0.117266
374.073 5.01096 0.124656
349.066 4.8488 0.120801
359.353 5.18619 0.125154
340.267 5.01751 0.131606
370.391 5.7427 0.144844
354.827 5.73446 0.148987
352.472 5.79862 0.150476
348.581 6.017 0.159527
365.713 6.53361 0.171969
331.736 6.07639 0.168153
342.273 6.5143 0.178748
337.471 6.64887 0.187146
341.356 6.89669 0.193873
345.449 7.21066 0.204536
322.946 6.92112 0.20341
331.637 7.32374 0.217097
325.221 7.43262 0.223368
339.651 7.97517 0.242598
332.874 8.02657 0.247239
321.374 8.00723 0.256125
321.265 8.20072 0.263148
315.675 8.24301 0.273092
327.044 8.82109 0.292014
317.115 8.73295 0.293786
329.814 9.22246 0.323521
327.482 9.62267 0.337246
310.013 9.23028 0.331834
301.762 9.19938 0.341412
319.382 10.0536 0.367971
297.638 9.53278 0.360664
309.59 10.2275 0.39216
303.399 10.2276 0.403701
308.962 10.7067 0.429393
301.974 10.6424 0.436384
301.718 10.93 0.452327
307.831 11.4278 0.478485
308.785 11.6719 0.495242
311.017 12.1217 0.519104
289.624 11.462 0.512899
279.51 11.2031 0.50087
278.389 11.5133 0.536198
302.103 12.7294 0.5943
393.122 17.1699 0.79926
280.818 12.2793 0.593873
275.678 12.3199 0.61347
265.079 12.164 0.608262
275.767 12.8952 0.664281
280.742 13.392 0.695322
300.131 14.6379 0.769295
283.25 14.0259 0.751983
280.379 14.269 0.781633
273.652 14.0781 0.788106
270.817 14.2022 0.800121
265.546 14.2052 0.817923
275.853 15.1108 0.883116
270.987 15.0932 0.896327
263.288 14.9351 0.901131
261.949 15.1299 0.937491
266.309 15.6172 0.981964
277.537 16.6339 1.04706
285.718 17.3515 1.11743
272.482 16.8835 1.10881
260.793 16.5064 1.08641
249.597 15.9656 1.07856
254.948 16.6907 1.15235
258.355 17.1932 1.19381
268.042 18.1139 1.27954
262.689 17.9562 1.29473
235.02 16.2826 1.18539
251.208 17.8015 1.31553
250.85 17.9387 1.35358
252.284 18.4354 1.41965
253.827 18.8867 1.45847
250.12 18.8361 1.478
247.028 18.9386 1.51216
239.212 18.6191 1.51922
242.787 19.1369 1.5771
236.213 19.1723 1.60873
246.689 20.2223 1.71623
242.379 20.0449 1.70033
238.367 20.0002 1.74034
236.273 20.1632 1.79419
234.823 20.2271 1.80913
233.482 20.4802 1.8563
230.259 20.5714 1.90608
227.019 20.4375 1.90546
230.107 21.2096 2.00796
226.79 21.0896 2.0297
220.978 20.7345 2.01065
235.904 22.7547 2.25638
237.697 23.0688 2.30058
223.135 21.8262 2.19964
218.661 21.8523 2.23484
226.758 23.0696 2.41915
211.138 21.5869 2.27636
218.525 22.7696 2.41127
227.174 24.1446 2.62563
221.096 23.4324 2.55264
212.073 22.9403 2.53492
214.83 23.4882 2.64321
208.965 23.1651 2.62501
219.167 24.7438 2.85181
209.02 23.5191 2.71615
207.459 24.0232 2.83622
210.569 24.5206 2.90644
218.689 25.857 3.11733
207.892 24.9347 3.05005
203.729 24.6281 3.05087
200.718 24.6173 3.05992
208.928 26.0977 3.33471
202.249 25.3741 3.24986
200.195 25.4029 3.28494
200.802 25.9832 3.42924
202.916 26.5545 3.51988
201.923 26.6456 3.57141
198.399 26.4848 3.6009
193.942 26.0873 3.55929
194.016 26.592 3.69894
194.215 26.792 3.73574
189.867 26.459 3.7437
192.53 27.2092 3.90469
193.083 27.7905 4.05644
187.21 26.9222 3.92704
187.707 27.5972 4.14643
190.384 28.0842 4.19753
184.681 27.5718 4.19964
184.779 27.8953 4.25059
183.837 28.1057 4.36312
184.875 28.2846 4.40342
182.793 28.8362 4.6325
182.191 28.5282 4.54695
181.289 29.1791 4.7467
184.203 29.4774 4.78124
177.638 28.8753 4.77986
180.169 29.6079 4.9345
172.013 28.5718 4.83123
172.506 28.913 4.89895
178.785 30.8649 5.40866
227.463 39.0709 6.72457
173.427 29.7559 5.18887
170.329 29.911 5.341
172.566 30.4723 5.45854
171.402 30.5908 5.52894
168.587 30.2204 5.45904
165.473 30.5915 5.6922
163.675 30.1366 5.65381
163.858 30.6642 5.80798
167.248 31.4027 5.97291
164.49 31.2098 6.01375
164.317 31.3683 6.08072
164.008 31.5397 6.15266
161.61 31.6418 6.25361
159.814 31.4787 6.28024
160.675 32.1829 6.50892
157.698 31.6206 6.4438
160.513 32.72 6.70643
159.633 32.5132 6.67193
155.653 32.2948 6.75677
154.26 31.9817 6.71723
155.185 32.8209 7.00211
148.823 31.7762 6.84578
150.479 32.4812 7.06496
155.288 33.6981 7.35628
149.312 32.7168 7.21622
147.768 32.5368 7.2524
146.261 32.494 7.28182
145.922 32.8621 7.45387
143.67 32.5258 7.45446
153.081 34.9963 8.09345
146.452 33.5939 7.81613
147.563 34.4397 8.07259
142.663 33.2948 7.83227
141.659 33.6875 8.10849
141.81 33.7118 8.08517
145.676 35.4521 8.69882
145.1 34.8935 8.48186
139.311 34.0353 8.36297
139.995 34.6338 8.62206
139.672 34.7101 8.71035
142.355 36.0647 9.23418
138.378 34.7067 8.81635
135.496 34.7719 9.03409
135.497 34.84 9.00525
131.5 34.0398 8.92769
130.505 33.985 8.95808
135.937 36.3009 9.75659
141.59 37.353 9.93838
130.915 35.0596 9.47468
128.248 34.8458 9.54141
126.146 34.4713 9.49629
129.089 35.5753 9.87387
135.329 37.4943 10.4835
127.356 35.6598 10.0732
128.666 35.8559 10.1306
130.169 37.0509 10.5843
125.708 35.8204 10.3207
125.486 36.2785 10.5713
125.447 36.6248 10.8025
127.008 36.9701 10.8997
127.814 37.4492 11.0906
122.482 36.3069 10.8474
124.131 37.1943 11.2379
125.055 37.9358 11.561
123.85 37.8209 11.593
121.548 37.1603 11.4502
117.262 36.5027 11.4593
117.219 36.3596 11.3394
117.644 36.9772 11.7397
118.815 37.6273 12.019
115.986 37.109 12.0012
122.51 38.9429 12.4622
113.381 36.3601 11.8375
115.114 37.327 12.2085
110.354 36.3433 11.9896
112.063 36.9829 12.2727
112.811 37.4383 12.5634
112.015 37.7299 12.7866
112.102 37.6902 12.7243
111.125 37.9679 13.13
108.289 37.0115 12.783
112.639 38.7873 13.452
105.461 36.5217 12.8214
109.055 38.0249 13.3347
107.961 37.6763 13.2793
110.162 38.9232 13.8588
106.504 38.2163 13.7987
107.485 38.6301 13.9833
104.456 37.95 13.8805
108.194 39.4921 14.4754
106.335 38.9921 14.3978
102.68 37.8546 14.0403
101.331 37.6914 14.181
102.066 38.45 14.5768
103.895 39.6239 15.3661
137.041 51.3751 19.1016
100.646 38.5311 14.9212
99.1577 38.119 14.767
98.9881 38.4647 15.0212
97.2031 37.9946 14.997
103.261 40.3636 15.8437
99.4455 39.4095 15.7172
96.5855 38.6344 15.5806
98.4461 39.1886 15.7963
98.5061 39.2341 15.7463
96.5509 39.0438 15.8279
95.1489 39.2128 16.2504
93.9358 38.6496 16.0643
95.1235 39.3918 16.3701
95.1521 39.5587 16.5917
93.6932 39.0769 16.3725
92.6722 39.3565 16.8471
93.8785 39.6817 16.9642
94.6429 40.2289 17.1956
89.424 38.7323 17.0005
94.8698 40.7337 17.5733
91.6988 40.0146 17.5171
89.8007 39.2788 17.3255
89.6211 39.6267 17.7008
92.632 40.6715 17.979
89.9474 40.1942 18.009
89.2092 40.1261 18.1484
89.3884 40.0682 18.0688
88.5247 40.2082 18.4119
85.8988 39.1305 18.0339
87.686 40.0599 18.5653
88.8769 40.974 18.9602
84.945 39.7344 18.6847
89.0494 41.7371 19.5535
82.4085 38.6545 18.2203
83.9219 39.9178 19.072
84.936 40.4347 19.3348
83.6396 40.5088 19.6795
82.2392 39.6218 19.2446
83.4631 40.9386 20.2065
84.6659 41.0581 20.1035
83.006 40.8786 20.2842
82.3356 40.2802 19.8531
81.7854 40.2953 20.0457
80.6122 40.1409 20.1777
82.4 41.5519 21.0532
81.3518 40.934 20.8119
77.6592 39.603 20.3898
82.5241 41.9182 21.245
79.389 40.8991 21.1493
78.4606 40.6191 21.0876
78.0183 40.591 21.2412
79.4367 41.5822 21.7953
75.8589 40.1971 21.4617
77.2617 40.6322 21.639
77.5135 40.9123 21.659
73.9572 39.4782 21.3465
75.6557 40.3857 21.7085
75.2362 40.7441 22.1926
74.132 40.2604 22.0306
74.682 40.9981 22.635
74.2863 40.846 22.6426
73.9183 40.7701 22.6559
72.7971 40.289 22.5151
74.2389 41.5097 23.2809
73.452 41.3277 23.3786
73.126 41.2362 23.3213
73.3605 41.7431 23.9552
71.8072 40.7372 23.2471
69.9311 40.4688 23.6595
70.1494 39.9349 23.044
70.3164 40.6308 23.6104
71.0683 41.3675 24.2243
68.2024 39.7704 23.486
69.5512 40.8835 24.1437
69.9951 41.4813 24.63
68.0398 40.5209 24.3911
68.7064 40.9634 24.6035
67.7129 40.4521 24.2811
67.5338 41.162 25.1793
68.3644 41.4762 25.3675
68.5714 41.5196 25.3784
65.0716 39.9447 24.7578
66.8022 41.2022 25.5295
65.9541 40.6517 25.267
64.8613 40.4838 25.4229
65.3898 41.1491 26.1575
68.071 42.6559 26.9216
65.792 41.5094 26.3567
63.8942 40.7035 26.1151
62.6817 40.2513 26.1628
64.0333 40.7366 26.2123
64.332 41.6334 27.1863
62.9096 40.6599 26.5944
62.0288 40.2248 26.5246
63.2941 41.3848 27.7877
81.2907 52.8416 33.6411
61.9659 41.1817 27.5583
62.1887 41.9586 28.3937
61.9621 41.1136 27.4741
61.298 40.7872 27.2597
60.5349 41.4264 28.4805
60.3675 40.5701 27.6591
62.2894 42.3725 28.9346
59.1216 40.378 27.9319
60.9757 41.5297 28.4709
59.4744 41.5654 29.2451
60.3054 41.5595 28.861
59.7186 41.4318 28.9852
57.746 40.4251 28.6178
58.0311 40.364 28.3697
57.4208 40.4995 28.7798
57.8317 41.167 29.4791
58.2798 41.5472 29.7783
57.1808 40.8909 29.4414
56.7714 41.1386 30.002
55.991 40.5855 29.6446
56.3921 41.2434 30.4072
57.3032 41.5217 30.4177
57.0435 41.6223 30.6527
57.3798 42.3742 31.4714
55.6825 41.1821 30.7508
55.8112 41.2531 30.7248
55.4621 41.3004 30.7636
52.7081 39.711 30.2869
54.8273 41.1395 31.0837
53.2862 40.4039 30.9504
55.4891 42.0966 32.0956
53.9223 41.1104 31.587
55.426 42.5983 32.6826
52.3787 40.3961 31.434
53.5332 41.4904 32.199
51.0557 39.6377 31.0877
53.2647 42.2464 33.6026
53.7343 42.0015 33.2659
52.5421 40.8862 32.2976
51.9295 40.681 32.1927
52.1819 41.6619 33.3294
52.9471 42.2707 33.8383
50.2648 40.4135 32.7253
50.0555 40.4101 33.0225
51.7237 41.4943 33.5511
50.2821 40.8233 33.4585
49.7293 40.3415 33.0494
50.83 42.0007 34.8241
49.5997 40.6978 33.6482
50.6179 41.6874 34.4881
48.9673 40.8506 34.373
50.1218 41.2448 34.2369
49.4276 41.7271 35.3331
49.3472 41.0768 34.4847
47.8104 40.4336 34.5031
48.3448 41.1494 35.2949
48.4605 40.9421 34.8537
46.9653 40.0361 34.5616
48.7446 41.8417 36.0161
48.4519 41.8506 36.159
47.1904 41.0396 35.8556
46.9206 40.5103 35.3685
46.8543 40.8435 35.8019
45.6172 40.1889 35.601
46.4661 40.8578 36.2971
45.9255 40.2845 35.7362
45.8621 41.0622 36.8018
46.238 40.8116 36.283
46.0781 41.5278 37.6113
44.6914 39.7677 35.8756
45.4873 41.4007 37.7582
44.9212 40.794 37.579
46.393 41.3156 37.0088
44.5933 40.6567 37.0612
44.0669 41.1425 38.5222
44.5974 40.7663 37.7601
43.726 40.6473 38.2974
45.0763 41.4373 38.4596
44.2388 40.9042 38.1116
42.7462 39.9371 37.6794
43.0694 40.4048 38.1346
42.9832 40.3576 38.2741
43.4314 41.3927 39.6249
44.0864 41.5181 39.5584
43.8965 41.9111 40.1828
43.0614 41.1319 39.5653
41.9631 40.4029 39.3346
42.2798 40.0516 38.438
41.5563 40.4976 39.6083
41.7333 40.4415 39.6451
41.7782 40.5705 39.8975
42.6674 41.5888 40.559
41.033 40.7333 40.6161
41.1927 40.7599 40.6178
39.4861 39.5345 41.3079
53.2088 51.9735 49.3189
41.4128 41.263 41.4683
40.0168 40.1764 40.8118
41.0819 41.2499 41.5951
41.4167 42.2537 43.3504
40.6692 40.6431 41.2806
40.1751 40.9623 42.0779
39.4135 39.906 40.9458
39.8597 41.0064 42.5258
39.083 39.7133 40.9603
39.2267 40.736 42.5391
39.2958 40.7819 42.8903
39.897 41.0715 42.8695
39.1548 40.2825 41.8963
39.2046 40.9594 42.6803
37.2936 39.5372 42.4915
38.9182 40.4918 42.5614
37.4173 39.4476 41.8707
37.206 39.3273 41.9563
37.4651 39.836 42.6719
37.3371 39.7221 42.5771
37.6014 40.3453 43.4675
36.7133 39.5605 43.0205
36.5617 39.2827 42.5163
36.2693 39.5319 43.5422
37.7093 40.8917 44.656
36.8691 40.1922 44.082
36.2279 39.7595 44.1091
36.218 39.7815 44.2534
37.2463 40.8188 44.781
35.229 38.6353 42.5666
35.0954 39.8 44.9516
35.3758 39.4706 44.6905
36.1891 40.2115 45.0536
35.4434 39.9539 45.2152
34.4644 38.783 44.2745
35.404 40.1745 45.8861
35.3038 39.9452 45.8134
35.4986 40.5103 46.5013
34.8726 39.7172 45.7417
34.4923 39.4959 45.6758
34.7838 39.8496 46.0026
34.5851 39.6507 45.6941
34.4256 40.2452 46.8801
33.7514 39.6107 46.9406
34.6625 39.917 46.2707
33.2156 38.621 45.4862
33.1272 39.0681 46.3821
33.6873 40.2544 48.1661
33.5989 38.9646 45.7367
32.6175 39.2594 47.5587
33.3794 39.1315 46.3074
32.964 39.6668 47.5611
32.6264 39.575 48.6081
33.3824 40.1728 49.021
33.4664 39.7366 47.8608
32.8373 39.5761 47.9242
32.3134 39.1008 47.5913
31.6467 38.932 48.2981
32.1462 39.11 48.2165
32.2453 39.5521 49.3504
32.364 39.4169 48.5131
31.4691 38.5231 47.8408
31.2274 38.691 48.6175
32.0185 39.7476 49.6657
31.1311 38.4074 48.3297
32.0554 39.6609 49.3047
31.1935 38.9041 48.9282
30.7782 38.3614 48.0686
30.3764 38.6869 49.4602
30.8502 39.0471 49.715
30.5758 38.8467 49.8641
30.579 38.5781 48.9324
30.1075 38.9376 50.3337
30.4113 38.9274 49.9972
29.0311 37.6702 49.5892
28.8165 36.6816 47.8335
29.8913 38.9565 50.7704
29.7684 38.4219 50.1411
29.0148 37.5288 49.4332
29.7577 38.5098 50.046
29.9002 39.5934 52.2741
29.3447 38.5325 51.3645
29.5057 38.7892 51.1715
29.7468 39.3654 52.2286
29.1283 38.6449 51.4353
28.8054 38.7103 52.3421
28.7385 38.267 51.7328
28.9064 38.5211 51.696
28.3402 37.8384 51.2161
28.4901 38.5038 52.5671
28.7694 39.0482 53.5309
28.921 38.9432 52.97
28.5532 38.5298 52.5399
28.4962 39.2453 53.9733
27.2421 38.7559 58.356
37.4734 49.447 63.1846
28.4032 38.966 54.1004
28.1076 38.9366 53.9614
27.7943 38.5801 54.0279
27.6437 38.2781 53.725
27.3927 37.9388 53.1826
26.8566 37.3363 52.6189
27.486 38.269 53.3259
26.4957 37.2762 52.9842
26.6485 37.7952 54.3926
28.1078 39.3259 55.0959
26.563 37.5616 53.5541
26.0736 37.3062 54.3763
27.1748 38.3664 54.2108
25.9942 37.4129 54.0795
25.3464 36.1476 52.3458
25.7229 37.0353 53.7308
25.702 37.2567 54.399
25.6522 36.8685 53.9662
25.5306 36.4817 53.3284
26.8109 39.0426 56.4919
25.8418 37.5464 54.72
25.6259 38.0522 56.3489
25.0447 36.6941 54.6933
25.1083 36.8334 54.8903
24.8696 36.4757 54.3991
24.9746 36.9755 55.0766
25.2714 37.5228 56.1563
25.3 37.7313 56.3896
24.6446 37.2919 57.3958
25.0976 36.6073 54.765
25.0872 37.5838 56.3087
24.3797 36.7302 56.0599
24.4802 36.6607 55.5122
24.2787 36.3052 54.7227
23.8691 36.5367 55.9551
23.5575 35.8704 55.3746
24.1737 37.399 58.4319
24.1054 36.0749 55.5452
24.3488 37.0124 56.7367
23.9973 36.7988 56.6652
23.4949 36.3338 56.3762
22.9839 35.7699 56.8785
24.0143 36.6061 56.8
23.5707 36.3426 56.4421
23.2642 36.253 57.0881
23.014 35.815 56.859
23.3678 36.5183 57.674
23.4119 36.6985 58.3138
23.644 36.723 57.1436
22.8143 36.3072 57.7648
22.6953 35.9116 57.1801
22.1951 35.6103 57.6622
23.0377 36.7058 58.9993
22.615 35.8961 57.6308
22.0288 35.4359 57.7754
22.2105 35.532 57.7698
22.286 35.5349 57.54
22.6858 36.5416 59.0405
22.6152 36.7308 59.4743
22.0027 36.125 60.3632
22.652 36.1151 58.6281
22.1713 35.9785 58.1961
21.0863 34.8438 58.7562
22.1778 35.8374 58.752
22.0711 36.5511 60.5256
21.8149 35.8176 59.2367
21.5848 35.7342 59.275
21.254 34.9548 58.3546
20.9345 34.6408 58.2448
21.3699 35.8186 60.5476
21.263 35.1635 59.0122
20.7948 34.4523 57.9183
20.573 34.7632 59.1494
20.8784 34.9051 58.8454
20.5161 34.7348 59.6323
21.2827 35.9562 61.4556
21.2044 35.3996 59.5038
20.7043 35.275 60.3053
20.4193 34.6678 59.5669
20.5522 35.1095 60.3593
20.4099 34.7193 59.8985
20.8538 35.8582 61.1228
20.2233 34.9535 60.5879
19.6754 34.2912 60.4542
19.9999 34.4794 60.4813
20.1695 34.3912 59.0292
19.3127 33.6985 59.9087
20.0367 34.9335 61.4318
19.9735 34.5925 60.4511
19.5969 34.242 60.6422
19.6362 34.3281 60.399
19.1255 33.9858 61.376
19.9733 34.9761 61.8125
19.3417 34.1468 61.5275
19.6092 35.6174 68.9638
25.6319 43.5378 70.0431
19.4982 35.3451 63.4891
18.7509 33.3289 60.7553
19.7717 35.0852 62.0116
18.9025 34.3883 62.416
18.8415 34.0028 62.6817
19.7569 35.2127 62.8544
18.6876 34.2461 63.5129
19.5234 35.1945 63.6687
19.0143 34.5657 63.4316
18.9652 34.2435 62.8966
18.7647 33.6202 61.355
18.9041 34.0899 61.2993
18.3308 34.0736 62.8492
18.6295 34.8514 65.1919
18.6746 34.2279 63.6607
18.2477 33.4574 62.3859
18.144 33.6384 62.8519
17.8646 33.058 62.4139
17.7957 32.5205 61.0071
17.9435 33.3928 62.5017
17.8065 33.2567 62.7634
17.8203 33.2664 62.5858
17.6641 32.915 62.4863
18.0214 33.4139 62.0058
17.4253 33.3412 63.4012
17.4429 33.1009 63.1699
17.4081 33.3625 64.8382
17.4947 32.1427 61.0029
17.0938 32.6186 62.1891
16.9475 32.7312 63.8457
17.451 33.1726 64.1094
17.4251 32.8206 63.1877
17.6899 33.7031 64.284
17.141 32.8802 63.5972
17.1934 33.3582 64.542
16.7638 32.4374 63.2926
16.7757 32.3193 63.4189
17.0298 32.7976 63.4807
16.7092 32.8066 64.7666
16.6261 31.9354 62.5331
16.6451 32.9059 64.7772
16.4322 32.3639 64.2527
16.3238 32.0299 64.5877
16.7036 32.255 64.0651
16.6281 32.2674 63.3953
16.2596 32.0766 64.3607
16.7037 33.3788 68.5592
17.992 34.2619 64.7126
15.5548 31.2289 63.5624
16.2946 32.5091 65.1478
16.3042 32.2147 64.3828
16.3725 32.8766 65.1806
15.5622 31.6143 65.2775
16.3221 32.437 65.1752
16.066 32.3517 65.0715
15.6283 31.5455 64.537
15.5445 31.3175 63.7982
15.3762 31.3862 64.6709
15.498 31.2585 64.5445
15.5234 31.3195 63.5843
15.0922 31.0356 64.9943
15.6683 31.7024 65.0473
15.1799 30.6886 63.8086
15.6198 32.0532 66.4539
15.6935 32.129 66.53
15.508 31.632 65.7628
15.1879 30.9358 64.3983
15.4879 32.0316 65.6516
14.9062 31.1884 66.2095
15.1275 30.7848 64.193
14.7595 30.5335 64.0347
14.8344 30.6227 63.365
14.372 30.3151 64.8267
14.7865 30.8519 65.5693
15.0916 31.3654 65.6582
14.8151 31.3141 66.2102
14.5466 30.6608 66.0897
15.2923 32.3595 68.2943
14.7103 30.6133 64.859
14.3451 30.5435 65.3519
14.4379 30.3611 64.2809
14.1529 30.3226 65.3787
13.9697 29.6408 64.6711
14.4236 30.8891 66.2372
14.6132 31.501 67.2482
13.9002 29.9016 66.0047
14.1418 30.4014 66.672
14.4213 30.8139 66.7449
13.9785 29.7613 64.7541
13.8916 29.8636 65.253
13.9478 29.9562 64.3859
13.4513 29.5506 65.8182
13.8875 30.4784 67.8984
13.8455 29.8009 65.8898
13.9832 31.5156 76.9505
18.4392 38.4957 75.4496
13.6741 29.7475 65.969
13.6019 29.6916 65.7289
13.7237 30.1169 65.8442
13.4797 30.0157 66.4952
13.4315 29.93 66.71
13.1605 28.8966 64.7062
13.2544 29.6891 66.9215
13.3488 29.6312 66.8805
13.4572 29.8399 67.4948
13.5827 29.9746 66.4989
13.0824 29.3292 66.8406
13.1531 29.0666 65.6702
13.1305 29.4425 66.2695
13.0041 29.063 65.2984
12.8092 28.8327 65.2081
12.5939 28.4747 65.9343
13.1866 29.6381 66.4243
12.7217 29.253 67.6052
12.9364 29.0555 66.4874
12.798 29.1238 67.3894
12.9749 29.342 67.183
12.7308 28.9162 66.5252
12.6483 28.5439 66.1784
12.7262 29.1497 66.4784
12.339 28.1194 65.655
12.7477 29.6399 68.6289
12.5607 28.5857 66.7439
12.588 29.001 67.0406
12.4836 28.8822 67.6902
12.6635 29.1597 67.1021
12.2683 28.8313 68.4297
12.5861 29.1066 67.2158
12.1523 28.1822 66.3542
12.1594 28.3463 66.7668
11.92 27.4134 64.5128
11.6931 27.6656 66.0302
12.0103 28.3413 67.8392
12.017 27.6443 65.7906
12.065 28.2602 66.4126
11.5819 27.358 67.0516
12.2625 28.919 68.5029
11.7988 27.1622 64.06
11.7135 28.404 68.6216
11.9784 28.0082 66.6957
11.7753 28.2927 68.2645
11.9201 28.2594 67.9515
11.7247 27.594 66.2324
11.5671 27.9766 68.4599
11.8132 28.2432 68.7283
11.8361 27.8926 67.3534
11.8339 28.4034 68.275
11.5533 27.594 66.9289
11.4827 27.6393 67.3027
11.4652 28.2333 70.0316
11.751 28.0106 68.281
11.3018 27.2433 67.8432
11.6326 27.7122 67.0675
11.2316 26.9376 65.983
11.3847 27.8597 67.318
11.1035 27.1046 66.9226
11.1415 27.0085 66.5926
