# pn-170911/RbIIR-44-USN3-1280-1959.psd
# Power spectrum* (dif=0,1,2) (really just |FT|^2)
# NOTE: only the first half! (symmetric)
# weeks: 1280-1959
# 3527 clock-days, 74 excluded
# PSD: 1441
1453.32 0.088011 0.0194551
104364 2.85097 0.0122267
184087 2.81333 0.0116007
56117.4 1.4091 0.0123635
36352.9 1.78154 0.0125795
15895.8 0.865098 0.0123511
10606 0.806744 0.0122819
7588.36 0.740656 0.0124407
6118.9 0.805548 0.0122744
4501.64 0.674562 0.0125129
3699.41 0.735116 0.0122487
3113.54 0.728998 0.0125596
2635.65 0.757284 0.0134417
2231.95 0.727619 0.0133006
1961.17 0.820169 0.012267
1803.72 0.84873 0.0130464
1605.62 0.879177 0.0134527
1450.63 0.953271 0.0139201
1332.28 1.02762 0.0134252
1241.6 1.08316 0.0139248
1158.65 1.14877 0.0148231
1101.94 1.23811 0.0150046
1039.91 1.40043 0.0152217
1004.64 1.43016 0.0163079
951.262 1.55052 0.0170631
933.231 1.69408 0.0176339
903.108 1.83404 0.0180386
879.713 1.9255 0.0186808
836.871 2.06345 0.0202028
838.781 2.26646 0.021843
813.298 2.41674 0.022322
799.95 2.58157 0.0238789
780.542 2.75619 0.0270067
716.598 2.73347 0.0264527
738.317 2.98247 0.0287753
746.439 3.24046 0.0306983
752.133 3.51313 0.0348554
698.679 3.52576 0.0356145
689.236 3.70447 0.0369742
697.478 3.97189 0.040448
688.209 4.09069 0.0440717
655.613 4.24218 0.0477788
655.167 4.44224 0.0508125
633.395 4.51639 0.0530285
630.326 4.6924 0.0561782
619.794 4.82556 0.0587451
580.049 4.86002 0.0606498
592.296 5.07252 0.0672155
602.842 5.4311 0.0739267
564.744 5.35742 0.0745405
569 5.69699 0.0796654
577.821 5.9824 0.0867794
580.56 6.39843 0.0952998
555.66 6.29696 0.0976231
549.067 6.47001 0.101696
523.64 6.54828 0.105723
530.982 6.89604 0.114322
493.582 6.58575 0.117139
504.302 6.99952 0.123575
512.24 7.51984 0.137726
481.582 7.17079 0.134811
496.678 7.60422 0.146917
495.833 7.94395 0.158596
453.358 7.45839 0.154308
462.765 7.84823 0.165891
476.739 8.35782 0.181616
441.058 8.10556 0.182464
444.115 8.2306 0.188872
419.45 8.11082 0.188664
434.257 8.76197 0.212148
427.297 8.89152 0.221059
414.577 8.9558 0.225918
404.429 8.76014 0.229423
400.145 9.0007 0.241638
397.94 9.20533 0.25015
366.806 8.75369 0.246173
381.005 9.44393 0.269904
362.387 9.04476 0.265831
364.145 9.58556 0.292087
375.554 9.97398 0.310274
350.46 9.59821 0.306462
340.717 9.56841 0.310844
337.107 9.77441 0.324202
338.563 9.84727 0.33524
313.303 9.46265 0.328331
330.732 10.1753 0.359864
333.738 10.6575 0.383377
315.946 10.3229 0.383235
321.229 10.6006 0.407178
301.81 10.212 0.3991
294.717 10.1956 0.40606
301.255 10.8572 0.442056
282.785 10.3414 0.429124
276.79 10.2255 0.434558
258.033 9.84034 0.42603
277.737 10.7558 0.472201
419.38 17.3925 0.773093
268.1 10.7342 0.487472
249.451 10.3266 0.483226
245.806 10.4009 0.49895
243.649 10.4158 0.503659
259.261 11.6029 0.575545
271.791 12.3494 0.621648
245.768 11.1832 0.575602
238.384 11.1799 0.587521
239.111 11.5778 0.61492
225.896 10.9055 0.596727
222.994 10.9421 0.605803
223.866 11.2709 0.63315
225.514 11.6149 0.668405
228.716 12.0935 0.706024
214.522 11.4123 0.675153
217.36 11.7728 0.711131
232.134 12.9193 0.80159
225.742 12.8811 0.804321
213.843 12.4039 0.788039
210.878 12.383 0.798666
190.994 11.3325 0.743951
202.257 12.3207 0.827228
197.922 12.1429 0.823594
196.104 12.3198 0.847241
201.959 12.6945 0.888806
180.287 11.6592 0.833832
195.766 12.9769 0.949213
191.963 12.7058 0.933193
183.034 12.3716 0.923949
181.415 12.7026 0.974175
178.639 12.3798 0.946344
178.761 12.7261 1.00372
174.739 12.7422 1.01715
170.957 12.5801 1.0099
173.146 12.9576 1.07054
181.518 13.8669 1.16035
175.523 13.5136 1.14296
165.06 12.8065 1.09398
161.891 12.9218 1.12403
159.068 12.8968 1.13583
165.007 13.4854 1.20352
161.811 13.3174 1.20946
153.273 12.7509 1.17209
158.445 13.6675 1.2871
154.446 13.5453 1.29391
153.066 13.2711 1.26389
155.766 14.0656 1.37448
151.003 13.6258 1.33457
145 13.4361 1.34216
146.166 13.7722 1.40041
146.632 13.9969 1.43595
143.381 13.7591 1.43191
143.953 13.9941 1.47627
152.351 15.0255 1.6129
141.99 14.039 1.50969
136.374 13.694 1.49933
133.698 13.6411 1.51386
130.897 13.5166 1.52019
139.472 14.7442 1.68701
137.973 14.5899 1.68914
132.281 14.1183 1.64699
136.525 15.1296 1.80485
131.452 14.4704 1.73465
127.288 14.2494 1.72652
127.585 14.6736 1.81088
127.196 14.6567 1.81737
127.394 15.0618 1.90698
128.637 15.2597 1.94036
119.382 14.2485 1.85
123.803 14.9743 1.96736
126.266 15.4053 2.03929
123.635 15.1623 2.03571
119.491 14.9311 2.01603
117.608 14.7671 2.01474
116.173 14.9069 2.06161
123.318 16.1285 2.25768
116.424 15.1022 2.11924
111.405 14.991 2.16682
117.833 15.9492 2.31411
113.108 15.2481 2.21344
110.996 15.4828 2.30084
110.03 15.0638 2.25051
109.223 15.303 2.3172
107.595 15.1208 2.30605
108.679 15.7652 2.45421
109.8 15.9025 2.47508
110.991 16.8358 2.71681
113.275 16.445 2.59518
106.378 16.0753 2.6107
109.023 16.3113 2.63406
104.277 16.0943 2.68373
103.199 15.9266 2.63755
97.3214 15.015 2.52214
96.045 15.1424 2.58361
101.263 16.6969 2.96102
196.634 32.4972 5.50745
99.4042 16.1743 2.83491
93.7346 15.5287 2.77518
97.1953 16.3319 2.9523
99.1236 16.7896 3.0365
98.3458 16.6164 3.005
93.9861 16.3216 3.02706
92.42 16.3053 3.03829
96.672 17.0055 3.22534
93.0199 16.3868 3.10559
92.4198 16.554 3.18555
92.0665 16.6663 3.25043
93.6438 17.127 3.33483
88.8783 16.3008 3.22904
92.1071 16.9695 3.34839
88.6258 16.7439 3.36429
89.5062 17.2554 3.52663
90.3596 17.6438 3.65547
91.1483 17.43 3.57402
85.9825 16.8878 3.54142
88.639 17.4498 3.66006
85.7815 17.1585 3.6351
84.784 16.9669 3.65691
84.5292 17.35 3.76496
84.6619 17.5045 3.84864
83.7482 17.3204 3.80141
84.0973 17.3981 3.84576
82.4538 17.6127 3.97498
80.4518 17.0763 3.89346
80.6871 17.3048 3.95984
79.5714 17.3681 4.02893
80.9936 17.7533 4.09649
82.2806 17.9919 4.22448
79.1124 17.4454 4.1217
79.9451 18.1187 4.36078
77.3027 17.4323 4.20989
78.9591 18.3782 4.49496
85.0474 19.4189 4.73531
78.1047 17.9309 4.36328
73.3471 16.9612 4.23007
74.9786 18.0134 4.53093
79.36 19.2147 4.94773
80.4805 19.0126 4.79721
74.495 18.0098 4.65478
75.1598 18.1229 4.6819
72.7716 17.7535 4.65849
72.1596 17.8183 4.70504
73.8634 18.7025 5.00232
73.6492 18.4015 4.91654
70.9745 18.1171 4.91913
68.0307 17.4552 4.81495
72.1278 18.5539 5.10918
68.8977 18.0983 5.04527
71.3002 18.6375 5.19591
72.1857 19.0748 5.36255
68.1077 18.154 5.14257
69.4442 18.5145 5.2474
69.1851 18.6756 5.37689
65.4319 17.9552 5.23514
68.4669 18.8956 5.51171
65.6283 18.3871 5.51117
67.4436 18.7214 5.53396
65.7319 18.3781 5.50993
66.1123 18.8515 5.71105
65.9953 18.8596 5.68594
64.5566 18.9001 5.84056
64.0009 18.4104 5.6702
63.3123 18.7958 5.943
66.5175 19.7408 6.20395
63.958 18.8663 5.91015
62.3333 18.7769 6.00955
64.063 19.331 6.24217
63.1869 19.1489 6.13877
62.1739 19.1145 6.22461
61.9066 19.0525 6.16572
59.4263 18.4921 6.14723
60.963 19.0969 6.3753
59.6409 18.6501 6.26275
60.9438 19.4955 6.59156
60.6208 19.3658 6.59834
60.7347 19.3053 6.55364
58.4942 19.2573 6.66255
58.8735 19.2414 6.68353
58.6159 19.2377 6.7152
57.2358 19.0364 6.73003
57.3975 19.1883 6.81143
56.4453 18.9596 6.73619
55.2326 18.8921 6.82802
59.7855 20.3072 7.28554
55.4118 19.0327 6.98614
57.9046 20.0942 7.38625
55.633 19.4077 7.18519
53.0579 18.5354 6.92047
53.5336 18.7679 7.02645
51.1536 18.5462 7.11287
53.8009 19.8798 8.0477
122.058 44.6587 16.1398
54.0049 20.0764 7.84911
52.4281 19.3035 7.57871
52.3721 19.3013 7.60149
54.5324 20.2191 7.87843
52.1487 19.6874 7.76665
51.6053 19.5016 7.80085
51.0197 19.4008 7.81033
51.1091 19.4611 7.87025
52.7415 20.1171 8.14851
51.8046 19.9347 8.06179
49.629 19.6525 8.13295
51.3612 20.3577 8.45465
49.2368 19.294 8.05095
49.7128 19.6879 8.23651
48.3043 19.216 8.13769
47.82 18.9784 8.11309
49.8092 19.9602 8.47449
48.7555 19.7557 8.43298
47.1533 19.2761 8.32579
48.0875 20.036 8.72609
48.1319 20.1652 8.84794
46.2767 19.2884 8.52121
46.6831 19.4414 8.66068
47.9273 20.3834 9.11141
46.9994 19.8811 8.94167
45.1714 19.1539 8.67426
45.882 19.6425 8.91028
44.8763 19.4951 8.9595
46.1288 19.8734 9.04836
44.7939 19.4128 8.92942
45.2623 19.9665 9.33444
46.9001 20.5669 9.59344
45.6996 20.2219 9.48974
43.8617 19.8425 9.51183
44.9176 20.1727 9.56717
43.6231 19.8456 9.51389
43.3341 20.054 9.73554
42.2511 19.3442 9.45417
43.4787 20.0123 9.76137
44.1471 20.3634 9.92666
42.1621 19.6168 9.76605
42.6027 19.9624 9.88013
41.2405 19.63 9.86513
43.022 20.2539 10.1681
42.0739 20.0215 10.1403
42.0033 20.1566 10.2113
41.3377 19.9229 10.1382
40.8385 19.8445 10.184
41.3376 20.0907 10.3247
39.6621 19.5789 10.2689
40.0231 19.657 10.2939
39.7359 19.7157 10.4419
41.6114 20.8679 11.0129
39.8893 20.2717 10.8156
39.7977 20.1332 10.7884
39.4713 20.0483 10.7523
38.0284 19.6254 10.6887
39.3353 20.0383 10.7714
38.9678 20.5684 11.3761
39.4709 20.2772 11.1301
39.1915 20.336 11.1646
38.5109 20.1422 11.1365
38.9034 20.5766 11.4587
37.4066 19.8688 11.2221
36.8078 19.5811 11.1051
36.9758 19.7847 11.2012
38.3199 20.6092 11.7011
37.0633 20.1268 11.53
36.686 20.0276 11.5595
35.4499 19.4049 11.3141
36.8768 20.1428 11.6721
36.2744 20.2408 12.0112
36.8965 20.7524 12.29
36.1376 20.0844 11.8254
36.4118 20.4231 12.0974
35.4255 20.0538 11.9719
35.6992 20.439 12.3088
35.5076 20.505 12.4433
35.7244 20.385 12.3327
35.0884 20.6275 12.66
34.6304 20.1619 12.4772
34.309 19.9533 12.2785
35.0533 20.8049 12.9726
33.8322 19.8907 12.3719
34.9174 20.8335 13.1653
34.0333 20.0052 12.5069
33.3123 19.9339 12.6338
33.5817 20.4576 13.1105
34.4779 20.8172 13.1693
32.9676 20.2485 13.0887
32.8507 19.9171 12.9167
32.2569 20.1349 13.1297
32.684 20.2761 13.4145
31.8515 19.7962 13.2485
32.0352 20.4653 15.0564
78.4816 49.1786 29.515
31.4574 20.4848 14.1593
32.4382 20.4786 13.8483
30.8848 19.744 13.49
32.242 20.4773 13.8164
31.328 20.1698 13.7834
30.6449 19.668 13.4674
31.245 19.9965 13.6045
30.4539 19.7796 13.5646
31.3515 20.5239 14.1398
30.4409 20.0364 14.0016
31.061 20.4815 14.4284
30.7189 20.2435 14.1951
30.4916 20.3524 14.3326
29.8868 20.3619 14.5072
30.097 20.1406 14.2671
29.9314 20.2934 14.5377
30.4302 20.7147 14.824
29.5155 20.1982 14.5118
29.4839 20.3132 14.7376
29.0417 20.2118 14.7699
29.0619 20.1289 14.7659
28.8879 19.9503 14.6133
28.1623 19.8511 14.7054
29.0298 20.4055 15.0671
28.1981 19.833 14.8241
27.734 19.8861 14.969
27.7873 19.6888 14.7373
27.9378 19.7626 14.732
27.9173 20.0604 15.5044
27.7228 19.9362 15.1641
27.3486 19.9904 15.4927
28.2444 20.3834 15.4141
27.7717 20.519 15.8956
27.2876 20.2135 15.6587
27.5694 20.4147 15.8535
27.4089 20.5483 16.2666
27.4254 20.4871 16.2071
27.3454 20.3353 15.895
26.2854 19.8338 15.8809
26.8076 20.1351 15.9178
26.5024 20.1389 16.2426
27.1007 20.5378 16.4691
26.8632 20.6179 16.5584
26.5064 20.0304 16.276
26.061 20.3025 16.4913
25.9343 20.1174 16.525
26.5935 20.59 16.853
26.9029 20.8299 17.1288
25.509 20.2153 16.8103
26.2314 20.7981 17.1287
24.913 19.7878 16.6755
25.9119 20.48 17.2246
25.5835 20.2317 16.9055
25.8087 20.7737 17.5076
25.0241 20.1333 17.101
25.281 20.42 17.4015
24.7065 20.1957 17.499
24.5735 19.9098 17.0923
24.4601 19.9817 17.1972
24.2291 19.9336 17.2325
24.1517 19.9635 17.3364
24.5034 20.6473 18.26
24.4969 20.336 17.7837
24.6059 20.7047 18.2655
23.8453 19.9194 17.6575
24.3065 20.6094 18.4285
23.8427 20.2601 18.2319
24.0809 20.2661 18.0987
23.5518 19.8532 17.7625
24.0421 20.4061 18.1123
23.1268 20.1676 18.2743
22.9769 19.7809 18.1762
23.2554 20.0296 18.1592
22.7599 19.9116 18.385
23.1053 20.5187 19.1453
23.6543 20.4928 18.9265
22.9317 20.1955 18.8112
22.8809 20.3222 19.0713
22.6198 20.1407 18.8054
22.2174 19.8621 18.7776
22.3739 20.0981 19.0918
22.3423 19.9194 19.0142
22.5464 20.5441 19.7651
22.4197 20.098 19.1158
23.0094 21.0828 20.1978
22.2673 20.0875 19.2125
21.7334 19.909 19.306
22.3902 20.4089 19.7788
21.9349 20.3857 20.046
21.515 19.4589 18.8987
21.4273 20.0699 19.7278
21.4783 20.1472 20.0535
21.2722 19.9649 20.058
20.7701 19.9478 20.7031
20.9302 20.7679 25.1091
54.193 50.4619 42.8995
21.0603 20.6322 21.3849
20.9046 20.2519 20.9464
21.9325 21.0412 21.351
21.4934 20.4017 20.6448
20.8792 20.0358 20.4522
20.6797 20.0858 20.6656
21.0598 20.6422 21.3029
20.0488 19.496 20.1735
20.3327 19.9382 20.887
20.9407 20.313 20.8092
20.5637 20.333 21.1563
20.0071 19.9779 21.0261
19.6346 19.5628 20.6599
19.555 19.3422 20.493
19.5758 19.7279 21.1059
20.5398 20.3671 21.1886
19.4993 19.6033 20.8943
19.76 20.1965 21.6639
19.8212 20.0888 21.3791
19.3942 19.8396 21.4244
19.1559 19.3794 21.0145
19.5471 19.9454 21.2906
18.9606 19.6498 21.427
18.6061 19.5044 21.6182
19.1675 19.8076 21.8035
18.4373 19.0012 20.9436
19.9 20.6948 22.6033
19.156 20.2605 22.5283
18.727 19.6766 22.0436
18.7602 19.7398 21.847
18.1415 19.3788 21.7721
18.7004 19.9062 22.436
18.9431 20.0164 22.4024
18.1549 19.4008 21.9609
18.2057 19.6676 22.525
18.6098 19.8533 22.4658
18.7414 20.1489 23.0539
18.6597 20.4083 23.3946
18.2994 19.8071 22.7183
18.4831 20.1949 23.0437
17.4969 19.3187 22.2871
17.3735 19.461 22.7833
17.8548 19.9013 23.2374
17.6186 19.573 23.2069
17.7243 19.7312 23.4141
17.8433 19.8288 23.3491
17.7981 19.872 23.4559
17.6061 19.8476 23.5063
17.3433 19.5506 23.0354
16.6926 19.3275 23.5204
17.1314 19.4616 23.6335
17.4666 19.5618 23.438
17.1831 19.4543 23.5438
17.1813 19.8592 24.3618
17.5105 19.852 23.8423
16.6309 18.7406 22.7388
16.3369 18.8805 23.1322
16.8119 19.3714 23.5973
15.9621 18.95 23.5445
17.0838 19.935 24.4211
16.5036 19.3092 23.9733
16.2294 18.9476 23.3814
16.2148 19.2793 24.0427
16.1138 19.0692 24.0312
16.41 19.456 24.4162
16.2913 19.5237 24.6144
16.3475 19.5255 24.6674
16.3198 19.4928 24.291
15.7291 19.0202 24.6135
15.9271 19.2709 24.854
16.4705 19.6603 24.6522
15.8394 19.5725 25.2632
15.9493 19.7395 25.8512
16.0113 19.1018 24.3666
15.6455 19.1136 24.7124
15.5718 19.3235 25.3565
15.5478 19.1967 25.0696
15.7525 19.2369 24.8297
15.2403 19.1187 25.211
15.7333 19.7591 25.9544
15.4376 19.3898 26.1
16.0159 19.8947 25.9822
15.2957 18.7726 24.7484
15.0722 19.1423 25.5614
14.7641 18.5433 25.0608
15.0971 19.0409 25.6261
14.7718 18.641 25.3383
15.3968 19.6853 26.4906
15.1278 19.1432 25.8444
15.3732 19.5474 26.3727
15.0269 19.5479 26.7847
14.5706 18.807 25.808
14.8827 19.4431 27.1207
14.8464 19.7343 28.5843
14.8514 21.2718 38.2649
37.8219 46.9511 51.6732
15.1187 20.3478 28.5019
14.5888 19.5021 27.4848
14.4497 19.4558 27.6174
14.5487 19.2275 27.0923
14.1905 18.7264 26.2465
14.2178 18.9733 26.928
14.4662 19.2366 27.1232
14.4502 19.4101 27.4273
14.111 18.8617 27.0132
14.4734 19.2461 27.2725
14.0888 18.8322 26.8948
14.1646 19.188 27.5972
13.6028 18.3853 26.6742
14.0761 18.7923 26.8743
13.5526 18.1627 26.1115
13.3552 18.5334 27.1091
13.833 19.012 27.7338
13.5726 18.6913 26.7966
13.384 18.7918 28.1253
13.8174 18.4783 26.863
13.4386 18.8744 27.765
13.219 18.4466 27.5075
13.7999 19.187 28.2931
13.2946 18.4008 27.4593
13.4035 18.295 27.2379
13.5662 18.8204 27.6155
13.0213 18.4999 27.5742
12.9679 18.2422 27.5389
13.0255 18.7748 28.5931
13.3796 18.6774 27.9786
13.2794 18.8528 28.2367
12.626 17.8791 27.1324
12.975 18.5025 28.0987
12.9145 18.7039 28.4458
12.8735 18.3943 28.0154
12.5564 17.9144 27.2728
12.5556 18.4867 28.7368
12.5623 18.0857 27.6478
12.9135 19.1116 29.89
12.6959 18.4672 28.4383
12.4874 18.5101 28.7083
12.4183 18.442 28.8647
12.4005 18.6231 29.3462
12.2383 17.7085 27.6737
12.2512 18.145 28.4812
12.1299 18.0494 28.4131
12.1425 18.2472 29.3
12.6128 18.6831 29.0509
12.0433 18.1457 28.9973
12.238 18.4126 29.0881
12.0964 18.1143 29.1447
12.1953 18.4127 29.3798
12.1681 18.4952 29.7039
11.9111 18.0686 28.9344
12.1099 18.558 29.8368
11.5501 17.3971 28.1087
11.5926 17.9196 29.2938
11.594 17.7979 29.4422
12.1272 18.3277 29.7336
11.7055 17.7712 29.0777
11.6289 17.7718 29.0067
11.3706 17.7579 29.5354
11.531 17.9517 30.1264
11.8839 18.2317 29.5104
11.3361 17.8012 29.7378
11.5646 18.1716 29.9994
11.3228 17.5619 29.194
11.4148 18.0459 30.3322
11.4869 17.9061 29.8519
11.1752 17.5021 29.6843
11.3846 17.6693 29.6492
11.0839 17.6006 29.7881
11.0422 17.4124 28.9791
10.8177 17.3276 29.6227
10.9404 17.6198 30.2052
11.0168 17.8732 30.8595
11.2708 17.7667 30.1493
11.1485 18.0738 30.9815
11.2018 17.8374 30.3305
10.5658 17.2616 29.7431
10.616 17.2992 30.0713
10.85 17.7855 30.6261
10.794 17.3723 29.9564
10.8545 17.8358 31.2739
10.7809 17.9253 31.7081
10.936 17.5264 30.2689
10.5767 17.5126 31.3336
10.8223 17.7367 30.9618
10.5873 17.4339 30.2691
10.4615 17.5475 31.3594
10.6607 17.6665 31.3153
10.3987 17.3969 30.9952
10.439 17.8451 32.3837
10.4171 17.8085 33.5086
10.3204 19.9831 52.215
28.7566 44.5738 57.9292
10.3222 18.1461 33.2374
10.064 17.224 31.311
10.1621 17.4503 31.6187
10.4139 17.9935 32.5462
10.2107 17.3355 31.224
9.92038 16.8728 30.3902
9.88807 17.2482 31.6417
9.82208 17.1037 32.0607
10.2524 17.0264 30.5773
9.95215 17.1058 31.3773
9.7944 17.103 31.8825
9.98627 17.1941 31.8558
9.99303 16.9949 31.079
9.65418 16.7534 31.3347
9.88758 17.06 31.4017
9.53249 16.6669 31.1425
9.61835 16.5246 31.2779
10.0406 17.4941 31.7561
9.39421 16.713 31.6309
9.4377 16.784 31.7589
9.39366 16.3528 31.241
9.55278 16.4902 30.691
9.33719 16.6116 31.4247
9.36392 16.7717 31.4063
9.19155 16.2477 31.0098
9.1945 16.5103 31.6867
9.38199 16.7955 32.6925
9.91022 17.5341 32.6548
9.19353 16.4955 31.5596
9.49184 17.0788 32.336
8.98588 16.2975 32.142
9.50609 17.3149 33.0576
9.17007 16.6443 32.6399
9.40543 17.0176 32.8517
9.21258 16.4467 31.3867
9.0458 16.5936 32.2135
8.82259 15.9111 31.3456
8.95956 16.4066 32.0205
9.10801 16.6867 32.6111
8.85263 16.1712 31.6752
8.59571 15.636 31.1951
8.7252 16.2392 32.2185
8.96511 16.5035 32.6488
8.93917 16.0903 31.1118
8.49255 16.1471 32.0281
8.41777 15.9693 32.5485
8.44618 15.6429 32.7193
9.91351 17.9409 33.6188
8.37764 15.8403 31.7676
8.261 15.6295 31.7931
8.45794 15.7823 31.6929
8.55527 15.9319 32.204
8.44989 15.8771 32.0946
8.56215 16.131 31.8129
8.09796 15.6371 32.3964
8.20216 15.481 32.3011
8.40889 15.8862 32.1238
8.32173 15.7912 31.9984
8.24516 15.9301 32.6989
8.17707 15.6295 31.9923
8.13041 15.5748 32.4239
8.38337 16.024 32.8366
7.98823 14.9689 30.8586
8.29057 16.2341 33.4553
8.17549 15.9482 33.1756
8.0955 15.6962 32.7098
8.02248 15.5495 32.7945
8.38414 16.4315 33.9181
8.11848 15.7231 32.3845
7.8891 15.5658 32.6318
7.8591 15.45 32.5505
7.91995 15.501 32.6077
7.95389 15.5786 32.3855
7.79493 15.3383 32.7268
7.7783 15.3966 32.4244
7.82489 15.5256 32.8757
7.71232 15.5861 33.8237
8.00898 15.4861 32.8318
7.88549 15.7543 33.1652
7.67507 15.3344 32.8725
7.7453 15.46 33.2032
7.72655 15.6697 33.9461
7.82676 15.3922 32.9087
7.51071 14.7965 31.5436
7.40419 15.1728 33.5641
7.80421 15.5534 33.7664
7.6954 15.4717 33.042
7.46151 15.2038 33.0262
7.35778 15.0956 33.5443
7.66038 15.4104 33.8364
7.79194 15.8795 33.932
7.34255 15.2444 34.4182
7.54073 15.7258 35.1871
7.41796 15.437 35.5409
7.23791 18.0148 64.4012
21.6341 39.6337 57.2313
7.20581 15.8508 35.5878
7.28554 15.3513 34.2461
7.23543 15.0936 33.6807
7.20991 15.0003 32.9902
7.10902 15.1229 34.4194
7.25484 14.8948 33.3911
7.09339 14.8821 34.0051
7.21147 14.9216 33.2332
7.09501 14.5572 32.4911
7.15633 15.0448 33.9137
7.07723 14.7391 33.3399
6.96776 14.4907 32.382
6.84212 14.3408 32.78
6.90433 14.7194 33.479
6.94829 14.8227 33.9328
6.93734 14.6572 33.6542
7.09527 14.8406 33.8726
6.95112 14.4629 32.5003
6.8726 14.7219 33.7408
6.90067 14.4904 32.7903
6.86952 14.9328 34.7697
6.89867 14.8989 33.9759
6.75405 14.5549 33.959
6.80022 14.5589 33.5767
6.68595 14.4156 33.3945
6.67077 14.2911 33.0733
6.57147 14.1794 32.7372
6.59033 14.4505 33.4283
6.6666 14.6777 34.6219
6.68913 14.3046 33.2206
6.46121 14.0837 33.292
6.59997 14.4605 34.1251
6.62319 14.0777 32.3295
6.29739 13.9155 33.4234
6.53048 14.2352 33.814
6.52478 14.1848 33.7976
6.57759 14.4524 34.4979
6.56751 14.466 33.8752
6.38076 13.8521 33.443
6.49149 14.2376 34.0666
6.53703 14.2646 33.3555
6.37611 14.2007 34.112
6.52429 14.1235 33.2202
6.1737 13.755 33.0793
6.17018 13.8327 33.7819
6.3966 13.9543 33.5266
6.35619 14.2417 34.1175
6.34732 14.4675 34.4391
6.2026 13.985 34.2056
6.36611 13.9844 34.0375
6.33201 14.0918 33.8667
6.06654 13.6178 33.6534
6.27233 14.0455 33.5955
6.12115 13.9952 34.112
6.15994 14.0142 33.6098
5.89257 13.4058 33.5031
6.10323 13.7734 34.1846
6.12218 13.8851 34.2356
6.14896 13.8423 33.4441
5.9092 13.6258 33.5115
