# pn-170911/RbIIF-72-RbIIR-1280-1959.psd
# Power spectrum* (dif=0,1,2) (really just |FT|^2)
# NOTE: only the first half! (symmetric)
# weeks: 1280-1959
# 1 clock-days, 0 excluded
# PSD: 1441
90.3302 0.164997 2.03674e-05
360534 3.57376 0.0021298
811012 12.7519 0.00106633
112637 3.13791 0.00298541
162738 8.65934 0.00358459
175258 17.744 0.00764332
13067.9 4.03628 0.00375876
145889 28.5973 0.0134183
13995.4 4.35998 0.00654967
20616.1 8.72934 0.0103217
22732.4 14.0687 0.0134036
10815.4 9.16763 0.00419396
51720.4 28.4577 0.0225976
6698.49 6.92331 0.00213785
4466.43 2.54205 0.00778818
17040.8 22.5151 0.0171788
29188.3 29.1093 0.0457593
5140.15 4.523 0.00509288
4217.34 5.1632 0.0176394
12047.4 17.3612 0.0207219
2577.7 5.01736 0.0198506
2538.07 8.25046 0.0212407
8001.94 15.344 0.025904
11434.9 34.3639 0.0938211
15945.6 52.7833 0.151027
1547.18 2.25294 0.0117922
8343.44 21.0872 0.0752134
15819.9 54.1775 0.150639
19504.2 83.8686 0.300786
6038.27 17.8976 0.0760786
1913.44 6.13172 0.0405899
732.525 3.54136 0.00678845
4745.52 28.4249 0.121144
5219.34 33.2895 0.190816
12301.8 59.315 0.359835
4588.33 28.1419 0.130054
1137.76 9.55263 0.0679758
359.737 0.946316 0.00628185
5198.08 38.5521 0.299754
1798.53 11.1756 0.110198
5926.75 52.7231 0.37392
7074.75 54.3616 0.496947
1427.12 9.75787 0.0578353
4919.27 50.7617 0.419166
2351.19 29.8631 0.287563
3483.52 25.494 0.230621
462.742 4.26096 0.058207
960.663 6.96699 0.0891129
542.588 3.99696 0.0607314
743.385 11.5337 0.134668
4288.25 53.6372 0.718432
1119.09 16.5545 0.173493
279.31 3.2069 0.0588921
2878.16 37.3318 0.583781
1264.58 20.0452 0.232653
779.42 10.0671 0.113473
38.0394 1.47864 0.0299563
621.999 7.01836 0.0971943
2059.44 33.8537 0.597516
435.836 11.7135 0.209251
1747.14 22.995 0.384177
1.34359 0.121292 0.00192443
527.229 13.2383 0.251106
384.021 11.2643 0.252105
1495.4 23.9415 0.432292
1193.92 27.8843 0.591278
9.71411 0.572747 0.0236508
472.795 15.2992 0.34017
133.929 1.70072 0.057393
74.4589 4.09209 0.102025
372.47 6.41015 0.107389
82.5411 0.360878 0.00392911
2821.46 64.7158 1.52052
185.088 2.99578 0.0851946
221.658 6.56152 0.168243
73.5916 0.499574 0.0113128
399.531 9.10598 0.238078
5047.27 132.702 3.79666
1436.74 38.4965 1.26534
451.588 16.0375 0.572499
428.47 11.5488 0.455978
476.039 19.7966 0.711515
824.463 22.6746 0.616666
717.596 28.1265 0.927787
1513.18 63.1417 2.18952
611.054 12.9485 0.371809
1296.89 47.964 1.8768
222.337 4.72636 0.205797
392.926 9.14852 0.310695
921.193 29.5125 0.920987
826.857 34.419 1.24054
100.34 8.20334 0.387331
2431.83 83.07 3.26413
155.493 4.47644 0.180146
202.519 8.4061 0.340224
868.455 30.4697 1.34225
811.129 33.9374 1.67664
192.175 9.62149 0.66491
1564.68 75.7542 3.1179
156.876 9.19059 0.38974
33.0113 3.95282 0.199788
148.2 9.48728 0.551479
686.658 27.917 1.3185
249.817 14.5821 0.723123
2080.54 101.006 5.39224
150.734 10.1793 0.817234
68.5652 2.18446 0.0321592
439.453 19.0554 0.80368
878.947 52.0341 2.82137
523.606 23.1922 1.30142
543.205 29.1674 1.74844
674.301 37.416 2.49764
414.107 26.6759 1.49908
387.274 22.4586 1.11301
695.817 47.935 2.66355
544.956 43.3554 2.80359
252.553 17.8058 1.28477
25.1895 4.31089 0.420002
215.928 9.59641 0.591315
415.456 36.2333 2.50418
215.478 11.3767 0.651831
4.84275 0.957492 0.0911717
338.927 27.3475 2.1682
801.554 45.8732 2.97915
705.81 47.2531 3.53154
312.442 21.5702 1.95016
66.308 5.47048 0.26168
67.9037 4.30623 0.46673
359.754 35.7665 3.00473
453.186 32.4189 2.18017
268.911 15.7163 1.21561
192.899 17.0626 1.55581
750.409 57.7467 4.71665
71.8135 8.14983 0.849209
59.5268 6.71619 0.845877
38.7118 6.66254 0.883352
435.71 33.2137 2.65695
598.713 56.6243 4.45015
36.8071 5.1439 0.368255
644.218 72.5505 6.9019
508.645 61.3124 6.34242
982.663 71.1499 5.74756
47.5842 3.04417 0.384218
30.7676 5.60143 0.638751
137.915 9.79868 0.724177
54.836 7.10905 0.554349
340.789 38.1077 3.60663
221.444 20.0323 2.08129
170.821 22.0937 2.31302
116.534 8.62201 0.727603
162.156 20.3618 1.94326
189.901 28.2084 3.31834
151.789 17.9688 1.98948
41.8254 3.52195 0.353397
84.6814 12.7611 1.47164
185.28 31.011 3.85856
234.57 39.1918 5.47769
319.478 28.8936 3.16239
398.525 34.4336 3.31699
44.1405 1.64733 0.109518
368.229 35.687 3.99764
88.8115 7.21347 0.868142
614.968 85.5557 12.2587
620.185 65.0441 6.75012
11.3639 2.60758 0.324776
14.0198 1.62741 0.0996916
331.885 56.0778 7.9249
280.77 25.2842 2.81533
168.939 17.1382 1.94822
13.9904 0.809925 0.112788
57.7167 4.14052 0.517157
216.37 22.0122 2.81592
242.04 32.1493 4.49398
66.3483 7.71362 1.02494
90.7198 10.6858 1.83338
36.5241 7.11303 0.88052
51.8872 4.63687 0.435174
739.561 108.015 17.2246
348.159 50.6471 6.56879
56.1723 6.76363 0.830881
9.53815 1.81207 0.303161
0.535708 0.764667 0.164453
32.5836 6.56052 0.866402
146.984 21.7693 3.16727
8.54391 2.90415 0.637981
314.202 48.1236 8.86779
442.359 74.3609 10.5867
51.6421 14.109 2.9304
4.41908 1.52872 0.449464
57.8455 5.3036 0.519666
20.1626 1.50418 0.114318
101.335 19.9905 3.54376
118.102 12.9136 1.86347
45.2571 6.5584 1.29887
96.5031 16.1968 2.59804
24.767 2.42679 0.451345
88.6097 11.4838 1.96193
23.8001 2.38642 0.407052
48.4657 7.47273 1.6622
87.331 21.3047 3.80169
193.841 43.3389 9.32925
402.934 57.6095 9.13634
208.45 43.4243 10.3263
122.225 15.6921 1.68297
766.395 162.537 31.5438
88.6433 16.1472 4.18233
109.771 32.5736 7.67787
52.284 9.81185 1.97301
117.883 19.1826 4.79225
482.934 102.703 20.3504
734.024 122.834 21.7929
52.9038 12.502 2.41089
79.3737 12.4457 2.23608
281.428 50.8543 10.2878
62.2527 13.6485 3.31598
94.9368 21.8287 5.9341
20.9977 3.37809 0.897398
19.5524 4.95513 1.98718
63.9155 15.4398 2.75783
23.651 4.58955 0.797077
34.0832 11.7512 2.55788
32.2706 8.26408 2.35884
5.52668 3.08603 1.23169
366.218 74.9921 16.1539
2.48015 0.150363 0.0104424
7.45772 1.34626 0.39155
44.046 13.5603 4.14591
235.13 44.7748 8.9129
135.024 35.3287 8.90073
173.076 53.9502 17.8817
191.947 46.371 9.78639
138.438 23.8948 4.06936
100.784 23.53 6.29109
0.575561 0.365219 0.53581
211.935 56.4841 13.8158
28.1133 13.1026 4.14799
18.952 11.4986 5.85698
290.773 64.7257 14.1484
57.781 16.0966 3.3942
74.933 29.7323 9.23775
241.824 58.6761 12.6311
182.647 46.6522 11.3019
68.5863 17.308 4.78082
154.25 58.1761 17.4453
102.78 28.9691 9.30523
158.684 35.0635 9.72683
293.176 72.3061 19.5753
21.4591 8.50092 3.97835
143.658 46.0934 12.2688
325.672 87.3552 23.5189
137.012 50.9119 19.9338
57.1851 14.0871 2.95313
17.3984 3.4478 0.618921
93.1606 31.5629 12.3763
39.5295 4.3605 0.108655
122.443 30.0162 6.35957
63.5672 22.0214 8.11424
118.645 37.2085 9.61765
146.012 49.0533 13.7686
0.537471 2.51222 1.26197
25.8779 10.8141 4.82236
158.533 40.1543 10.1158
78.881 33.9194 13.459
102.317 27.9616 7.6114
29.2508 8.94003 1.76522
27.2029 11.8488 4.1037
285.568 107.681 34.0423
6.78527 6.84543 3.56339
48.7161 18.2783 6.42514
124.558 67.2201 28.32
79.2832 9.91772 1.3399
14.0259 0.196583 0.209326
106.285 23.3622 5.59765
55.2426 28.7667 12.6115
269.57 75.7596 23.3414
9.30637 8.16617 4.76395
26.9461 5.45013 1.261
116.63 52.4726 25.2803
367.097 103.336 28.0755
10.159 3.30503 1.89386
99.9847 24.8411 6.29753
281.268 110.52 39.2363
17.2276 12.4342 8.08976
38.1753 7.80161 1.60218
9.07091 4.98269 2.3834
1.18271 1.75383 1.29723
162.302 78.7999 38.7405
274.13 70.0061 15.9998
215.673 76.3281 27.3449
139.772 48.5488 19.1502
43.4909 16.2051 5.66523
1.68596 0.126292 0.474326
200.967 67.4653 23.7938
86.4336 44.0168 23.3668
6.98285 0.835969 0.0524795
17.7248 11.7002 8.39894
23.8406 4.12849 0.0297116
223.1 107.458 43.8128
105.564 24.4047 6.14395
49.5054 17.9336 7.57598
12.6072 5.65686 3.49857
7.26808 4.29876 3.60194
34.1077 17.0395 8.19836
43.5307 16.4091 8.37089
29.8177 8.00698 0.81829
203.217 97.4233 38.4294
24.5654 14.5172 10.0165
106.782 43.4088 15.5718
16.9037 16.2107 9.24843
12.8082 5.90261 6.37579
401.77 167.405 68.2301
23.6413 11.6323 9.27499
60.0021 19.8949 9.03201
58.659 25.7975 8.55226
61.1328 33.1725 16.5198
156.706 55.0102 21.1105
92.6337 51.3057 27.4625
88.3328 34.9549 15.5511
28.7215 15.5138 6.50897
45.5535 16.9023 5.71459
124.557 65.9766 36.6511
29.4208 8.13716 1.32469
36.0621 17.6915 7.34837
7.09509 2.95167 0.841568
80.2305 49.6849 28.8783
91.5394 32.7361 15.4117
106.654 52.1676 26.2446
107.182 50.28 18.1902
29.1671 23.8103 14.5254
97.1849 44.2016 21.3192
0.365841 2.23816 5.07148
221.415 101.011 44.3673
1.78217 0.368687 0.31035
34.0424 24.8822 12.8598
32.0409 11.696 5.72084
36.8621 18.9284 12.3734
151.426 88.7565 41.8047
20.174 22.9571 20.2299
130.694 41.4502 13.4805
47.6555 17.6956 7.01795
78.3983 51.545 36.6372
65.7579 26.8007 9.97607
253.276 134.93 63.3832
5.10251 6.8615 5.17099
113.104 70.6889 41.2567
58.1565 28.4105 18.7945
8.59322 7.26787 7.69653
143.575 60.1009 25.3677
59.526 35.7637 22.4335
2.41078 4.91515 7.01811
2.98934 4.86667 7.10851
72.0155 37.7783 16.4218
35.462 17.1103 11.879
34.8333 13.662 9.40932
204.256 119.09 60.6246
28.0537 19.3775 11.1785
42.7605 21.6409 13.1668
32.5426 14.728 6.1009
14.6133 15.1524 9.75324
19.3841 5.79769 3.11501
51.1641 25.458 12.7549
11.9236 11.9019 11.3977
25.0674 13.2694 4.4231
34.2088 30.7345 20.1615
17.3878 21.1801 22.6922
212.061 92.0849 39.1549
75.0722 52.7408 34.8185
80.1934 50.8954 34.5715
3.32014 9.33467 15.445
74.3952 51.3796 39.4476
119.914 55.4039 17.1929
36.4588 30.373 16.1531
23.6998 21.7628 15.4766
55.8403 43.5957 29.1502
5.6402 3.69829 7.38513
35.3986 8.62506 2.27286
24.6229 7.17022 1.69547
53.6071 33.7896 19.078
186.276 108.235 59.7954
40.2894 43.5127 37.1646
14.4541 22.6057 31.0615
41.8482 13.6141 4.86522
12.4129 3.81495 0.0491716
41.0755 30.3827 16.6165
25.7962 17.7454 9.77382
45.591 27.3522 18.7036
20.185 11.7702 3.33612
35.8346 39.5961 29.8351
35.9834 15.7481 8.42598
20.6567 8.05347 3.95495
62.5897 50.2217 40.5506
19.7089 8.4059 1.81182
2.1239 4.08732 3.30527
54.0946 47.8231 48.4352
124.785 71.7492 32.1994
21.8218 24.0776 17.1679
21.4586 12.4391 6.47871
3.65319 1.86788 0.899687
10.8039 6.35144 3.57053
89.5708 90.0372 78.2098
80.0509 52.975 29.3003
16.0098 38.5926 47.1937
40.6041 5.43661 0.471536
49.0919 19.7043 7.84117
128.107 105.043 95.619
184.722 90.9118 35.5372
72.4391 51.5067 24.1586
75.3844 82.3605 67.4576
17.1175 8.77354 5.29344
3.50748 3.81794 4.90892
38.2572 22.4014 16.0164
8.65864 9.19773 7.55469
57.5975 37.1766 27.1515
28.5991 19.7154 14.4357
50.0218 35.8658 15.7752
24.677 27.5072 17.7599
60.3625 60.1445 47.12
6.99625 19.9267 25.9732
1.07398 6.95611 16.6126
24.7888 12.2166 4.45297
6.4371 16.2077 20.2836
40.6589 24.8723 17.5217
68.4769 75.2939 80.6363
146.035 78.7557 36.5509
13.7473 9.21264 6.38159
9.21648 7.37899 7.41502
0.269138 0.971673 3.52033
38.8343 46.3777 43.0138
82.3394 53.9961 42.0555
58.6007 54.416 40.8552
34.4065 13.4333 4.36096
46.2636 43.2148 41.335
33.1106 29.1478 26.2335
78.4986 75.55 54.1184
21.5748 33.9685 48.0374
61.6734 41.5709 23.2775
19.7736 25.9508 26.2426
5.88158 2.36262 8.23175
21.1754 2.73799 1.30845
109.68 73.4726 42.8533
60.612 80.9535 95.7475
18.5468 3.55805 6.78259
26.8589 9.4457 2.20281
121.804 101.001 57.6167
49.1785 67.0709 57.4075
3.83233 8.45496 9.64501
12.5749 31.2819 38.3577
11.1123 17.9757 34.8427
53.1395 19.1594 5.18312
108.022 125.699 120.233
39.9693 16.0191 12.56
34.4158 16.5961 15.8124
137.385 111.719 81.367
0.69815 6.77779 13.9641
22.8367 14.7579 12.3333
1.48575 5.71174 18.8562
113.892 113.146 86.5795
7.17259 3.92889 8.36991
130.373 145.188 139.051
11.2323 23.2845 67.6404
153.983 78.3357 24.1516
61.28 66.2968 59.8619
90.9933 69.1939 52.4873
10.509 6.71058 1.2846
79.5193 91.1274 82.9958
18.1657 22.7641 31.617
5.02798 13.1455 19.9543
13.3332 33.2698 67.8816
68.3419 30.2182 6.05822
15.15 10.0997 5.17487
16.6347 6.47701 0.522768
38.7626 32.9997 22.8718
10.5547 18.2616 18.6099
13.3805 6.3097 2.21181
57.2657 89.5465 118.825
77.3507 35.6793 12.1682
65.4024 67.3528 54.7224
14.0565 42.7578 79.9245
99.7918 76.5877 51.2545
20.8066 22.9095 17.3325
15.7543 28.6757 39.2664
0.952709 5.51308 28.2462
80.2007 51.0601 29.346
27.1283 33.1712 28.9808
8.41392 2.10892 6.1052
96.7533 88.0337 69.3385
1.31058 0.254816 0.426541
1.57297 3.51414 7.36101
79.8343 81.1316 77.4224
2.52877 0.286741 0.466377
0.733995 1.00406 0.375996
12.9262 17.2252 29.8112
60.4164 62.1711 42.401
17.6463 50.3558 83.024
94.848 63.9379 41.3497
15.9365 22.1774 21.8552
28.9562 34.8953 39.3771
11.3274 20.9412 41.3827
33.5389 23.3136 17.8634
4.91553 5.111 3.07363
17.874 24.3232 36.5968
9.68829 3.91293 2.12399
60.0082 88.9591 100.365
61.9439 44.4297 31.2897
45.3238 68.4439 100.465
46.3343 35.4465 22.0189
17.7202 24.9709 24.9277
1.96981 0.973498 4.10204
24.4257 21.3075 16.5054
13.0134 28.1205 50.0281
32.6374 30.3303 26.8184
28.9008 23.3444 19.5188
3.90728 7.65664 16.8156
43.2097 61.5002 65.1115
26.4587 26.5951 29.8717
8.88058 33.8811 80.0856
84.0712 75.349 73.067
35.7633 43.161 43.4249
30.8903 33.3834 46.8135
49.9066 59.6462 77.7023
17.4994 17.1687 29.7105
30.2166 21.4756 10.4361
22.9794 17.6047 8.08027
28.0977 48.4453 72.3515
16.2538 8.13953 2.07283
19.4163 37.5451 63.0604
86.4242 88.0611 70.4736
1.79361 3.7147 5.66131
1.63184 0.925963 9.5998
50.0422 60.1832 46.8423
14.3313 37.9835 53.5815
4.82282 1.75781 12.6105
51.0545 50.2652 52.1018
33.7852 51.2843 59.5561
17.2553 12.6538 13.4582
10.192 16.7325 25.5529
14.7563 16.9678 20.1459
23.1038 29.1282 42.3151
33.0813 34.4574 19.5845
5.47886 10.0581 14.3542
30.5404 45.49 42.6348
28.4624 61.0549 79.9203
5.104 8.21622 40.7369
80.7099 82.3592 46.8124
38.1278 93.5701 125.604
49.8572 99.8312 159.497
18.3838 6.31945 18.8144
13.9961 6.53029 5.50992
15.9858 31.2898 45.0318
2.8092 6.82774 29.6739
32.1034 21.6693 13.421
0.617993 6.25436 14.6534
15.3079 37.6936 80.127
48.2241 30.2522 18.7622
3.38157 1.47978 1.46941
6.20342 15.6501 28.695
5.25983 5.67074 23.9114
21.6481 12.5085 7.86001
10.7262 25.7047 59.5981
32.7317 13.2507 14.2873
44.6268 31.6978 13.4141
22.0969 37.0404 67.7797
61.9923 67.7193 62.04
11.6417 31.0642 78.187
104.085 97.8006 70.0791
16.4552 25.4925 31.1651
1.15906 7.89237 23.875
34.6335 48.108 69.0869
43.3976 61.5807 81.4283
32.2618 42.6136 56.473
17.1395 10.5672 7.01814
9.45445 11.8435 25.4654
62.0009 75.1033 85.4732
62.585 102.855 171.564
59.4756 47.984 29.0868
3.47815 3.75412 1.473
8.77327 9.60034 7.8607
35.513 76.3296 130.852
42.7592 58.6306 78.2164
47.3157 48.8356 54.4848
14.6321 26.6337 42.7604
8.72196 3.71319 0.203499
20.0316 42.5908 59.5528
3.57439 2.89565 23.7671
29.8767 16.8327 8.16848
18.3979 16.4524 28.8172
67.1356 72.2572 43.9154
33.604 67.5692 74.858
14.171 58.9852 108.896
17.0629 46.9609 124.818
21.964 9.58647 26.1248
39.3635 27.8066 17.2461
76.2406 124.298 174.464
11.8456 15.7277 45.3598
45.7338 34.5702 10.1203
70.5899 146.459 240.853
18.0483 5.28556 6.88763
15.279 19.1333 22.0077
3.87183 5.49568 4.7717
9.01362 28.4279 52.1695
12.6372 3.32539 0.732194
26.991 35.3157 38.7818
17.0738 38.7067 66.8494
0.0743333 5.83785 39.613
22.2605 23.4935 14.55
10.1485 15.2249 16.1971
7.94736 20.9054 25.2309
2.55843 15.8547 33.1933
16.6993 44.8282 99.9081
4.18857 3.75822 52.1651
45.5324 40.7499 43.9033
17.1231 18.7834 14.6116
15.4708 16.5717 13.028
1.45077 2.59367 6.32481
8.37146 21.8812 64.1453
20.3291 11.156 2.48019
18.5668 23.0879 11.9525
10.4589 25.2019 29.3032
21.2763 46.3676 80.6189
11.4266 6.14389 3.635
1.34999 3.51755 13.6462
15.6095 38.8025 67.2418
19.4094 12.3651 14.4639
30.8315 40.258 36.7704
11.585 28.6016 47.6593
15.9172 57.148 150.896
17.1349 2.512 11.7124
24.4037 24.531 7.04994
33.0112 84.1334 146.187
23.1832 18.218 25.391
4.09843 3.5769 6.98616
2.72301 10.0064 52.9339
85.3495 163.289 241.625
40.5352 36.7021 38.8889
13.2974 38.2101 103.399
36.891 35.0689 14.0511
7.91187 33.8129 115.268
133.896 249.672 339.258
15.0372 9.13584 28.4097
2.26827 3.84627 41.0144
24.4973 11.722 7.13715
12.1753 4.86283 2.65635
46.8622 70.2638 70.6605
3.4958 13.2891 22.2237
3.29102 15.6494 34.9045
13.0544 11.8757 6.83749
14.8187 38.2806 68.6302
6.24636 37.689 130.438
28.6301 17.5351 1.25008
5.19541 8.33141 26.61
33.3384 71.0051 105.17
37.4549 64.7532 104.914
17.2882 32.7757 90.5671
17.3538 8.90584 12.4107
28.8567 51.6975 55.1186
16.7291 42.6407 95.4601
8.09451 1.57017 5.26896
10.7909 14.4111 10.9686
0.75243 5.21557 18.5795
5.40575 8.20372 16.8813
10.6019 18.6149 23.7777
0.0179777 2.41712 15.2973
0.970405 0.434238 14.8738
8.20416 7.11626 3.34071
1.04735 6.20261 46.4633
49.3428 84.1347 95.6687
1.53717 5.31672 56.4265
51.7765 76.2985 68.0451
25.8926 77.7413 122.145
3.14999 7.02144 32.7132
9.14008 5.3211 1.91544
2.13273 6.36583 18.6018
16.6535 23.8419 25.168
1.90772 6.0219 26.6511
27.1772 83.4214 178.346
44.5434 39.9877 30.284
15.2993 62.535 179.101
59.0897 62.0533 40.7336
9.14893 43.0236 137.294
33.4783 36.9832 18.2177
12.474 40.2442 100.855
23.3457 30.8414 22.113
6.08319 22.4232 46.0721
7.99976 3.31584 0.242268
22.9745 65.2991 146.674
11.313 5.40559 28.3455
11.7679 7.81605 17.3196
40.3958 74.2627 62.0802
6.69724 43.7277 121.052
19.2979 11.2849 0.0829084
14.359 33.4434 34.9214
1.74235 7.54175 14.3243
1.87949 9.73609 22.6569
6.87434 8.53739 20.4105
5.43392 8.49546 5.55818
3.47264 15.0399 73.09
39.2137 68.4225 68.1073
12.4499 33.6079 45.24
0.691163 10.5817 36.2685
5.44797 9.21384 15.2754
1.26971 0.719274 14.0222
9.56122 12.5691 8.45761
4.04464 5.3648 7.32088
3.07777 20.7362 138.003
87.3776 133.58 77.6188
23.387 112.818 200.377
3.61223 10.5425 37.5822
1.28643 8.89415 33.2492
20.4276 59.4506 115.75
8.58234 21.2187 53.166
6.59949 13.2738 32.5759
2.6557 15.6661 49.4266
8.14659 16.6298 39.2096
1.59668 29.0655 133.715
34.2653 32.0116 35.4216
4.45271 10.9784 66.765
28.95 25.8361 18.278
11.1437 29.4327 53.1245
4.51747 0.498913 2.08298
6.5204 22.8991 82.9892
35.9624 67.2273 105.252
9.80876 4.73765 6.91184
5.47859 11.5299 24.123
4.902 11.0074 17.3075
1.07062 23.3194 128.238
55.2339 68.7964 52.6934
5.27026 27.2495 82.4713
8.46287 0.618105 19.972
30.9328 44.988 40.7749
7.54914 27.7386 68.2559
27.0161 83.398 209.135
15.5227 3.02893 17.0063
19.8227 37.3938 55.0302
27.3476 53.8216 56.7538
0.589298 15.8016 48.2998
11.7738 18.5897 27.0567
0.622195 18.8347 88.866
25.0679 30.2041 40.777
4.27515 7.7371 16.5669
4.15822 7.90752 11.8703
18.5185 81.5752 193.292
20.1092 16.0795 50.9836
24.4799 32.1835 42.4564
8.15652 18.7182 68.4573
22.5449 37.5706 44.4753
1.45846 2.47272 9.62707
0.269038 3.23458 49.4661
28.7189 63.0268 79.155
6.70336 9.12337 5.72236
2.68801 18.264 32.664
5.46638 52.5455 187.711
24.0202 6.88781 36.6186
41.4394 67.3203 89.113
12.9045 28.8015 72.2719
27.3299 39.791 31.3766
10.1654 48.677 146.373
19.9509 31.2029 32.4166
20.7217 87.1033 244.878
28.8316 19.0564 26.0004
22.1331 56.2352 97.5636
6.6327 14.4507 37.7196
12.2955 20.9098 15.0922
3.76329 36.9296 131.368
35.6418 105.386 286.955
50.8098 45.4591 20.6334
3.69506 6.76674 6.8996
1.37177 7.82841 36.6501
20.0234 42.3171 70.2581
6.17865 15.6648 55.8119
14.8981 44.6739 108.623
14.7647 24.8808 48.1391
11.0966 10.6463 5.95945
0.694365 1.56882 6.70757
1.80013 8.00681 23.9635
16.4938 64.3381 176.756
7.71546 6.20907 183.368
92.8168 129.099 49.7365
49.6242 196.546 348.298
9.72607 67.7032 316.868
40.2694 30.5105 55.4704
14.8888 33.4988 67.9673
8.43985 6.37792 43.0125
25.842 36.8819 37.173
7.54184 6.92931 14.6418
37.4787 111.652 220.388
6.19623 3.11859 7.90989
1.9635 18.5183 112.263
27.3794 55.8034 71.8305
6.05702 12.2049 56.7479
19.4697 58.8395 108.19
8.96237 15.9636 52.5231
14.8769 28.5667 68.6878
5.29049 2.78826 18.2587
8.9893 5.02781 4.98971
19.4461 42.716 48.1208
1.18241 11.2488 33.3133
0.659386 4.67614 33.8886
8.70236 18.5004 20.1194
1.22662 2.72351 6.99432
7.24958 30.7659 57.6252
0.724663 23.9458 98.0559
1.68537 15.5509 168.511
32.3492 18.6826 41.8362
30.2317 39.9138 9.89996
33.0565 120.397 189.741
7.19677 13.1601 21.6048
4.30409 53.6778 218.116
34.3117 63.7284 164.532
43.6679 80.1203 102.154
16.4572 80.3506 289.882
37.9751 67.3639 94.3935
2.89355 0.248212 22.9801
10.0073 32.3373 94.8531
31.6886 91.0988 221.06
10.0525 0.191313 42.3085
15.2826 15.4984 7.59881
14.1449 43.4587 40.3707
1.04961 18.0677 48.4827
1.95566 1.53574 30.8771
12.9519 19.0578 13.7628
1.1185 1.72624 0.797116
12.1408 55.7433 143.202
9.18157 22.5504 53.9652
4.22778 13.8648 95.635
19.1591 23.075 13.6788
