# pn-170911/RbIIR-55-NIST-1280-1959.psd
# Power spectrum* (dif=0,1,2) (really just |FT|^2)
# NOTE: only the first half! (symmetric)
# weeks: 1280-1959
# 4 clock-days, 2 excluded
# PSD: 1441
65.9584 0.0625694 0.0295483
13997 0.0923611 0.0777764
200516 4.30638 0.0613299
15847.2 0.80841 0.0719552
66111.2 4.85688 0.0573319
2631.95 0.19844 0.0470892
4975.83 0.808994 0.0812276
1194.63 0.5526 0.104869
2406.99 0.735193 0.0767477
1227.72 0.53837 0.0651422
511.807 0.297102 0.0732585
618.593 0.558421 0.0515365
728.091 0.364351 0.0544209
906.202 1.10533 0.081014
659.673 0.424503 0.0917351
391.272 0.521127 0.0838855
225.13 0.470212 0.0858017
238.299 0.318354 0.0653569
243.039 0.737482 0.0452431
228.776 0.665483 0.0518591
483.402 0.778265 0.0837358
150.417 0.25003 0.0881194
433.581 1.21368 0.0893592
313.644 0.383039 0.0770465
317.319 0.822562 0.0930147
319.183 0.96313 0.0371025
345.777 0.860304 0.0526174
416.381 1.95106 0.0529974
84.8678 0.628116 0.0963176
321.131 1.38223 0.0784364
376.102 1.6781 0.067365
84.4785 0.725392 0.0996896
454.814 1.72065 0.0723745
617.65 2.61296 0.101087
243.067 1.15747 0.0705519
327.853 1.85525 0.0871454
343.828 1.69081 0.0732019
45.2391 0.12189 0.0847763
141.253 1.16706 0.104323
257.656 2.34208 0.105379
205.096 2.23501 0.0234656
331.864 2.69402 0.0694312
205.409 1.97469 0.0785239
158.556 1.78978 0.0802052
325.805 3.08463 0.0902104
162.71 2.23821 0.0778358
230.008 2.32214 0.0423484
284.147 3.3166 0.033796
202.276 2.00868 0.0323692
337.002 2.90727 0.108998
191.481 2.53752 0.142159
350.613 4.07388 0.0677244
339.75 3.80983 0.188501
145.96 2.90135 0.0959336
370.443 4.6466 0.136398
300.543 3.69437 0.150969
491.541 7.17337 0.18317
151.319 2.13342 0.128364
81.4537 1.67519 0.108825
112.236 1.41092 0.0712843
257.344 5.07007 0.112782
179.864 3.54167 0.265632
494.027 8.92993 0.189579
135.605 2.76716 0.0959406
404.931 7.77391 0.18728
479.649 9.07077 0.111994
205.538 4.2048 0.217013
176.755 3.83738 0.20692
113.957 2.39121 0.131393
393.962 10.5535 0.340057
187.206 4.58003 0.147988
423.24 8.9858 0.307011
87.1587 2.54303 0.0844563
291.245 6.96351 0.152034
255.39 6.84339 0.163983
98.2592 2.39497 0.178908
176.279 5.33046 0.196589
115.848 2.36782 0.105997
219.235 6.62489 0.111805
129.096 3.85688 0.261245
127.398 4.25712 0.150811
119.578 3.99611 0.164458
120.094 3.0584 0.125763
194.654 5.9912 0.121294
96.8138 3.94146 0.131989
62.0816 1.96642 0.180668
127.206 4.70967 0.197409
132.421 4.24329 0.0996382
163.077 6.97516 0.273337
179.069 6.79591 0.341565
44.4517 2.19397 0.111072
200.205 6.30569 0.389557
252.841 10.3868 0.317086
128.593 5.45457 0.22659
406.569 15.3936 0.771934
196.335 9.32723 0.55421
363.695 18.531 0.708722
229.66 10.1032 0.650278
124.326 5.09664 0.28609
298.925 13.9435 1.00908
135.255 6.30486 0.258327
103.893 5.19778 0.484974
217.826 11.2167 0.419285
186.557 9.18649 0.499239
54.2237 2.15812 0.152358
167.168 9.00534 0.672257
223.863 10.2632 0.525911
86.594 5.12446 0.1461
63.8749 3.81642 0.372695
93.4483 5.61369 0.272891
197.721 11.33 0.617063
50.3346 2.7465 0.34489
113.172 7.08991 0.272939
155.683 8.39238 0.466697
325.136 18.5333 1.13008
147.344 9.86424 0.733569
36.2455 2.3567 0.39555
196.643 12.775 0.87754
143.24 11.32 0.791312
310.497 20.5214 1.32907
142.436 9.98606 0.62157
124.233 8.48835 0.591221
96.2525 7.89456 0.618908
175.186 12.7455 1.24019
74.7173 4.56321 0.573052
106.183 6.29746 0.747895
112.679 7.39761 1.04439
120.486 10.4432 0.707224
326.516 24.6058 2.14939
141.993 13.2121 1.26206
235.124 18.3029 1.39596
47.3591 5.52543 0.514008
87.0757 7.8115 0.351521
158.202 16.4375 1.31432
126.783 11.4663 1.03961
150.332 13.7968 1.1827
75.4116 7.13393 0.583915
144.166 13.4062 1.4085
150.895 12.2587 1.14054
155.079 14.4878 1.41677
216.504 15.7378 1.38675
223.543 22.3002 1.89256
221.164 25.8606 2.37363
45.7279 4.01335 0.641298
89.3282 9.26822 0.775736
121.985 10.6579 1.07041
172.553 19.9564 1.44311
97.056 10.0185 1.5133
300.889 31.3234 3.59197
103.764 8.86075 1.08388
9.50777 1.49058 0.114288
112.203 10.0552 1.18289
109.974 12.7435 1.72982
93.6685 9.52189 1.35504
149.34 17.6821 1.73361
34.1758 3.02659 0.571323
155.062 17.8667 1.78944
81.0366 9.69398 1.36564
83.9461 11.1254 1.37676
184.638 21.4781 2.61148
78.6397 11.847 1.52265
106.718 12.249 1.74952
76.4104 8.87655 1.0983
63.2761 8.93164 0.975423
36.4984 3.60981 0.660999
127.819 17.0965 2.5442
105.639 11.4777 1.79683
106.816 13.072 2.06752
80.6576 9.62091 1.47216
87.0186 12.1532 1.86231
70.2033 11.3939 1.21418
83.7283 13.3975 1.4978
83.1555 8.67922 1.16618
68.5346 10.7924 1.42283
152.672 20.7224 2.66381
72.6311 10.5188 1.35022
72.8983 10.7084 1.594
247.681 41.4 6.04015
77.8335 10.2589 1.80528
64.4738 10.3802 1.73586
51.2665 7.06533 1.34072
122.331 19.2173 3.30054
69.6252 10.6912 1.61867
32.5192 5.8492 1.00773
174.458 28.0604 3.85615
191.828 29.7967 4.99902
71.8246 11.6353 2.01325
109.45 18.492 3.60276
95.8857 15.6219 2.6395
56.7685 10.4517 2.05057
118.111 19.2489 3.09923
111.935 20.2004 2.91783
77.8352 12.4328 2.13869
117.117 24.2329 4.45281
56.6044 10.1973 1.68439
115.787 16.5315 2.8799
133.03 22.3667 3.17588
83.8562 19.5428 3.24287
61.7 9.06059 1.79385
77.8145 15.6068 2.54087
93.7036 16.2991 2.77797
82.6742 16.0379 3.07441
112.361 21.1747 3.61088
156.01 31.1949 5.36836
75.709 13.3015 2.35745
56.6898 12.2375 2.91366
165.591 29.3718 5.00443
79.5198 14.9366 3.12583
155.458 36.5862 8.03958
93.9739 19.2082 4.44596
163.561 27.7656 5.54392
79.1488 20.2152 5.30864
56.3284 12.7783 2.29395
18.4244 2.74771 0.718479
201.68 37.7032 6.42495
23.8366 3.94383 0.774656
34.4842 7.70518 2.39019
161.206 30.7852 5.79667
118.962 29.3205 8.24158
62.538 11.0119 1.54749
104.956 23.4086 5.34469
127.23 33.6091 7.41919
142.253 34.2125 8.31401
126.581 25.7195 6.3416
25.4834 5.89453 1.39431
16.5055 3.01013 0.529076
70.8511 15.334 3.37429
101.264 23.8067 5.70178
29.5829 7.43087 2.48047
107.167 26.4474 5.69482
68.1593 19.5171 5.66102
90.5421 23.5793 4.99693
110.341 27.4768 7.06869
105.526 21.9779 4.53087
63.1685 18.5917 4.7845
40.387 9.76509 2.6532
75.3597 19.8776 5.16485
61.933 16.8065 4.01453
106.102 26.5039 7.38051
65.2264 13.7454 4.30731
66.5847 20.2308 5.51486
49.6131 11.1116 3.17515
108.141 27.4511 7.34987
66.7017 19.0098 4.88287
159.5 42.3888 10.9591
103.905 28.5079 9.19325
128.893 34.0866 7.9235
35.9718 13.8823 4.89161
41.8434 9.71595 2.36425
55.505 14.069 3.53552
43.0673 13.477 4.5287
91.917 25.491 6.64546
108.855 35.9323 10.7446
65.8194 21.0395 8.07
61.5174 15.9919 4.63793
65.6217 18.9439 5.64829
41.328 10.4477 2.749
86.3809 26.5623 7.87989
73.5735 21.6287 7.57296
64.914 19.0558 4.9907
24.3078 8.61144 3.16936
97.0208 27.3065 8.83787
55.6576 18.9655 6.99997
25.8481 6.34713 2.29575
39.8472 14.0025 4.87389
62.8059 22.2611 7.65779
40.4907 15.0601 5.67099
77.1485 20.7122 7.20002
32.5982 11.4058 4.54485
41.5626 11.6316 4.59655
88.4021 24.9445 7.29532
30.4186 12.4494 5.31761
102.447 33.2089 12.0934
89.9709 28.755 9.63578
59.3807 20.2245 7.41919
49.8967 14.5461 4.29321
70.4256 25.2657 9.16724
42.4309 11.9006 2.98681
43.1507 14.6546 5.59974
33.8796 11.515 5.05605
42.7728 16.5906 6.06187
85.2542 28.2377 9.64181
50.035 18.9777 7.86786
52.9049 22.0679 8.33508
51.5268 14.6565 4.11556
53.9838 16.0841 4.58199
92.512 34.6178 12.6907
83.2731 31.6345 11.4213
22.5195 7.42826 2.7927
19.3283 6.89273 1.97639
73.8135 25.4046 10.4059
54.7936 21.6801 8.89896
30.1555 14.8608 8.28321
32.8964 10.1018 3.64235
35.6624 14.576 4.81944
19.5091 8.61277 4.557
69.4238 26.0161 11.284
89.2477 35.0834 14.9461
21.6464 9.74326 5.42057
113.443 42.0227 16.117
46.8108 19.7177 9.77507
21.2397 12.676 7.34478
11.5313 6.29781 5.42412
120.827 45.3102 15.0076
78.9109 38.3276 16.246
103.881 37.3376 14.0441
29.0797 20.0929 10.1217
30.884 12.6257 6.24785
33.4646 13.417 4.97299
54.1333 23.5952 10.9708
44.1588 17.7434 7.5576
24.3796 9.50094 4.66713
55.633 29.8688 12.4847
31.8309 13.5573 7.61534
99.4025 38.5396 15.624
98.4644 45.2633 19.2001
77.8485 37.542 18.1753
61.9819 34.1573 18.9206
93.0929 35.8992 15.0564
28.373 13.4668 6.84001
60.0234 26.669 10.5595
36.01 15.9931 7.89001
30.4193 19.6903 11.4042
44.3981 24.5738 11.9164
9.18602 5.6709 3.74762
58.1742 30.7801 15.7079
67.3602 37.2876 21.087
30.0804 10.33 2.51838
36.3446 23.7334 11.1615
17.6629 12.1562 7.56128
75.3172 33.1214 14.4494
75.9268 41.7688 24.2303
70.8179 26.8915 10.1777
22.0354 14.2574 9.01667
36.9918 20.6449 12.5105
66.4288 23.1037 8.90238
27.5791 16.244 7.89894
57.4121 33.7905 19.2004
48.2365 21.3406 9.44424
51.671 27.4335 13.3515
50.0695 30.9088 18.5496
61.3217 30.0753 16.9058
46.2444 27.7362 16.0639
23.5665 10.2807 5.64831
22.5037 12.4113 7.82892
67.9809 33.1881 16.5763
20.0748 8.69528 4.50291
33.9327 21.7828 12.1805
49.6557 24.3125 12.2594
36.9853 23.5713 11.196
15.9687 10.6335 6.53224
47.8666 36.116 23.2881
34.3571 17.4209 8.8895
36.2128 21.5685 12.2638
44.0772 26.6401 15.3882
29.4261 13.7781 7.19823
16.81 6.08977 3.34831
30.5327 18.112 10.4561
46.3923 33.7684 19.9975
41.0914 24.525 15.7182
29.7071 12.1613 6.4843
36.5875 17.5633 8.24673
37.1383 31.2075 21.935
52.3166 35.2372 22.1442
58.0892 24.1984 11.3869
57.7646 36.7742 24.8856
37.7995 15.5446 6.84493
22.4857 14.2831 9.88901
26.2978 14.6611 8.99272
40.9846 28.9785 18.0693
38.4454 22.2105 15.8531
35.5712 27.2251 19.4858
70.234 43.8885 23.3277
47.9472 34.3475 21.5172
52.1666 31.6029 23.2683
19.5609 12.3998 10.1178
28.8469 15.0965 8.59113
42.5368 21.8467 11.5252
22.7788 14.578 9.70523
21.9592 9.38637 3.53712
27.719 23.0057 18.542
24.1153 11.1005 6.18991
66.6358 38.8546 22.7271
21.8986 14.8456 8.6848
16.3979 13.3709 11.549
28.4651 17.3325 9.90585
29.8417 22.3982 18.1682
53.8599 34.8647 23.8755
28.2318 15.2083 9.37857
60.9671 38.6236 23.5223
46.2751 30.1561 23.0365
22.2036 13.6211 8.51365
42.4509 32.7289 22.5042
42.2938 23.8765 13.7391
34.1688 20.8379 11.8554
28.9919 26.7982 22.2054
23.173 13.1092 10.8372
37.4263 29.291 23.56
54.2745 37.0581 28.678
28.1493 12.4978 8.10028
60.5383 41.0244 24.6989
28.5698 24.578 21.0497
18.3345 12.3144 9.01209
36.2441 21.2765 14.7416
65.5544 39.8427 22.3021
39.1127 31.8072 27.2305
68.6195 52.5106 34.2118
37.8607 38.5553 33.5193
70.577 51.2972 35.8977
35.2689 28.2446 18.6549
26.995 23.9691 19.619
33.7794 29.5775 26.2077
24.7974 18.0115 11.3536
10.9064 12.4526 12.2235
16.0295 9.12481 8.22529
29.6656 22.7403 15.7083
24.8841 17.9414 11.461
17.1916 17.4881 17.0647
15.0141 9.70159 5.10455
26.1826 23.4941 22.4737
54.1276 48.5867 39.5893
53.4384 36.891 30.0594
55.7686 36.2588 21.1118
29.6631 37.957 42.7006
65.2894 41.6966 27.3146
54.7266 32.8015 19.4925
29.2367 31.0307 27.7558
46.9675 30.1614 19.5356
33.7287 36.1351 32.4748
71.8214 49.6497 29.5962
10.3241 18.9072 23.6025
28.338 23.1518 19.7218
44.3968 37.668 29.0266
22.5302 16.0201 15.1758
17.491 13.2643 13.1348
42.7177 29.8924 21.2933
17.4236 12.4659 8.72851
13.5105 16.7582 14.5772
12.1951 8.66454 7.90419
22.822 22.068 24.1423
33.8967 20.1831 13.5951
31.9315 33.7218 31.7866
32.8316 32.5459 33.2001
35.9941 31.0469 21.8448
30.2082 29.5529 29.2546
34.2707 24.683 22.5926
14.9421 9.9278 5.62961
16.3739 16.3184 16.5831
29.1137 21.4058 16.8825
34.5743 30.1548 20.3105
13.0195 12.59 12.6404
10.5979 10.0064 10.9128
36.5382 35.1186 28.9345
14.6248 10.7802 11.7334
35.1841 28.2103 21.6627
18.9389 26.3138 27.1723
18.8092 12.9661 8.1382
12.5105 12.5527 13.3578
49.7296 50.5001 43.1007
16.9506 16.22 15.3305
19.4829 20.9698 17.6761
7.97902 13.6965 21.9994
35.8916 40.0045 40.7692
13.0634 8.87899 9.57811
20.4953 16.1854 12.7765
19.1975 18.397 18.2535
25.606 24.651 22.8143
21.1192 18.7967 14.6657
19.2653 19.1637 20.9321
26.9233 29.2338 25.0888
10.0772 6.44397 5.51189
12.8474 11.0286 11.447
14.3723 15.0774 14.0342
28.6663 17.7186 12.8727
28.4415 31.2229 30.6052
6.43154 7.56097 11.1634
11.6455 10.9172 15.0694
21.4784 18.0569 12.8221
20.4366 26.7405 33.3229
31.1716 27.9716 25.4256
26.5284 21.2246 15.5395
4.20806 7.85422 13.7073
27.9205 34.9794 41.5337
44.3853 35.4705 28.1389
21.2986 19.7588 21.6375
39.8151 44.6602 43.1501
30.91 29.4281 33.0638
42.8321 45.612 39.7942
18.2103 23.038 32.1862
25.8163 23.517 18.0933
30.0759 40.1185 40.0974
31.2447 24.793 25.5242
33.6989 45.3037 49.83
23.6268 13.4788 8.15147
24.3548 29.7277 32.1198
7.36537 6.23234 10.2901
25.8037 37.6554 48.5686
36.7923 25.6331 16.2741
9.67582 11.9848 9.59064
14.0545 21.1925 29.6278
16.2669 18.6028 26.3733
34.5159 36.4165 37.6348
14.9286 8.4819 3.25809
10.7043 18.1485 25.5647
28.2102 28.8322 20.4665
6.20448 13.8782 20.4524
28.7664 34.2597 36.0985
11.0828 7.89785 8.61994
11.3538 16.9857 25.9967
18.1817 12.6288 8.67305
24.0194 28.9111 27.9895
14.0774 16.5878 22.3519
25.676 30.0212 27.8712
11.0252 22.5804 33.1494
11.6784 10.0139 9.60092
14.2998 22.034 26.2053
21.6218 24.6719 28.7375
16.8022 12.4272 12.2499
10.132 12.0706 11.4255
7.39512 9.88086 15.3556
11.1882 11.538 17.7109
23.5373 31.8216 40.6564
18.4451 17.9772 24.5622
30.506 34.4694 35.7735
17.7815 13.7831 9.4417
16.2622 22.4205 28.0637
8.59184 7.65475 8.00851
6.6911 11.6685 17.1756
27.0428 27.574 32.1493
11.062 10.6431 10.8464
8.54211 7.55259 6.25962
15.311 22.2979 27.3519
18.1859 21.4067 24.9794
30.5604 33.8208 36.8655
8.43554 18.0456 33.1563
14.2096 7.28575 14.2439
16.8694 15.6743 19.049
20.1703 27.0465 30.927
27.2002 29.3122 32.3299
22.2791 29.331 34.0333
14.9818 19.1797 31.3761
15.0039 15.5345 18.5694
11.3615 12.5432 17.2008
9.88936 18.1127 31.0183
35.8526 37.7945 35.9625
7.71938 10.3216 15.9261
10.0075 13.0215 19.0263
22.4919 29.3132 36.2029
35.5122 37.159 34.6195
13.8832 25.1597 39.8805
11.141 8.48732 9.70423
20.875 27.4641 25.9391
7.83993 12.4301 18.0651
20.2912 24.6321 34.435
28.5891 27.2162 22.3376
31.9101 55.5263 78.051
29.8449 42.7595 57.0125
43.7293 54.987 63.0407
20.2223 28.4767 43.4802
26.2901 33.9089 47.9025
22.2966 33.5288 56.8943
33.8786 32.8403 40.667
20.4621 9.89927 5.24405
24.1713 24.8659 22.3465
14.2308 21.2167 33.9478
24.1947 27.7093 30.7628
9.66608 17.48 39.0967
23.5793 26.2642 30.7901
25.3653 30.0912 29.5948
5.22696 9.52866 14.8656
8.70804 8.94987 9.97734
19.7818 24.673 31.5155
11.7237 18.5973 27.68
13.2011 11.9886 17.3793
19.6307 29.5104 35.5568
15.3586 16.6934 19.5499
26.308 45.9767 66.0562
17.8696 28.5993 47.6504
17.7963 18.5567 25.952
14.1372 19.4405 33.5348
24.2208 33.7316 46.4105
21.445 27.7149 31.6707
11.5918 14.5951 11.0539
4.50475 7.41929 9.34298
18.6264 26.7894 37.7629
19.2176 29.8655 38.9956
14.5222 23.0989 35.0087
12.581 23.9859 41.4649
22.2133 34.6998 38.068
8.56468 15.0733 29.7331
7.89738 9.94704 12.5772
7.27422 10.0667 17.509
5.69897 8.19861 15.3712
20.6666 33.079 41.628
13.3267 21.4455 34.3201
8.20568 9.13037 11.4468
14.6578 26.888 45.801
24.5436 30.52 32.3421
16.479 37.6279 67.7469
17.3395 17.2038 27.6133
18.1734 23.4243 32.2958
10.9306 11.9199 20.4299
12.8371 13.1833 9.17201
11.6704 25.3483 44.556
13.6847 16.7855 18.0622
11.0607 17.8649 28.4482
12.6427 28.2534 56.0247
24.7625 31.7194 38.7926
18.3592 28.1387 48.4617
16.9074 22.6845 33.4985
14.4107 16.2099 24.9549
7.49736 9.20726 12.9549
4.34012 4.36989 12.1693
21.9718 23.5022 26.2704
7.18612 11.5547 20.4303
14.1353 22.2393 26.3508
10.2306 27.2874 52.9577
15.774 23.0227 37.9138
16.4251 25.7593 30.31
7.60349 15.359 35.4937
15.0206 16.0035 17.378
5.5043 3.16477 5.89134
13.9976 22.3988 30.2733
12.8103 17.7017 18.6256
9.13118 20.8434 38.5335
10.0093 13.1168 25.6714
14.0799 24.2681 44.4448
12.0499 13.5573 14.2194
6.9713 15.304 32.9293
12.9293 14.9084 20.9082
13.2047 23.0439 40.9103
20.0897 29.1087 44.7694
32.4741 57.2992 87.4626
7.57158 18.7586 65.647
31.5571 30.0573 30.1593
30.2474 55.835 64.4333
13.8236 32.9298 67.7146
8.19851 13.898 38.3999
21.2905 22.691 17.7067
4.25197 8.24941 10.4544
6.49124 17.4973 38.0439
11.0055 11.1199 14.161
15.4196 27.3725 36.7581
11.3094 29.4196 72.5146
14.7139 13.7394 21.0287
16.3894 25.3467 40.3204
19.7504 33.4575 45.0741
6.58942 18.8233 56.0694
27.4424 24.7751 23.8623
16.9646 30.0815 60.4587
14.8761 16.3765 11.5998
8.81196 19.5289 26.2067
6.02744 14.4778 34.3504
15.2291 35.6968 75.3521
23.3286 37.4676 53.4535
10.1258 13.2616 25.9242
9.72087 9.74281 12.7434
11.3852 17.9069 31.478
24.4147 40.4421 52.694
5.98109 16.6731 38.3437
8.40779 9.48586 22.2228
16.4444 20.8128 23.1729
9.30825 21.6834 35.9394
6.37795 14.9481 32.3356
10.033 18.8115 23.3198
4.34465 10.3543 29.499
25.348 44.43 69.9155
7.11387 11.3153 28.1979
7.96906 8.38857 8.30514
7.08648 26.1912 62.0064
19.1842 28.0241 52.6819
13.6536 13.9144 12.4959
14.164 25.3778 40.6541
2.14103 4.73849 12.7001
8.35441 18.9595 34.1859
12.8975 29.2891 69.8866
23.8447 28.9203 40.2487
9.86463 20.1163 33.577
8.70719 13.0834 23.5802
13.9489 27.9185 53.9388
14.2885 24.3211 38.7055
8.24787 9.42213 9.06459
6.29828 18.5076 38.6536
7.50087 8.86524 22.205
7.66547 8.56907 15.2079
4.72591 16.0875 44.3507
15.7375 22.2113 27.9389
9.99823 32.7178 67.5705
17.467 22.4311 33.2674
4.44942 11.0225 31.8881
10.8466 15.4937 25.1478
4.34318 5.10821 11.0201
7.4882 9.51133 20.465
8.4202 16.4952 26.2591
6.48172 11.0403 28.2418
10.101 20.2767 36.9053
10.3445 8.02508 4.17287
7.89637 27.2588 59.1551
9.86759 19.4906 44.2188
11.6342 25.8222 50.1655
10.8023 16.5143 23.508
10.9256 18.7803 42.6444
10.1161 17.7936 30.0748
12.4738 27.1203 42.0629
3.97368 11.4046 50.6019
20.5134 31.4946 43.9268
13.7207 33.4475 78.3597
19.1856 31.3591 59.8176
20.1624 27.6586 30.1637
4.90139 16.2512 52.4771
11.0408 14.8806 46.04
24.6056 38.0243 43.2461
3.91764 13.2826 37.0143
10.3339 20.75 57.3427
19.303 22.1804 37.9582
32.7772 68.2278 107.708
15.5644 30.1589 53.9801
8.45802 21.8971 58.6638
13.4888 28.6482 55.9189
6.92769 5.4128 12.6867
3.16086 8.34762 33.8568
11.4788 14.5109 25.4457
14.2155 30.4271 60.4799
16.4762 22.5896 31.2025
5.71442 18.3253 41.213
9.15548 9.61655 16.3341
10.7476 17.302 25.8402
9.59936 30.8486 55.8829
6.01825 17.1529 42.3965
6.34655 13.6774 35.4271
5.1018 7.16363 11.4983
5.71001 10.3321 18.7836
4.62445 18.8545 35.1029
6.60897 17.8037 54.122
14.9961 20.5177 25.0692
7.60359 18.0334 29.3166
3.88429 11.4783 29.5331
9.32414 19.4715 28.9368
5.9239 14.7343 28.135
4.488 6.66278 17.1873
7.70713 13.8194 23.5934
14.3427 30.8311 54.5467
5.00069 25.0932 92.8041
19.2445 16.4377 23.4589
14.9852 35.483 52.9395
6.91617 24.0082 55.205
5.57194 26.0667 83.1599
13.1634 7.88762 7.17394
9.45425 24.158 58.666
15.4202 23.4435 38.5186
11.3673 31.3871 80.4758
13.7787 21.2369 48.9164
12.2878 27.317 43.7492
6.93872 19.1371 67.4188
12.1507 16.7535 41.2806
21.0246 37.222 46.4924
3.50623 7.71859 11.0133
4.31047 18.5206 56.7229
9.51601 20.1256 46.0047
12.4073 21.1168 46.9144
6.00538 8.74257 17.5477
11.1045 25.1819 53.2654
17.8958 40.0253 83.8037
14.1326 21.6582 46.8629
12.2617 19.0469 21.302
3.33197 14.1587 42.1119
9.82608 19.3142 32.7251
6.59716 26.2429 88.389
18.4549 28.7849 40.991
6.78703 14.9104 41.4633
14.6751 26.0617 44.1733
12.608 39.0373 103.709
13.555 21.4041 32.4254
11.7677 28.6624 61.834
4.77009 11.5594 43.2017
10.8766 18.5705 27.429
5.94084 7.82491 13.0397
4.91999 13.5333 46.1933
12.3522 22.4568 39.2083
8.00475 10.8262 17.7641
8.92461 25.8056 59.9233
12.4819 20.2546 50.7729
16.2175 38.0089 63.1505
9.12048 28.832 82.4019
13.6419 16.2453 23.7703
10.0852 26.7442 49.261
3.00472 9.10216 40.3763
14.1994 27.8187 39.5966
4.76961 16.2175 37.3469
5.01874 10.4565 27.2507
2.78019 14.0477 57.1929
13.1888 18.6984 32.155
3.23859 10.0951 40.0903
14.2338 39.8691 76.9282
5.5481 11.9284 32.5147
3.96046 5.17374 18.6705
2.89964 9.59163 37.7523
8.75014 15.7853 21.9595
3.39096 13.8238 32.9911
4.56939 5.58972 9.41594
6.14065 19.9463 56.282
9.28888 7.36809 16.073
9.35684 29.2431 54.5436
3.23331 16.2016 84.0979
23.7516 54.9676 116.655
16.9401 39.0202 78.506
9.13969 15.7587 24.8331
3.33584 5.9185 31.1888
11.8132 31.4688 71.9286
16.4967 36.6327 85.9895
11.3507 13.7973 18.3396
4.68372 16.9164 56.4586
9.72724 13.9625 22.463
4.75088 14.8645 34.0841
8.36439 20.1503 37.7185
5.17638 13.68 30.9179
5.4308 12.9865 53.9932
19.0054 61.3152 166.222
23.218 30.9405 44.5963
5.23437 9.28063 35.3065
12.079 20.2454 19.8039
4.11272 18.5678 53.5151
6.62562 19.0013 33.7996
2.94026 8.47812 25.5197
2.92201 8.50944 35.608
11.5645 25.2087 55.4079
3.50843 6.84133 45.3449
16.8714 25.9099 27.1838
