# pn-170911/RbIIR-61-AMC2-1280-1959.psd
# Power spectrum* (dif=0,1,2) (really just |FT|^2)
# NOTE: only the first half! (symmetric)
# weeks: 1280-1959
# 530 clock-days, 8 excluded
# PSD: 1441
233.122 0.0486552 0.0226129
13972.5 0.33146 0.0241819
42388.6 0.814637 0.0251177
18140.9 0.69096 0.0245568
18887.3 1.38337 0.0245975
5670.99 0.595888 0.026197
5224.54 0.808478 0.0235303
3007.04 0.641124 0.0250518
2462.76 0.643506 0.023615
1964.32 0.667255 0.024907
1716.95 0.700852 0.026381
1288.52 0.656061 0.0231048
1134.52 0.673424 0.0244007
1018.42 0.726428 0.0243698
850.734 0.699318 0.0240992
784.537 0.750124 0.025623
711.691 0.784458 0.0233979
652.865 0.778137 0.025356
542.179 0.752687 0.026757
513.507 0.777622 0.0253483
468.279 0.844321 0.0250249
448.798 0.852457 0.029478
417.261 0.901058 0.0272805
388.395 0.897597 0.0274143
361.427 0.892791 0.0278178
358.504 0.943969 0.0269522
304.17 0.916098 0.028093
302.732 0.953757 0.0269443
294.048 1.02431 0.0289603
263.253 0.975172 0.0305103
283.815 1.16333 0.0284223
251.068 1.03893 0.026954
248.959 1.12387 0.0288002
228.613 1.1259 0.0275389
247.405 1.27862 0.0308159
221.474 1.19621 0.0320214
227.755 1.26728 0.0312934
204.126 1.25527 0.0320961
228.778 1.49366 0.0376378
203.074 1.33382 0.0312087
189.281 1.34567 0.0355468
212.087 1.5448 0.0398378
196.982 1.53032 0.0360294
192.45 1.5913 0.0383365
192.939 1.62056 0.0406361
178.173 1.58148 0.0410295
168.509 1.59655 0.0414229
176.627 1.72522 0.0429631
181.898 1.92082 0.0506699
163.461 1.73913 0.0446685
172.693 1.86942 0.0458305
160.095 1.86687 0.0457953
158.724 1.98425 0.0508956
163.202 2.07909 0.0512636
159.347 2.12304 0.0556777
164.49 2.22827 0.0550375
168.273 2.41006 0.0586921
144.117 2.16413 0.0613431
155.666 2.38551 0.0638193
158.859 2.51071 0.06378
149.506 2.46599 0.0623741
139.426 2.36062 0.0668454
139.269 2.48361 0.0699391
142.33 2.62129 0.0751793
145.076 2.75745 0.0775481
143.883 2.78426 0.081324
134.005 2.67765 0.0854556
132.454 2.73321 0.0818729
137.069 2.87199 0.0898846
139.768 3.06017 0.0931106
144.096 3.2881 0.105588
138.826 3.26556 0.107249
120.829 2.97226 0.096496
130.367 3.20148 0.106395
134.414 3.36937 0.113161
124.639 3.24534 0.108416
140.093 3.6987 0.127122
137.414 3.80514 0.127893
125.126 3.47153 0.126671
127.697 3.7156 0.132163
121.143 3.71001 0.137922
129.342 3.92643 0.14161
126.417 3.90834 0.147127
130.7 4.07325 0.159198
127.89 4.1057 0.158088
130.375 4.26662 0.168593
124.638 4.2277 0.170355
123.43 4.35613 0.182512
119.161 4.22733 0.175523
125.251 4.60482 0.196884
131.828 4.84053 0.206364
132.025 5.05956 0.222127
120.093 4.69512 0.21622
120.838 4.76952 0.218008
121.647 4.96172 0.229073
116.186 4.81304 0.235899
123.51 5.20089 0.248736
123.848 5.37144 0.263985
110.536 5.03241 0.253048
116.376 5.24068 0.270151
117.825 5.40067 0.290736
115.133 5.42761 0.279802
107.242 5.23147 0.290597
118.736 5.92641 0.316866
111.558 5.56458 0.30711
115.53 5.90197 0.341681
114.385 5.99159 0.342623
105.926 5.6087 0.325386
108.325 5.89474 0.353704
105.323 5.81609 0.367782
118.95 6.55282 0.405561
104.645 5.97141 0.365191
104.867 6.11142 0.382392
103.369 6.17911 0.401055
120.492 7.26295 0.466163
108.876 6.71962 0.458145
105.158 6.61485 0.459625
102.099 6.53972 0.45095
100.168 6.55244 0.454499
101.398 6.67497 0.461951
107.627 7.17179 0.505424
107.757 7.45221 0.553653
100.024 7.09277 0.530766
103.352 7.2012 0.539328
106.026 7.68574 0.604367
97.0181 7.10728 0.550285
98.8818 7.27523 0.586573
97.1767 7.27009 0.567375
99.3247 7.4935 0.600441
102.532 7.97157 0.644357
104.304 8.25064 0.685322
97.9393 7.8259 0.660855
97.6963 8.09597 0.701813
90.6856 7.44203 0.649642
98.2094 8.15727 0.71406
93.3567 8.15532 0.7287
107.556 9.41309 0.823796
95.9235 8.33514 0.769148
97.9001 8.82071 0.812832
98.3549 8.80648 0.825959
93.7622 8.55178 0.815912
101.56 9.23666 0.89728
105.873 9.93049 0.972987
91.9111 8.83578 0.880601
93.5726 8.96903 0.906565
98.9087 9.9966 1.0204
92.767 9.26887 0.947919
97.1525 9.66862 1.00932
91.409 9.32796 0.993536
92.7789 9.7029 1.05466
91.8823 9.73931 1.05879
97.993 10.2881 1.11651
88.0881 9.39024 1.04261
92.1843 9.91645 1.11342
91.3582 10.2076 1.17157
92.5119 10.4952 1.21713
89.4742 10.0192 1.1597
86.1217 9.86456 1.15982
92.1352 10.5577 1.24236
89.8196 10.7449 1.29598
87.7586 10.5822 1.30592
81.6623 9.82539 1.20742
84.5249 10.3075 1.27442
92.2286 11.3648 1.43135
90.3484 11.1046 1.39269
90.1533 11.4349 1.48407
81.9188 10.4479 1.36757
87.3363 11.4148 1.53021
83.9742 11.0823 1.48419
85.4632 11.3005 1.52909
81.9204 10.9807 1.50965
82.5747 11.3071 1.56338
83.9631 11.6943 1.669
84.5974 11.8986 1.70188
80.5726 11.3337 1.64049
79.3694 11.1677 1.62805
77.9411 11.1032 1.6094
77.7432 11.2726 1.69463
75.8915 11.3065 1.70798
73.6559 10.959 1.64784
74.3884 11.1965 1.69825
75.0897 11.5982 1.79862
79.1801 12.1326 1.85971
78.3508 12.3579 1.9705
74.1424 11.7144 1.89236
77.8203 12.5345 2.05926
74.3774 11.7672 1.87789
71.2499 11.5356 1.89983
75.9949 12.6406 2.11729
77.4898 12.7516 2.16441
71.3541 12.0412 2.06868
80.784 13.9404 2.43011
77.3561 13.163 2.27232
73.9405 12.6135 2.19383
66.7395 11.7625 2.12425
70.4544 12.3751 2.20812
73.1951 13.1258 2.38527
73.2124 13.0028 2.38035
70.2528 12.8573 2.41866
74.8004 13.7414 2.57934
69.7353 12.8155 2.43222
69.9411 12.9669 2.44793
71.3642 13.685 2.65152
68.8389 13.2961 2.59635
69.0909 13.0367 2.4868
74.5066 14.6116 2.8924
75.0686 14.7713 2.96588
69.9715 13.9481 2.82106
69.7775 14.0111 2.82693
70.306 14.5237 3.0221
66.8731 13.6101 2.83878
72.6345 14.778 3.08038
68.7423 14.2795 3.00779
68.8317 14.3411 3.0487
61.9654 13.346 2.91031
65.3771 14.116 3.10391
65.7148 14.3257 3.15293
67.7788 14.8368 3.23467
71.7794 15.7673 3.46328
61.9193 13.9075 3.1511
64.8095 14.5457 3.29223
66.4474 15.1324 3.48032
66.8065 14.9893 3.44017
61.2525 14.3495 3.40545
69.5719 16.0671 3.71464
64.6364 15.3663 3.70082
64.3725 15.0356 3.58844
68.3492 16.2143 3.85274
65.3935 15.7867 3.89205
66.1905 15.9284 3.88293
60.3724 14.8422 3.62029
59.8873 14.9138 3.74447
62.8816 15.5956 3.88966
60.1441 15.1475 3.8714
63.0898 15.8967 4.0738
59.8491 15.208 3.9694
60.0908 15.4485 4.04925
59.5343 15.5055 4.07733
56.5501 14.4287 3.77846
60.5775 15.9464 4.19539
59.455 15.5443 4.13869
59.0796 16 4.42764
60.8429 16.2311 4.40393
52.9142 14.5861 4.08058
61.2173 16.7775 4.61164
60.9261 17.1368 4.88484
59.2777 16.3179 4.53933
56.0029 15.803 4.49107
64.6042 18.0703 5.06559
57.7127 16.713 4.89379
56.6164 16.6057 4.90367
53.471 15.5359 4.57802
57.9036 16.6798 4.84606
59.7272 18.0467 5.4813
54.4526 16.46 5.05544
60.752 18.0386 5.40672
56.323 16.5344 4.92584
55.2028 16.7578 5.11072
58.4855 18.2889 5.7566
57.5599 17.5331 5.42957
51.3215 15.7094 4.93249
57.3231 17.7722 5.52102
54.1531 17.173 5.42253
50.8872 16.0394 5.11771
54.5332 17.5669 5.69239
50.1466 16.3435 5.30236
55.3911 18.2478 5.964
53.8606 17.8767 5.8868
48.5385 16.083 5.36649
53.7172 17.8596 6.03036
47.7646 15.8738 5.38388
52.1591 17.5057 5.91975
47.5081 16.4445 5.73134
50.0476 17.1269 5.87979
47.5969 16.2662 5.5689
48.3567 16.8339 5.81444
48.8141 17.1721 6.09106
51.9393 18.1835 6.42747
46.7143 16.2905 5.74377
51.9528 18.991 6.91179
47.8293 17.2028 6.30069
50.1506 18.0713 6.55154
48.3433 17.6952 6.54054
52.9366 19.7354 7.29202
45.6465 16.9874 6.38358
47.4761 17.6424 6.65596
46.8429 17.2269 6.51388
53.4536 19.9101 7.49506
48.5825 18.6312 7.15329
46.8597 17.9574 7.00923
48.4554 18.5422 7.20948
45.978 17.6743 6.85438
43.7826 16.8448 6.60824
46.6604 18.1974 7.27206
47.0884 18.6589 7.47465
48.2195 19.319 7.65315
43.5407 17.3091 6.98451
47.5003 19.0684 7.66633
43.8202 18.0291 7.4716
43.782 17.7757 7.31133
45.54 18.2766 7.45887
47.6513 19.7611 8.31366
43.7269 17.9797 7.33801
45.4587 19.4609 8.26008
43.4144 18.1566 7.66376
42.1182 18.2217 7.90358
45.7056 19.3069 8.24273
46.5661 20.2255 8.78296
42.5968 18.5617 8.20651
45.6485 19.3828 8.34934
44.2973 19.5841 8.7319
41.8036 18.0915 7.8795
40.9326 18.7775 8.6895
43.1414 19.418 8.86855
43.6816 19.3471 8.59526
40.3227 18.1427 8.30784
38.123 17.1179 7.93451
42.3002 19.0557 8.70018
41.4001 18.6993 8.59131
40.4523 18.41 8.53498
43.2454 19.9507 9.12642
43.9607 20.6539 9.64151
40.4322 19.2132 9.20034
40.3757 18.8681 8.96303
39.7624 18.9212 9.00748
37.9341 18.3382 8.86695
38.2172 18.2498 8.79167
39.5668 19.2044 9.29782
40.0543 19.7226 9.71315
36.8054 18.3478 9.18755
36.2646 18.0028 9.05153
39.4016 19.1465 9.26831
34.3737 17.5518 9.1466
41.0228 20.5203 10.3002
37.0676 18.3315 9.23858
36.4307 18.7787 9.75402
39.8293 20.3876 10.4576
37.77 19.081 9.68801
37.96 19.7846 10.3401
37.1984 19.8551 10.6179
36.3638 18.9005 9.96312
35.9255 18.8082 9.91772
34.3638 18.2261 9.69403
36.4521 19.3536 10.3198
37.4332 19.9693 10.6854
35.6049 19.2232 10.5584
37.1588 19.6961 10.6017
34.0428 18.3563 10.0107
35.3382 19.3007 10.7547
36.4034 19.9684 11.0924
33.7198 18.4971 10.4741
40.5583 22.3688 12.1617
37.6675 21.0837 11.837
36.4344 20.284 11.3646
36.2422 20.0552 11.1132
35.2217 20.2486 11.5872
32.4597 18.5925 10.8171
35.7394 21.0089 12.3991
37.568 20.9215 11.7475
33.3417 19.6881 11.7901
33.4481 19.1946 11.0904
33.879 19.7962 11.7089
35.7005 21.2302 12.5704
33.753 19.715 11.7217
36.3444 22.0464 13.4192
34.8302 20.2857 11.9608
32.0921 19.4316 11.9233
33.1535 19.8185 11.7728
31.4359 19.329 11.8931
34.3591 20.888 12.6869
31.0513 18.889 11.6324
34.0371 21.0291 12.9756
33.7686 21.0265 13.0454
29.0533 18.2499 11.7916
32.8327 20.6568 13.2355
33.1629 20.4482 12.7731
33.0451 21.2222 13.6941
31.0886 19.4836 12.3069
29.6043 19.1046 12.5016
31.7905 19.9015 12.6587
30.2862 19.8545 13.2128
29.9879 18.7763 11.9744
28.1094 18.1215 11.83
32.3396 21.5858 14.4671
31.2374 20.1568 13.3172
32.2192 20.8688 13.5022
30.4373 20.6609 13.8454
29.286 19.6323 13.4389
30.6986 20.2214 13.5145
30.7252 20.7432 14.1219
30.8763 20.7372 14.0051
31.6194 21.6347 14.8838
29.9823 20.2426 13.9016
30.6264 21.0535 14.5854
27.9888 19.0929 13.2263
28.8229 20.0925 14.0754
30.256 21.275 14.9011
27.7083 20.0292 14.7085
32.3103 22.3319 15.6446
26.4663 18.2563 12.9126
28.3679 20.0634 14.2616
28.44 20.6939 15.0295
27.0405 19.5434 14.5626
32.0902 22.6303 15.9165
29.0254 21.0889 15.178
29.2067 21.5599 15.8269
27.6538 20.7354 15.8856
28.7363 20.1874 14.5481
27.9115 20.1146 14.6699
27.4382 20.4125 15.3155
28.0934 20.2678 14.848
26.6758 19.8194 14.8864
25.7313 19.5961 14.9085
25.9223 19.6545 14.9963
25.3682 18.9134 14.3944
26.371 20.3491 15.4215
24.504 18.819 14.7824
25.9137 19.7196 15.3915
28.6864 21.8466 16.7822
25.8685 19.3573 14.6043
26.2736 21.5527 17.5314
27.4655 21.6075 17.3738
27.6552 20.9604 16.1962
25.1407 19.4214 15.3961
25.7469 20.0295 15.9076
26.4476 21.0099 16.5178
26.4924 21.3318 17.2105
25.0144 19.8651 15.8529
24.1628 19.5775 15.9798
24.1471 19.4858 15.8069
24.0359 19.7956 16.5492
25.2335 20.1423 16.1959
24.0677 19.8708 16.4894
26.1348 21.4576 17.5504
23.7985 19.7838 16.5186
22.6649 19.1455 16.5498
25.3011 20.1787 16.2637
24.3673 20.9779 17.9483
24.129 20.0818 17.0164
25.125 20.7039 16.9996
23.2058 19.9739 17.0811
23.4411 19.7035 16.5545
22.1897 19.4185 16.9581
23.3853 20.2757 17.4277
23.5252 20.5816 18.2091
23.4199 20.5833 18.0469
24.374 21.0925 18.4843
22.4795 19.6504 17.474
24.6392 22.2888 20.0889
25.4898 22.2033 19.5284
22.8344 20.5342 18.6968
24.115 20.8823 18.3846
23.5518 20.5915 17.9997
22.3622 20.8179 19.6155
22.0307 19.001 17.0941
21.8342 19.7526 18.1713
22.4474 19.9144 18.2091
23.3855 20.4556 18.1946
24.1613 21.5359 18.9928
21.5368 20.0689 18.7458
21.128 19.7367 18.8553
22.5415 20.0828 17.8713
21.0734 19.823 18.7574
21.2666 19.772 18.3297
20.8509 19.7477 18.8547
21.3244 19.845 18.3651
21.3084 20.5818 19.8138
20.7121 19.8685 19.4302
21.7635 19.9932 18.7129
21.6098 20.9463 20.0923
21.2702 20.2562 19.1953
19.7769 19.4657 19.2673
20.2001 18.8134 18.2428
20.3461 19.759 19.4105
20.8968 19.2967 18.0538
19.3709 18.9756 18.7778
19.4925 18.997 18.545
20.6367 20.6699 20.5789
21.0428 20.4824 20.1639
19.5991 19.5391 19.5623
19.2898 19.3912 19.8367
21.7002 21.5296 21.1904
20.0204 19.6237 19.3378
18.4277 18.9423 19.5437
19.6237 20.2182 21.1908
20.8079 20.4625 20.403
19.2528 19.3476 19.5001
18.9467 19.651 20.5177
19.5181 20.1202 21.0692
19.8411 20.1447 20.8713
19.7148 19.6906 19.7851
18.5151 19.4695 20.2124
18.9459 20.4468 21.825
19.076 19.6074 20.6093
18.7117 19.7774 20.9326
17.4888 17.8787 19.1535
20.4919 21.627 22.6318
18.9763 20.0067 21.4857
19.1674 20.1498 21.3569
18.3911 19.1498 20.2261
18.3934 19.863 21.0802
18.1313 19.7627 21.3369
17.0715 18.6195 20.7064
18.4813 19.7398 21.0405
16.9559 18.8434 21.1006
18.8059 20.9652 23.5241
18.0616 18.823 20.4132
17.1166 18.6695 20.7734
18.7237 20.4655 22.7124
18.7783 19.9426 20.944
16.5658 18.6416 20.8117
17.4379 19.6648 22.289
17.422 19.4321 21.658
17.3586 19.5151 22.4019
18.6905 21.0213 23.6829
17.7421 20.0538 22.3673
16.6403 18.697 21.057
15.9917 17.8972 20.6112
16.8273 19.3303 22.088
16.5764 19.0682 21.9834
16.3115 18.9838 22.334
17.6152 19.9278 22.4483
16.2637 18.9365 22.1575
16.7955 20.2564 23.8567
15.5301 18.6683 23.1797
17.5403 19.3973 22.1685
16.6954 19.0819 21.862
16.106 19.3707 23.1613
16.6547 19.5398 23.1247
15.9177 19.3673 23.7558
16.2298 18.5505 22.2161
15.6661 18.0251 21.3771
17.926 21.7999 25.4976
15.6775 18.668 22.4716
15.9516 19.4415 23.9734
15.9824 18.8326 22.6116
17.3858 21.924 26.949
15.8666 18.4482 22.1796
16.7311 20.8163 25.63
15.2428 18.9782 24.0531
15.7882 19.2388 24.3083
17.1826 21.0021 25.3539
15.3953 18.5718 23.1312
15.1983 18.9127 23.7092
16.9204 20.8896 25.3317
15.695 19.5909 24.3316
16.2387 20.9095 26.7008
17.0952 21.5946 26.9807
15.279 18.6064 23.4996
14.5642 18.491 23.3407
15.4423 20.0369 25.8302
14.3051 17.8492 22.7448
14.1021 18.252 23.9657
13.9595 17.4006 22.3099
14.4258 18.7868 24.2466
14.4353 18.736 24.5123
14.308 18.3632 23.9238
13.1804 16.8176 22.6898
16.3802 20.9557 26.6023
14.4185 18.9265 25.2302
15.9995 20.5878 26.202
14.42 19.0539 25.6734
14.8718 19.1024 25.0115
14.4577 18.7099 23.7939
13.8516 19.7025 27.6947
14.5272 18.4377 24.3568
14.2279 19.4315 26.008
13.5096 18.5884 25.9996
13.8818 17.969 23.9184
13.8794 18.5873 25.3656
14.0186 18.3855 24.522
15.1688 20.9616 28.4174
14.2114 19.1077 25.8479
13.66 18.552 25.4459
13.9308 19.007 26.3178
13.7666 19.1234 26.76
13.7777 18.2712 24.8456
14.7191 20.0103 27.0176
14.3317 20.1457 27.8563
13.9564 19.3322 26.5249
13.5768 19.2166 27.1387
13.8862 20.0266 28.9232
13.322 18.2828 25.945
12.6686 17.6344 25.5806
13.3054 18.2623 25.7688
13.5505 18.754 26.3686
14.2777 19.9105 27.2783
13.6819 19.6846 27.9533
12.589 17.8262 26.0049
13.8641 20.0796 28.775
12.6852 18.065 26.6541
12.32 16.8173 23.8912
13.4351 20.058 28.8271
11.7743 16.0123 22.3815
11.1621 16.8276 24.7784
11.8546 17.8548 26.9975
11.9646 17.092 25.3766
12.3659 17.8494 25.866
12.4379 18.5037 27.1217
11.4085 16.8726 26.0887
12.6331 17.9158 25.5066
12.1551 18.7667 28.6931
12.9319 18.607 27.3092
12.2224 18.1211 27.329
12.3264 18.8541 29.1781
12.3795 17.7329 26.9796
13.0598 19.2391 28.0398
13.0483 19.7196 28.7672
12.3238 19.7875 30.8108
11.9208 18.0055 28.7874
13.5288 19.7635 29.1685
12.9154 20.0285 31.3185
13.943 20.7262 31.0951
12.9296 20.8051 33.2627
13.072 19.3596 30.4598
13.2205 18.6019 26.6632
11.6634 17.7269 26.5726
11.6516 19.0402 30.6103
12.4337 19.4752 31.2977
13.0559 19.5862 30.473
12.7854 19.413 30.4878
13.0211 20.3292 31.7326
13.4055 20.6503 31.7804
12.6748 19.8574 31.3788
12.8792 19.992 31.092
12.572 20.249 31.6471
11.8308 19.1992 31.7389
12.9112 20.5444 32.2038
11.3615 17.8483 28.3041
11.6117 19.1657 31.6526
11.7359 18.679 31.3077
12.9819 20.2642 32.5437
13.2153 20.9167 32.3091
11.1069 18.0416 30.4665
11.9983 18.5689 28.6249
11.6324 20.2528 33.5294
12.1253 19.6089 32.1722
12.1309 19.2194 30.5215
11.333 19.5043 33.2788
11.386 17.9051 28.9904
10.6568 17.7326 30.3032
11.4319 18.8582 31.2744
11.3536 19.0718 33.0655
11.9935 19.1121 30.4291
10.7319 18.0371 30.5753
10.9654 17.6226 28.6589
11.1061 18.8232 31.2668
11.1676 19.1774 32.785
11.2941 18.8896 32.7328
12.8603 21.6963 36.0422
11.6308 19.4804 33.0474
10.7922 17.4536 29.7582
11.2821 19.3682 32.4666
10.4428 17.3336 29.598
10.276 17.0552 29.2617
11.518 20.0266 33.2423
10.9306 19.3176 33.9436
11.5321 19.8096 33.818
11.358 19.9417 34.5911
10.8592 18.7291 32.6645
10.7555 18.7789 33.994
11.9321 20.2288 34.7422
11.41 19.5668 33.8993
11.449 19.927 35.0457
11.2491 19.9856 36.6823
12.4702 20.9109 34.2583
11.2574 21.2852 38.5839
11.0374 18.9974 33.9516
10.0426 17.4181 31.4789
10.6405 19.0988 33.8596
10.2316 17.8161 32.4257
10.6476 18.4827 32.9307
10.6768 18.3547 31.563
9.86235 17.6831 31.0098
9.66827 18.3025 34.8876
10.9284 19.0721 33.725
9.76475 17.5914 32.7815
10.2068 17.9219 32.2633
10.0363 18.1925 33.5188
11.2552 20.2592 36.217
10.5777 19.1838 34.2099
9.763 17.8517 33.5045
10.7824 19.8153 36.5162
10.7193 18.6886 32.5807
9.53986 17.884 33.0839
9.62292 18.1046 34.3847
9.68843 17.4721 32.4543
9.841 18.6862 35.9595
10.4054 18.3463 32.8666
9.9609 18.8378 35.5561
10.4048 19.5732 36.7391
9.49411 16.6729 30.6877
9.23682 17.1652 32.4789
9.74297 18.2643 34.1069
9.63853 17.9313 32.8535
9.22656 17.9057 34.6073
9.79608 18.7409 35.9279
9.80916 18.1801 34.6397
9.56404 17.3568 31.9096
9.14986 18.1682 36.5978
10.1004 18.2058 34.6093
10.0649 18.2751 32.8856
9.29879 18.2177 35.4265
9.77897 19.1584 36.803
9.42931 17.6213 34.5266
10.4338 20.5367 38.451
9.24332 17.5995 34.7287
9.0481 17.2003 33.6904
9.16351 17.6104 34.3989
9.56761 18.609 35.5004
8.50782 15.9604 31.0879
9.01553 19.3302 40.888
9.99267 18.4482 36.1983
10.2492 19.6782 37.4526
9.72136 19.7789 39.3896
9.70496 18.5273 36.1351
8.9744 16.9942 33.6549
8.70747 17.2066 33.9609
8.38531 15.7657 31.7908
9.38085 19.0793 37.2817
9.11661 17.8188 34.431
8.38443 17.186 35.5556
8.57259 16.7395 34.4166
8.97207 17.2536 34.9497
9.97705 20.8493 40.518
9.0035 18.3556 38.209
9.38102 18.0515 35.6442
9.00655 18.2817 36.5457
8.70739 17.6003 35.5068
8.49142 17.5265 36.8171
8.68228 16.7809 33.1476
8.17832 17.6471 38.0028
9.09968 17.8808 36.3462
8.54446 16.9238 33.7892
8.28874 17.3957 36.7616
8.58216 17.7932 37.8527
8.73867 16.8503 34.2969
8.71969 18.3655 38.0922
8.82982 18.2153 37.5406
8.27104 16.6111 35.2576
8.81948 17.5282 33.598
7.62853 16.4143 34.2567
7.40218 15.404 33.3811
8.43407 18.0162 38.0705
8.82298 18.1302 35.7836
7.30988 15.4247 34.2852
8.34459 17.7613 37.2262
8.1442 17.3161 37.4065
8.36725 17.5061 36.841
8.73311 18.6832 39.5607
8.43817 17.3622 35.0379
7.27411 16.3687 36.0416
6.78363 14.0071 32.6953
7.77669 15.7766 33.9448
8.06276 17.0314 37.1816
8.55706 18.4814 40.2442
8.56307 17.1442 35.7906
8.19814 18.0997 39.4112
8.5642 17.962 37.143
7.62192 16.019 33.8085
7.50965 17.2277 38.8399
8.14489 17.5796 38.1613
7.54237 15.8803 35.8194
8.03911 16.9676 35.6862
7.50856 16.7197 37.2296
7.92286 17.4429 38.8433
8.03169 17.6122 39.8384
8.31854 17.555 37.6123
7.78851 16.9721 37.0137
7.58036 16.0927 35.3171
7.68142 17.553 38.7264
7.47258 16.3931 37.7043
7.78599 16.6846 36.7872
7.82055 17.2069 37.9373
7.38906 15.7329 33.1076
6.98635 16.7426 38.7496
7.96086 17.6511 38.0371
7.02397 16.1087 37.6482
7.51946 16.8804 37.9153
7.15212 15.8213 36.0051
6.77135 15.0702 36.0596
7.68738 16.8746 36.9948
6.98808 15.4457 35.2655
7.24275 16.086 36.1752
7.07949 15.7455 35.4933
7.353 17.2173 38.3171
7.07399 16.4553 38.5606
7.17482 15.6152 35.5935
7.13504 16.1821 36.6978
7.06102 16.3292 36.8041
6.76697 16.1422 38.6886
7.04008 15.1421 34.1576
6.88861 16.4484 38.0745
6.87892 15.6858 35.9926
6.7625 16.1148 38.9809
7.28715 16.0803 36.4591
6.93279 16.6132 39.0346
7.20275 17.0912 42.0038
7.84725 16.8398 36.1482
6.64749 16.221 39.4874
6.91017 15.0015 34.4458
6.51636 15.5129 36.4638
6.74583 15.9042 36.7056
6.52657 15.3472 36.3351
6.50438 16.016 39.874
6.90287 15.4754 36.5947
6.79228 15.5789 36.9934
6.69027 15.6953 36.7216
6.53788 15.8881 39.0468
6.94867 16.2085 37.4328
6.16911 14.5488 35.4208
6.32914 15.399 38.9342
7.12357 16.0883 36.0774
6.35271 15.7626 39.0736
6.68987 15.715 38.2432
6.8663 16.5655 39.3739
6.78728 16.4649 40.9588
7.33261 17.5696 42.8554
7.04918 16.1925 37.9972
6.25613 15.313 39.9148
7.48824 18.2249 44.6552
7.74696 18.7033 44.8879
7.02148 16.4907 42.7734
7.96788 18.9332 44.9646
7.61478 18.243 43.8684
7.36773 18.0096 44.8364
