# pn-170911/RbIIR-59-PTBB-1280-1959.psd
# Power spectrum* (dif=0,1,2) (really just |FT|^2)
# NOTE: only the first half! (symmetric)
# weeks: 1280-1959
# 8 clock-days, 0 excluded
# PSD: 1441
280.448 0.0996535 0.0318675
19988.2 0.480134 0.0421174
65350.2 1.09962 0.0456553
22710.8 0.734567 0.0465228
68744.1 4.86299 0.0448585
6937.97 0.669231 0.0467243
7095.36 1.09237 0.0458779
2774.12 0.706675 0.0479375
4715.96 1.3025 0.0485292
4291.75 1.74687 0.0430107
1879.38 0.806444 0.0496336
1281.83 0.65775 0.0445968
1887.3 0.9214 0.0450866
1128.67 0.583736 0.0451589
1166.52 0.926205 0.0438346
1431.25 1.36732 0.0504718
1291.09 1.73292 0.0433872
1040.07 1.27953 0.0429889
575.961 0.927847 0.0486506
946.767 1.39172 0.0467635
1149.1 1.94356 0.0487939
1023.45 1.8266 0.0609119
541.587 0.896238 0.0442581
536 1.18985 0.0526971
392.002 0.597835 0.0480239
689.692 1.7119 0.0488577
642.101 1.55539 0.0422643
374.986 1.18417 0.0482782
362.888 1.53611 0.0574153
583.347 1.92156 0.0545306
339.891 1.22084 0.0391364
163.999 0.838823 0.0526309
733.854 3.42121 0.0626511
686.22 3.30843 0.0811548
677.404 3.25122 0.0531069
244.901 1.22654 0.0448714
268.375 1.83353 0.0582754
411.901 2.11322 0.0601043
567.118 2.96334 0.048377
339.407 2.46132 0.0822386
344.207 3.06018 0.0565381
359.599 2.67693 0.0615661
298.753 2.32196 0.0710035
170.357 1.79625 0.0615009
416.72 3.78635 0.0781887
230.118 2.19063 0.0573005
257.962 2.38746 0.0541636
302.753 3.16884 0.0511038
492.686 4.75337 0.122427
241.012 2.89918 0.103886
205.857 2.73218 0.0694162
289.972 3.28207 0.104331
513.709 6.20382 0.141836
323.077 4.55822 0.097865
127.045 1.67473 0.0886117
317.737 5.05053 0.0875457
187.257 2.93427 0.0992961
425.412 6.01827 0.104755
392.103 5.57495 0.150057
173.442 2.51671 0.0956875
298.482 4.90096 0.147748
444.599 7.6145 0.213293
369.273 6.69341 0.224109
344.08 6.60841 0.155121
120.74 2.12163 0.06846
211.678 4.24315 0.148967
281.587 5.92344 0.126298
100.631 2.21153 0.122925
191.504 4.94905 0.125791
544.934 11.8792 0.392406
170.146 3.89454 0.0905446
689.752 16.4708 0.527032
262.904 5.91588 0.127102
179.41 4.08952 0.134862
216.742 5.16321 0.14099
320.114 8.75059 0.279186
226.765 5.68645 0.239678
388.093 10.6405 0.426274
196.261 5.70176 0.205709
255.977 7.17517 0.331857
205.777 5.96775 0.267416
352.266 9.94149 0.424983
206.352 5.96594 0.212643
95.2188 3.13959 0.171498
108.21 4.08496 0.163733
181.569 6.01037 0.231126
176.43 6.75139 0.248502
180.778 5.60102 0.26338
270.854 9.4292 0.47285
216.13 7.20267 0.35323
272.453 9.34057 0.367234
295.163 10.3096 0.458812
191.098 7.23231 0.40293
217.919 7.79185 0.421089
243.424 9.85565 0.558367
100.829 4.03526 0.234805
425.035 18.8033 1.00993
69.0349 2.839 0.186872
281.195 12.654 0.612225
202.184 8.66729 0.402273
288.893 13.5365 0.706468
214.863 9.67251 0.627012
294.519 15.3016 0.926523
288.437 15.1495 0.872198
126.481 7.2265 0.369968
277.524 13.6678 0.821882
132.965 6.62926 0.398009
286.623 16.2853 0.784044
373.671 21.0307 1.41786
203.735 10.8713 0.468034
143.751 8.15351 0.402242
181.471 10.244 0.653293
295.301 18.3576 1.21457
356.679 22.898 1.48272
118.452 8.19958 0.499124
145.487 10.6855 0.810624
140.459 6.88944 0.359
141.591 8.01886 0.474409
160.981 10.7198 0.644783
226.565 16.4528 1.15813
82.1977 6.01819 0.533343
173.734 12.1883 0.822395
154.174 11.922 0.817546
100.168 7.39894 0.619055
130.33 8.87216 0.508542
106.504 7.29766 0.553471
430.759 31.0953 2.5389
328.711 24.5002 1.80388
224.575 16.1137 1.28888
218.612 16.9536 1.46548
177.667 14.2768 0.979458
150.721 13.6137 1.28754
51.7281 3.13731 0.330014
127.993 10.8731 1.02085
119.336 8.679 0.591038
148.397 11.8388 1.13487
91.3753 8.15671 0.816832
128.375 12.2001 1.15057
158.949 14.3853 1.23413
119.098 10.0968 0.967687
217.521 20.354 1.93493
106.485 11.0872 0.998093
117.993 10.3209 0.938165
110.207 9.7565 1.04268
75.5242 7.02023 0.831588
166.181 15.6327 1.63283
280.072 26.9301 2.72044
222.455 23.2944 2.73958
222.59 24.0838 3.09332
178.212 17.6019 1.70949
154.243 16.7026 1.85503
194.066 19.9052 2.10024
184.076 22.2434 2.72215
119.975 14.5894 1.54209
152.898 14.3455 1.66349
170.443 18.2338 2.02142
81.6852 9.34489 1.23605
160.367 20.027 2.45082
119.816 12.8468 1.59373
175.003 20.5897 2.57959
220.699 26.4412 3.25348
123.491 14.0696 1.50465
109.346 13.9225 1.75875
131.57 15.6707 1.82962
223.802 26.8008 3.41511
115.726 13.1155 1.67303
108.753 15.3933 2.11986
106.067 13.4701 2.13035
137.379 18.4422 2.49469
180.566 22.3675 2.7228
85.939 11.7259 1.55158
67.5353 10.2402 1.61906
127.564 18.0699 2.63263
56.2048 7.04168 0.910879
82.1027 12.5912 1.75826
96.0687 14.4506 2.08881
66.4397 8.6404 1.23568
125.751 17.6887 2.52287
128.773 20.3856 3.22686
97.6124 16.899 2.77361
224.418 31.3193 4.36488
204.512 28.491 3.93365
175.609 26.0106 4.23871
84.5207 12.0984 2.02336
87.7752 13.9693 2.501
113.141 16.4409 2.8599
98.3492 13.9301 1.72766
110.749 18.7299 3.39118
88.7244 13.7455 2.08844
152.792 26.1043 4.40812
49.2963 9.88849 1.6768
138.34 24.7251 4.5707
210.084 36.2617 6.15166
146.403 23.7926 3.93108
61.2664 9.94635 1.66323
143.446 25.4042 4.51662
52.9916 8.45527 1.57396
123.032 23.7218 4.33305
117.437 23.3733 4.6745
130.909 21.5789 3.63597
110.052 20.2555 3.99505
126.599 23.6745 4.87358
85.9503 15.6179 2.93454
44.1654 9.84688 1.90235
102.336 20.2736 4.1142
74.6622 14.4513 2.99102
90.1628 15.7935 3.2721
155.53 29.1765 5.77724
150.273 32.7436 7.06787
121.952 25.4805 5.21059
38.1385 7.52773 1.71821
84.3243 16.5636 3.62156
99.6811 20.0576 4.29975
55.9746 11.773 2.37004
52.1699 10.5643 2.37233
92.0659 21.3902 4.64209
80.0753 16.9611 3.6413
49.775 10.9674 2.53731
89.731 18.2237 4.21181
117.85 24.5031 5.20939
53.1073 14.4786 3.81453
67.9535 15.3736 3.54318
66.6552 14.6228 3.6314
134.328 31.7948 7.71179
37.5283 6.82799 1.34872
78.0969 19.5484 4.5065
69.3548 15.6433 3.74854
83.9559 19.8798 4.53588
121.899 30.8079 7.94815
75.5115 19.508 5.15031
211.811 45.9741 10.166
95.3205 23.987 5.66473
103.66 25.9751 6.50327
57.6779 16.0958 4.45756
118.714 29.1335 7.26064
80.143 18.6036 4.70268
92.2836 24.0739 6.95432
79.3918 19.2694 5.38194
94.5742 22.5726 5.54161
126.972 31.321 8.08051
60.0343 17.3255 4.7393
76.8457 18.2943 4.78019
63.4215 15.8428 3.98862
93.0522 28.6533 8.97067
35.7149 10.652 3.78895
56.0006 14.2068 3.3058
26.6935 9.09399 3.23649
47.7428 14.8902 4.93865
104.375 26.1061 6.60096
54.7501 13.2601 3.9941
68.3979 18.7855 5.16532
57.863 17.3581 5.25189
46.0423 13.2024 4.04677
64.7398 18.5541 5.01488
97.2059 34.4704 11.2922
22.9224 5.39428 2.03578
61.359 19.0515 6.19615
59.587 18.5933 5.55031
39.7752 10.7629 3.55246
64.4862 16.2707 4.70535
55.6274 19.1383 6.11855
51.6878 15.6989 5.47414
51.1222 17.6635 6.49957
67.7374 17.3713 4.50642
108.316 33.3727 8.98113
64.3505 25.7654 9.56269
115.723 34.1809 10.6435
86.3277 30.5886 10.9724
43.0481 14.487 5.39561
42.6922 13.8377 5.31858
54.7187 17.5998 6.24289
58.6313 18.244 5.6987
18.0677 6.33154 2.44858
56.673 17.3391 6.26422
94.0992 35.3478 11.9932
85.4107 28.1256 9.56308
53.6039 15.8048 4.70552
27.5311 9.45119 4.37256
99.8093 30.2342 8.1497
31.5721 10.6925 3.88194
85.0035 29.3978 10.5291
58.1084 22.7339 8.55943
59.0162 26.2067 11.0746
69.1973 22.3091 6.90289
54.0082 18.3513 5.51025
37.5518 12.3477 4.38588
38.8021 15.7354 5.82705
59.4918 25.8513 10.2014
62.7896 23.2908 8.75175
32.9604 10.9793 4.3588
51.1658 19.8109 7.96737
53.951 22.2078 9.94898
43.8018 17.5094 7.15707
31.8171 11.3022 4.69258
33.2729 12.0957 4.55268
43.316 16.1401 5.65742
40.8951 18.1241 7.61435
69.4697 25.4432 10.3471
75.3999 26.1264 9.11785
43.1123 18.3369 8.6707
58.0143 22.1606 8.66853
52.8907 21.85 9.6732
94.1638 38.0541 15.2129
36.8064 15.7135 7.19555
58.6786 23.0678 9.14241
61.2223 26.9748 10.3761
30.4883 15.8652 7.36858
43.1875 18.5845 8.37331
20.2513 9.45165 4.42406
41.7481 18.7217 9.63067
38.4985 14.3032 5.13454
40.5115 16.6737 6.62146
42.7752 24.7123 12.3141
66.8567 27.0627 10.4815
22.1689 10.6848 5.36442
60.2959 30.0602 14.6842
17.9782 8.15845 4.50609
49.2592 23.2167 11.9565
29.3921 10.5439 4.11802
28.0163 11.3483 3.85139
46.8395 24.3218 12.6207
60.3417 25.1945 10.3837
55.2449 25.9113 11.2003
51.0774 28.8906 15.2396
55.9185 26.3086 12.6537
34.6534 13.2502 6.66155
52.6139 20.1092 6.9486
29.9532 14.7714 6.99478
78.2195 37.5992 17.2438
23.2599 14.4202 7.89683
42.8764 20.1868 10.4678
42.1305 21.1107 10.6448
24.3391 11.849 6.64573
20.4663 10.7618 5.88064
31.777 16.1837 8.2026
32.9015 16.563 8.93464
49.6562 24.6557 11.5266
51.4908 30.4271 17.6213
25.2772 11.5426 6.23774
47.8551 25.5931 13.6631
49.9564 21.3714 9.65038
42.6054 25.2627 15.0293
42.4972 21.5874 10.751
56.6683 30.2994 15.421
20.5677 10.1321 5.92298
36.4522 18.6281 10.2537
36.6422 19.3816 10.8699
21.1697 11.8946 6.68347
27.3008 13.1975 6.16584
27.5514 16.5109 10.1991
30.636 15.5978 9.09695
58.173 30.2477 14.8367
39.5214 25.575 15.8116
52.1404 25.5489 12.9206
22.4602 15.4214 10.0489
36.1537 19.2282 11.1189
30.7866 16.5321 8.29284
42.6155 26.672 16.1967
29.5127 19.433 12.7356
30.4222 16.0769 10.3005
51.0361 30.6937 16.5837
30.0943 19.6737 14.0594
70.7135 41.3575 23.9833
45.7454 28.5056 18.5328
32.505 15.0757 7.56956
29.2125 17.1435 9.80443
30.2433 15.4535 8.10155
25.7702 19.0898 15.192
79.6918 47.6066 27.2796
48.5881 24.5675 11.085
29.3451 20.3648 13.7031
24.4584 14.8631 8.70918
34.7535 24.394 15.6849
22.0833 12.5708 7.39024
11.918 8.54423 5.48952
18.2608 9.05184 5.02488
32.5469 21.3934 12.2134
32.9198 22.1443 15.0819
26.2318 18.7745 14.0835
56.4319 28.9967 15.0203
49.6743 35.3531 22.2364
27.9501 22.829 18.2254
39.0118 22.6589 15.2096
39.022 22.4943 13.7611
61.3145 44.9271 29.9698
31.4435 19.6462 13.6214
29.9599 21.6493 16.077
32.4386 16.6859 8.86669
37.5577 23.9109 13.9319
41.1885 31.4057 20.5635
13.2839 9.75364 8.33235
30.6147 21.403 15.1444
27.8368 16.2217 10.5984
32.0754 25.4157 17.4238
19.9749 17.2291 15.1757
38.3859 25.9803 17.9964
36.5511 22.3831 13.9171
24.5811 15.9861 11.3509
34.3003 22.6574 14.9716
19.5908 15.417 12.6925
30.7476 21.5655 14.2645
12.1045 10.2092 9.86119
35.746 26.5897 18.5708
23.7567 16.3134 10.8231
16.6152 15.3729 13.4267
31.9058 20.9186 14.6798
23.0813 16.2653 12.9773
31.7272 20.1331 13.0299
16.0868 10.4383 7.96676
18.8556 11.7202 7.00896
28.9057 20.8446 14.6675
14.3562 10.5432 8.2994
51.2243 40.5434 30.7122
22.6184 14.7528 12.596
28.9438 20.2252 14.2021
49.5182 33.178 20.2536
18.6752 17.3193 15.2078
16.4553 14.7471 13.6105
22.8526 21.4068 20.2395
42.2984 26.0055 15.8988
32.7348 31.5388 26.1944
27.852 19.0122 13.9773
22.5711 18.7191 16.3509
15.4099 11.8755 9.57201
19.5552 17.6484 15.3427
23.9162 19.5997 17.0332
34.4681 26.0043 21.1728
21.3108 16.5874 14.108
15.7399 12.8341 12.7799
27.651 20.7573 15.6412
33.2474 25.2362 19.0355
15.5739 14.0943 13.8417
24.7175 22.0677 19.1792
28.2598 18.1206 11.8415
22.3732 19.6284 17.0728
39.8432 29.2588 19.6472
12.9709 10.4136 7.22729
29.6001 29.2461 23.4139
22.5762 24.4146 23.967
16.9927 15.5864 16.8156
23.5024 18.7008 15.0657
7.86479 7.82118 8.9712
21.2746 22.0713 22.2708
13.5104 6.83942 4.20085
13.3977 14.2782 16.3196
26.5018 17.9221 12.4324
21.5861 16.0812 10.1315
17.6084 18.2236 14.8878
12.7087 13.5198 14.4214
33.5196 32.5843 32.1352
22.1243 16.4986 13.96
27.1751 20.6947 15.2204
17.2984 20.5672 23.4583
20.5555 17.7291 16.509
27.3447 22.628 21.2644
24.4247 20.9864 17.3243
29.6549 27.2109 20.6097
13.2456 14.3923 14.5966
11.0764 10.5361 9.88803
11.3067 11.4528 10.883
13.3589 13.5887 15.2607
7.28014 4.7127 5.64559
23.4159 22.3015 22.5103
30.9391 23.1523 16.8923
11.5076 9.28051 7.11151
20.9756 19.0768 15.1948
16.3841 20.4965 21.7381
18.0391 23.339 28.0357
22.1144 14.0373 10.1578
13.4598 13.5748 13.1958
20.7768 21.388 22.1947
15.4589 15.2041 16.2211
31.3777 29.6621 28.4466
31.4309 27.8145 23.531
26.3368 29.7411 29.0304
12.6565 12.775 13.1227
18.5733 13.9252 10.4156
25.308 31.916 37.347
20.4968 17.7575 16.7051
15.7646 17.6187 20.8302
29.1776 25.5333 20.9781
26.408 28.4046 29.0056
13.5595 13.1223 13.475
11.0778 11.9486 15.7952
22.0728 22.2954 22.8409
25.9085 29.1376 30.4662
13.9612 10.5867 11.6822
18.31 15.5702 14.4808
18.6548 18.2995 16.0008
15.368 19.0412 22.9168
21.7496 17.7266 15.2963
15.8795 15.438 13.8252
8.70517 10.5057 12.3708
11.5688 14.613 16.7968
7.8752 6.18192 6.67557
13.0581 13.213 13.538
13.7386 14.6253 13.4446
11.3707 12.6945 15.3637
19.858 25.1576 29.3452
18.8188 15.9402 14.3623
6.9197 7.13614 8.06835
14.8202 16.4589 17.6095
15.6853 16.0825 16.7125
13.7081 12.3661 11.7595
24.5284 30.2213 31.4789
13.9267 18.6306 26.2788
20.263 20.8917 23.6787
24.2971 24.8104 21.6567
8.08965 12.2776 17.3202
17.3504 14.4495 12.9705
14.039 13.8781 12.1962
11.3972 15.6159 18.4344
10.3954 11.7273 13.0737
9.40489 11.0799 12.64
9.28531 11.4286 12.3381
14.2507 19.1642 25.6646
27.7523 25.5879 20.3923
12.4099 17.1785 19.8025
17.3362 27.9751 40.3954
17.5748 18.2597 21.4923
21.2358 23.7521 24.977
12.6491 10.2637 7.74469
6.44628 12.2226 19.4505
18.7245 23.789 29.3547
14.3037 13.6293 15.4581
21.5874 27.6958 33.5164
22.0262 20.8655 19.0663
8.24867 10.0514 13.5375
20.8392 27.8457 34.0136
17.711 18.3218 20.3333
18.7115 24.787 27.578
17.0726 25.333 35.8004
16.6272 23.0523 31.5184
10.057 6.74644 9.37631
14.1658 14.1788 16.2229
16.6717 19.6813 24.6487
27.8631 34.9291 35.9362
9.41606 14.8058 19.4084
7.95638 10.902 16.6661
6.47118 9.44952 17.1994
15.4691 19.8792 28.4237
14.4463 18.9193 33.4311
29.5498 25.5977 23.362
17.5505 17.6125 17.0001
17.1538 21.5873 22.6475
15.515 24.5224 34.95
18.6841 24.9158 33.6821
22.2007 23.1463 21.8096
10.7388 12.2894 13.3462
10.1634 17.69 28.4263
25.855 29.6145 32.6028
14.2166 18.5458 23.899
12.9714 16.9443 23.3292
17.1976 20.8694 22.2809
10.1719 12.3144 16.9253
20.866 31.4614 38.7886
9.50985 12.512 20.6093
19.4064 26.3117 33.6233
16.8672 18.0519 19.3467
10.8973 15.9654 22.5135
8.50542 11.0928 17.509
10.577 13.833 21.2042
14.6662 15.7298 15.9504
10.0338 15.3624 19.7889
12.0981 17.8436 29.8333
20.4105 26.413 35.2401
21.4486 24.9648 24.6469
11.8612 14.5231 15.5471
7.51869 13.7493 22.5035
14.9425 19.7285 25.6476
10.718 11.3817 13.4004
14.8561 22.8245 32.464
7.35005 6.57869 6.90947
9.48644 16.5861 25.202
14.3799 18.4194 23.0189
15.4134 21.3693 24.33
13.617 21.9916 31.6104
12.3982 18.3798 30.0902
17.9878 25.79 39.5968
15.2124 17.2052 18.5166
12.0309 18.6502 23.8775
8.83329 15.2487 21.3358
9.27059 14.7059 23.4966
10.8522 17.6142 31.5494
15.364 14.9318 17.7488
18.2251 26.8028 31.4087
8.09629 11.8406 17.7089
11.0659 16.8571 21.6788
11.0342 27.7307 52.0876
18.8366 24.3008 37.6545
17.0283 19.8868 24.9724
7.71388 8.14803 11.8588
12.3465 18.8946 29.109
11.4032 15.2746 23.1083
12.6372 18.5618 22.7752
8.8056 12.0306 16.689
10.5178 18.6556 29.6944
11.8124 14.4898 21.6504
14.7376 16.3371 14.2787
5.47941 10.5674 18.3814
8.05075 12.3053 18.2463
7.18728 12.2294 25.1727
20.8516 28.0104 30.5284
9.56902 19.0177 34.8936
13.6063 15.6181 19.7534
15.8117 22.6974 30.4462
10.2805 16.3715 24.5484
6.96829 13.0091 24.1805
10.4559 12.4575 16.2049
9.33085 13.2846 17.7943
5.40393 10.1793 19.3279
9.12799 12.2357 18.6639
9.86363 16.5903 29.3226
21.05 29.2533 36.7043
7.4765 10.5027 17.2844
8.39288 14.5659 23.792
7.14296 8.73876 11.1894
5.65353 9.71325 20.6468
11.933 19.0546 27.3839
8.76351 12.629 17.182
7.59679 13.2874 19.6023
7.87361 15.3753 28.7469
12.9985 19.5708 26.9141
7.34902 13.0994 25.7011
12.4346 19.269 27.8892
9.57629 18.3214 32.0601
11.5394 18.912 34.2363
13.3225 15.3763 19.1427
7.97332 10.5309 15.7995
12.6614 19.7715 24.5332
7.76522 17.7326 33.1464
7.81931 15.0189 31.7775
17.1117 27.2661 40.066
10.0137 13.1259 19.9315
7.19422 10.5204 16.3347
6.3515 10.1921 16.8919
6.94992 13.9688 27.3878
13.5831 20.2881 30.4866
7.04133 10.4356 22.5989
11.1561 15.6496 21.884
13.0446 20.1266 26.5916
11.7047 24.4806 36.7543
5.21045 10.352 26.5468
11.1116 16.3562 26.8565
11.3328 17.4638 24.1155
8.91886 20.6736 40.524
7.61633 9.35303 22.0094
11.6807 16.4597 23.472
10.4617 17.5827 26.857
8.46858 16.1307 29.29
11.7525 16.0824 23.9362
15.8249 28.4062 40.7577
5.63403 8.40648 13.625
3.39474 7.23589 14.6794
6.05895 9.49495 13.775
3.62038 7.19037 15.391
5.80532 8.66217 17.0761
7.72612 12.7052 21.4335
9.72685 19.4827 35.1491
5.01297 6.1709 13.1435
6.99298 11.4667 14.5973
4.34984 13.2898 28.8542
8.57907 14.3269 26.9886
8.33529 13.698 27.3213
12.0663 18.9454 25.6166
7.38759 12.3452 20.9493
10.5685 19.6017 29.8434
6.55622 15.5016 33.4991
11.7887 16.3598 22.6921
5.80496 11.3376 22.9598
8.19549 16.1431 25.7543
9.85955 23.4417 50.7332
12.7207 18.398 28.4427
5.07109 5.01897 10.7925
6.81744 10.8568 12.8454
7.53149 17.7756 33.5103
14.1486 24.2144 31.0726
4.21003 14.29 41.5147
13.1035 16.322 19.1967
5.3156 14.6033 33.37
8.63191 16.883 43.2759
16.5378 25.4739 37.3892
7.0939 11.955 21.7812
7.10135 14.8097 34.3175
12.318 19.2148 26.0735
6.77499 10.7918 14.8725
4.64624 9.88316 22.3535
10.0526 16.1211 26.2178
6.97723 14.3074 24.1179
7.30844 15.5198 28.9597
8.66623 19.5646 37.1944
6.19348 12.0458 27.5706
8.00654 12.3872 20.264
7.5134 17.1981 38.4061
8.06528 12.9598 20.7788
4.24912 6.94019 13.3303
6.33407 13.855 25.8954
5.15834 9.53501 24.469
7.44869 10.8157 19.8959
7.36648 14.2749 27.0944
9.55859 17.5366 43.0172
12.6273 17.4174 24.5434
6.14793 10.801 21.783
16.8618 30.2589 40.4042
4.88883 13.1931 31.7806
9.50702 19.1491 29.7908
8.21353 22.106 48.1468
4.18334 4.21281 13.7695
7.44065 10.7947 14.4651
9.09097 26.1862 56.6851
8.32426 17.6377 39.0074
8.98425 12.8691 17.7535
2.60652 5.63473 13.1307
3.95831 9.22502 27.0691
11.2269 20.7927 33.7113
7.42674 17.4174 34.9193
7.86555 15.6564 38.0412
7.41812 12.4525 26.2477
7.70775 13.4418 24.6718
5.20249 11.0929 30.424
11.291 18.0059 26.3544
5.97054 10.7968 18.6993
8.69293 22.0113 40.3244
7.88363 15.1752 23.8907
6.24194 18.5865 45.3349
6.47 9.56814 26.0938
10.0687 17.1972 25.7069
8.02007 17.7704 26.8769
2.18928 8.53298 30.6681
17.8183 46.1697 100.245
11.131 13.4243 19.8257
2.45327 4.86301 18.9716
6.77173 13.4305 27.5532
4.3277 6.48439 29.8505
13.5154 19.0828 18.0299
6.34611 14.9761 24.0389
3.61201 9.60369 23.6551
11.0318 27.8232 49.732
4.62999 10.8796 33.9202
8.32899 13.7515 22.7753
5.94266 12.5659 24.43
5.43215 15.5457 37.9347
6.51319 9.40279 17.5158
5.17317 13.001 38.1654
11.0528 15.6586 21.7178
6.24108 16.2106 33.1326
6.95193 12.72 21.683
3.30632 5.55855 15.8643
9.64316 22.8262 40.8219
5.31304 13.0913 28.5442
5.92783 13.1545 29.2356
4.57464 7.91398 23.6013
6.76021 11.6023 26.1214
7.86752 14.6925 27.8809
9.24448 20.9818 31.645
2.81353 7.35182 19.7428
3.58832 7.3461 20.1802
8.85456 24.5516 52.4695
8.33144 15.0226 25.7051
1.4766 3.77433 14.9464
3.11622 7.50438 26.539
8.21287 16.3506 37.51
8.82499 15.9121 25.6614
6.7159 14.8623 24.2126
2.18746 8.21652 30.3081
7.75936 14.5156 25.2634
3.40352 7.62673 19.4628
5.83949 17.0973 48.855
10.2503 16.0221 19.6979
3.10534 10.2258 22.4852
2.20372 7.80346 33.9258
9.71999 16.4412 30.4487
8.33497 21.1358 52.1312
11.3522 23.4177 45.7947
8.39105 19.9024 39.6525
3.82953 4.65457 13.1759
5.83736 14.7578 30.2894
3.66317 8.34898 18.444
1.82245 3.3669 12.7062
6.35613 18.8795 44.305
5.19835 6.24501 15.2173
6.26493 15.8072 38.5572
6.99434 16.0118 34.7616
4.54916 8.90044 25.4147
6.44214 13.0123 27.7271
6.38722 15.7217 33.9635
5.12534 10.6945 27.1971
7.01534 11.9429 17.3247
5.16693 15.9664 36.3519
7.04575 17.6252 40.8887
6.622 12.5276 28.4097
7.81366 16.0986 23.6598
3.8408 13.7953 37.4149
8.94889 24.0673 49.6581
2.79162 4.26607 14.7619
3.0442 10.2269 33.2275
5.75687 13.8181 43.6694
7.55842 12.2797 23.5792
4.9351 10.9048 23.8986
3.31046 7.51831 24.6806
4.85163 8.62665 25.796
10.4933 24.8009 41.0884
5.20938 13.4073 38.7907
7.37758 16.7975 35.0261
4.55367 8.77832 12.6788
1.86087 7.28946 29.9678
6.33822 14.4033 26.232
3.36046 5.71279 14.2897
6.94269 17.177 31.6946
4.40589 18.0685 57.5944
6.94517 9.46209 21.1597
7.72463 19.4575 35.7205
4.14177 9.18858 24.2469
6.40132 17.4 37.8449
5.46755 11.1969 24.8759
2.94549 4.90009 14.5185
4.60117 11.8641 29.2399
3.66389 6.42304 13.8671
5.7492 18.9978 50.0423
7.77908 17.1921 37.2252
7.13919 17.1351 30.9199
2.30251 5.93696 19.0218
4.14143 10.1877 24.906
2.79726 6.14759 17.8818
4.4986 9.41726 16.1084
3.77829 12.4301 29.4155
2.05332 5.279 15.5732
2.23315 6.7459 20.2537
