# pn-170911/RbIIR-41-AMC2-1280-1959.psd
# Power spectrum* (dif=0,1,2) (really just |FT|^2)
# NOTE: only the first half! (symmetric)
# weeks: 1280-1959
# 525 clock-days, 22 excluded
# PSD: 1441
397.57 0.0715457 0.0276108
19386 0.461178 0.0305551
61068.2 1.19251 0.0318144
14290.3 0.518436 0.0300242
23476.6 1.71029 0.0315128
4805.95 0.445539 0.0316572
3489.18 0.48196 0.0275392
2501.18 0.425285 0.0290311
2512.48 0.658732 0.0285348
1638.98 0.500525 0.0307312
1599.88 0.636782 0.0293516
1073.67 0.501125 0.0308016
1360.2 0.841154 0.0330605
773.451 0.496946 0.0340744
907.845 0.684556 0.0296774
698.508 0.553549 0.0292443
818.362 0.854256 0.0314464
543.07 0.582001 0.0308388
646.343 0.867885 0.0289836
482.318 0.700982 0.0320534
558.415 0.928418 0.0342696
417.632 0.77126 0.0351323
494.452 0.973235 0.0325143
387.97 0.839926 0.0305937
485.975 1.20947 0.0332766
325.783 0.807332 0.0318148
418.583 1.18971 0.034891
320.113 0.98979 0.0340702
403.515 1.33579 0.0378585
320.297 1.17672 0.0334874
416.885 1.6646 0.041621
296.347 1.14753 0.0353307
360.574 1.62983 0.0393892
325.004 1.541 0.0364842
359.476 1.77663 0.0392611
274.841 1.54543 0.0397344
336.492 1.92275 0.0433528
292.286 1.75671 0.0415222
305.837 1.97268 0.044267
258.744 1.71768 0.0413131
333.975 2.41335 0.0497161
260.259 1.94216 0.0473527
307.267 2.38261 0.0514821
279.163 2.29775 0.0514894
296.978 2.595 0.0604269
258.424 2.40979 0.0583788
291.391 2.72735 0.0583816
235.481 2.34062 0.059059
277.787 2.88129 0.0569483
235.988 2.62421 0.060251
268.172 2.98678 0.0649255
258.811 3.01819 0.0671624
265.762 3.29151 0.0730726
246.445 3.0917 0.0753717
277.402 3.7257 0.0836521
242.135 3.28769 0.0773026
236.104 3.41891 0.0801072
213.823 3.16977 0.0791959
274.948 4.26882 0.103012
235.999 3.77992 0.0939101
245.437 4.11129 0.105511
240.194 4.09674 0.108358
243.799 4.3698 0.111708
252.464 4.60783 0.120214
237.103 4.38893 0.115373
234.514 4.61111 0.120325
260.007 5.25949 0.144948
235.846 4.92126 0.142552
221.557 4.77114 0.140431
246.252 5.38032 0.145864
234.035 5.31797 0.163681
210.382 4.84018 0.137093
264.808 6.3748 0.19079
219.515 5.34774 0.170106
221.547 5.60583 0.185411
208.449 5.49488 0.180109
209.359 5.6329 0.192964
203.609 5.55542 0.186567
205.397 5.83688 0.209312
189.846 5.45893 0.190826
197.772 5.96429 0.213404
181.722 5.6361 0.198134
200.686 6.23554 0.23238
191.24 6.21043 0.238891
213.021 6.71056 0.270026
185.524 6.28948 0.244691
191.724 6.58869 0.271639
174.76 6.25113 0.241534
201.084 7.34057 0.29398
186.946 6.92296 0.292641
169.546 6.37334 0.277928
207.296 8.00079 0.327114
186.462 7.29648 0.321315
162.763 6.44801 0.30574
168.207 6.80715 0.305876
168.071 7.16598 0.337546
247.245 10.7775 0.500462
166.485 7.21182 0.356614
154.076 7.03028 0.349648
162.489 7.3019 0.358009
180.47 8.12547 0.419033
165.262 7.88157 0.420314
180.092 8.77194 0.462796
186.074 9.09881 0.493748
174.534 8.65967 0.477912
161.004 8.08714 0.449073
167.809 8.79629 0.492346
160.522 8.57983 0.480412
153.949 8.31173 0.488592
153.297 8.40935 0.518498
172.26 9.81837 0.598605
145.56 8.3204 0.504371
149.147 8.77478 0.536352
144.358 8.56856 0.532859
168.338 10.2414 0.644081
141.462 8.70645 0.569593
141.996 8.7337 0.584677
130.851 8.44248 0.55754
139.876 9.12255 0.646008
160.533 10.4728 0.721979
166.004 10.981 0.784257
149.397 10.043 0.730285
136.82 9.52593 0.700628
138.454 9.70843 0.718269
136.035 9.86093 0.74991
130.56 9.59113 0.72864
159.076 11.8033 0.928414
133.614 10.1545 0.792556
125.542 9.69157 0.787213
125.293 9.60574 0.768169
148.443 11.551 0.953397
145.935 11.8856 0.993526
155.017 12.623 1.06438
134.617 10.9053 0.923471
123.092 10.3177 0.900241
124.235 10.482 0.908271
131.987 11.1825 1.01071
133.708 11.4839 1.0496
131.078 11.5632 1.04826
131.793 11.909 1.11357
124.702 11.5432 1.09771
122.835 11.3413 1.08974
115.421 10.8997 1.05985
128.089 12.3187 1.22411
130.056 12.6659 1.27741
129.8 12.3901 1.21924
116.199 11.2952 1.14004
123.959 12.4735 1.28118
117.368 12.1211 1.27696
108.185 11.2169 1.18659
130.434 13.6917 1.51591
134.067 14.1413 1.55467
113.136 12.0373 1.33108
100.831 11.0511 1.25251
117.804 12.8719 1.45642
103.983 11.6856 1.39395
136.183 15.247 1.75806
110.735 12.848 1.51497
110.685 13.0364 1.55269
114.242 13.5494 1.62829
109.332 12.9984 1.56194
117.102 14.37 1.80686
112.812 13.5188 1.6677
115.167 14.1899 1.80466
112.513 14.2893 1.84694
112.915 14.0964 1.85364
108.306 14.0837 1.85619
103.329 13.3264 1.7775
115.108 15.5371 2.11264
113.429 14.9915 2.0444
107.435 14.6191 1.98404
103.586 14.1748 1.96443
102.814 13.9556 1.94181
110.468 15.5226 2.20169
110.791 15.2283 2.13564
97.3691 14.0495 2.07975
98.7263 13.8555 2.03237
93.9861 13.9102 2.11717
107.576 15.8501 2.3814
98.5334 14.4962 2.18141
94.4441 14.2957 2.17855
95.1334 14.3843 2.2359
99.6637 15.6289 2.46079
95.5165 14.6277 2.34837
94.2527 14.6298 2.35665
100.637 16.1141 2.63158
98.8055 15.7626 2.60643
96.1398 15.6175 2.55705
92.4111 15.2643 2.55975
94.6649 15.4134 2.58417
95.3166 15.8493 2.73343
92.782 15.6484 2.71235
115.178 19.6088 3.30973
96.1592 16.6037 2.93233
83.8477 14.7818 2.64568
90.8578 15.8954 2.84413
84.6058 15.151 2.71469
89.0819 15.8914 2.86361
96.115 17.7609 3.31223
88.7055 15.9975 2.9493
79.7811 14.7485 2.79633
83.8336 15.74 2.98449
82.9778 15.9012 3.09046
88.088 16.8041 3.27319
94.1862 17.8122 3.4655
90.7773 17.7816 3.52617
87.2328 16.9832 3.3648
81.2941 15.7132 3.14755
80.2922 15.9814 3.20428
87.8572 17.9942 3.76932
90.0013 18.278 3.74982
84.9873 17.3057 3.63513
75.3632 15.8909 3.40432
84.8113 17.9779 3.85542
75.1697 15.8438 3.41871
82.6975 17.6318 3.80396
86.9067 18.6575 4.06127
82.0076 17.7191 3.89127
77.486 17.0058 3.8091
80.4272 17.7181 3.98601
82.8098 18.4905 4.21537
73.5525 16.6057 3.735
78.4944 17.9702 4.20549
75.0393 17.3522 4.0342
72.5053 16.9387 3.99483
74.9514 17.4038 4.09813
70.2828 16.6433 3.93005
74.8809 17.6863 4.26797
80.1554 19.7123 4.82599
73.6581 17.6174 4.3024
71.47 17.461 4.26029
72.2301 17.8647 4.42598
76.5822 18.9134 4.74562
73.0627 18.8109 4.85038
73.7056 18.2592 4.65265
66.7806 17.0618 4.39615
73.5421 18.7788 4.84396
66.2457 17.2218 4.60423
71.1875 18.6386 4.91823
70.4731 18.6126 4.99225
74.8536 19.8663 5.34672
71.2199 18.673 4.93617
69.8876 18.7584 5.07242
67.586 18.7165 5.17339
67.4101 18.4294 5.09749
65.8832 18.1703 5.02963
73.4694 20.5214 5.73746
66.5395 18.6607 5.32723
69.8076 19.8493 5.67053
64.45 18.4843 5.30607
66.5788 19.1864 5.48883
60.477 18.0005 5.41796
69.7684 20.387 6.03339
64.2408 19.0099 5.70483
62.0238 18.6174 5.63496
65.112 19.3222 5.69527
66.2463 19.6356 5.95987
64.2776 19.7225 6.18548
66.0855 19.8014 6.06399
64.556 20.0633 6.27745
58.8482 18.1201 5.61728
61.772 19.6615 6.25738
65.3071 20.5632 6.47847
63.7261 20.2202 6.48637
61.2778 19.1948 6.07017
61.3359 19.7212 6.43901
59.4388 19.1382 6.22934
63.3959 21.0403 7.01896
62.7214 20.8081 6.99856
59.1592 19.4533 6.46144
60.1754 20.0607 6.75183
62.5824 20.8925 6.97546
54.9763 18.8006 6.50542
60.4569 20.5751 7.03906
58.1521 20.0107 7.08448
55.1385 19.1643 6.81468
58.9432 20.3799 7.10427
53.5813 18.7271 6.70291
55.8009 19.2258 6.6921
58.3729 20.5957 7.24118
52.056 18.7388 6.85219
54.5491 19.837 7.20941
54.1894 19.9251 7.33479
51.7172 19.2916 7.21334
60.566 22.226 8.22969
52.1185 19.5076 7.46701
53.5493 19.9985 7.47768
51.4021 19.7878 7.76734
76.1909 28.106 10.274
55.9138 21.1251 8.02618
51.7931 20.0068 7.82315
52.7184 20.6761 8.23594
53.2622 20.0716 7.71869
56.9287 22.3488 8.81218
50.7277 20.2992 8.09529
50.2217 19.8618 7.90257
52.2356 21.0453 8.43007
52.2539 21.2613 8.6526
48.6583 19.6852 8.10396
49.1355 19.8624 8.20122
52.839 21.5715 8.86414
50.4815 20.5419 8.50349
47.3435 19.2918 7.98253
48.3916 19.9322 8.22971
47.8725 20.1858 8.59447
48.5991 21.0146 9.05843
47.1133 20.1608 8.75322
49.8357 21.1368 8.94086
47.012 20.1897 8.82705
46.331 20.0451 8.68646
42.3648 18.3668 8.05222
45.7399 21.0455 9.70889
49.9745 21.4592 9.43902
44.5942 19.7353 8.93376
45.2933 20.5817 9.42449
45.2861 19.9641 9.0152
45.0348 20.5 9.3599
44.8364 20.3684 9.44335
50.0952 22.6579 10.2804
44.9339 20.8644 9.7312
44.5003 20.9163 9.93972
44.1541 20.1617 9.42962
46.311 21.3806 9.88677
44.6403 21.5464 10.348
47.1172 22.5131 10.9112
46.6072 22.1023 10.5963
44.1323 21.2062 10.2373
42.8412 20.6998 10.0805
41.7826 20.28 9.88273
40.6973 20.4353 10.4745
44.8857 21.1916 10.1022
41.2675 20.6321 10.3289
39.6357 19.4846 9.6974
41.8822 21.039 10.6773
39.1153 19.5141 9.85551
37.5102 19.066 9.84454
43.1548 22.0006 11.3346
42.0027 21.6362 11.2675
43.5215 22.3408 11.5998
41.4389 21.4086 11.0841
41.4383 22.5029 12.0723
38.9934 20.7816 11.2573
42.1524 22.0782 11.8619
41.0008 20.735 10.5995
36.7585 20.2686 11.2178
38.9457 20.3863 10.8532
38.4238 20.2176 10.7088
40.3879 22.3455 12.3818
39.8196 21.5168 11.872
39.6901 21.5267 11.9003
36.4032 19.8734 11.1812
38.1845 20.5877 11.3784
37.0816 20.4501 11.4999
38.0124 21.0454 11.8344
40.0534 22.2839 12.4229
36.0037 20.7671 11.9341
36.1534 20.4048 11.7209
36.2502 19.8931 11.1868
37.7549 22.4072 13.2227
39.1943 22.4872 13.0882
39.9373 23.145 13.3842
33.5894 19.526 11.6003
35.0303 20.348 12.099
36.3875 21.9235 13.1777
35.9548 20.8884 12.4076
35.1741 21.1418 12.6946
36.0765 21.7174 13.1796
35.0001 20.6148 12.4372
35.8168 21.7563 13.128
36.856 22.4089 13.5623
35.4742 21.9486 13.5578
33.0425 20.3432 12.7469
33.9677 21.2875 13.3427
34.4534 21.0209 12.8141
33.2592 21.1408 13.5413
34.7231 21.8511 13.9565
34.5125 22.0749 14.1619
33.3937 21.6233 14.087
32.6255 20.4518 13.1199
33.327 22.2651 14.9673
33.1959 21.3207 13.9898
31.6104 20.0346 12.9993
29.9216 19.227 12.7532
33.7974 22.212 15.0009
42.1128 27.4049 17.5168
34.3463 23.2249 15.4542
34.6502 22.3775 14.6319
32.5187 21.8891 14.7464
31.6799 21.479 14.8218
32.0403 21.8802 14.8376
31.2539 21.2518 14.5881
32.9524 22.1639 15.1057
33.5971 22.8363 15.6629
33.8931 23.1827 15.8237
29.3277 20.0134 13.8201
31.3392 22.0242 15.469
30.4431 21.101 14.7839
29.2852 20.5268 14.7681
28.7808 19.7737 14.0514
32.0685 22.3287 15.5747
31.7808 22.507 15.8352
29.6429 21.0911 14.8364
31.4582 22.8626 16.3576
30.0218 22.044 16.0958
26.4253 19.0777 14.096
28.0504 20.8983 15.856
31.2628 22.2508 16.0702
28.7512 20.8621 15.4453
29.4965 21.4699 15.6206
27.3018 20.4264 15.462
28.3441 20.7122 15.4254
31.1055 23.034 16.8963
27.5574 21.1455 16.3222
28.5303 21.7225 16.7171
27.3254 20.7813 16.3647
28.9188 21.0463 15.9537
28.3497 21.2356 15.9131
26.0278 20.4408 16.1865
28.9832 21.8663 16.7009
28.3633 21.5942 16.6255
29.4626 23.2828 18.3946
27.0989 20.5839 16.0175
27.4847 21.704 17.0893
26.7294 20.5908 16.2107
26.886 21.2703 16.8845
29.4731 23.4705 18.5266
26.2353 21.0303 16.9665
27.7644 22.1298 17.5266
25.7893 21.161 17.4527
26.987 22.1723 18.2354
24.9804 20.4055 17.1776
25.5291 20.3469 16.7781
26.6192 22.1601 18.7696
27.2411 21.8995 18.0114
27.7868 23.2645 19.762
28.2066 23.4781 19.6124
27.3312 22.3418 18.508
27.1845 22.3153 18.5825
25.0149 20.6792 17.3298
24.8676 20.8974 17.8559
23.1866 19.4849 16.7893
26.1159 21.7357 18.4792
25.8148 21.7302 18.6697
23.5894 19.9263 17.2967
25.4416 21.5142 18.4599
25.3657 21.9535 18.9275
24.6425 21.717 19.0119
22.5681 19.7132 17.6795
24.5635 21.4333 19.0239
24.5675 21.1996 18.5886
22.352 19.5759 17.648
22.3737 19.705 17.8827
24.7966 21.5146 18.7005
22.9365 20.5946 18.998
24.2121 20.916 18.5203
22.9161 20.8339 18.9834
23.2267 20.9003 18.8874
23.4478 21.0441 18.8714
22.8137 21.4429 20.2553
22.3017 19.7554 17.9331
22.8497 20.7714 19.3017
23.4416 21.8064 20.3435
22.7002 20.6128 19.0375
22.3182 21.2622 20.5296
25.1336 22.5858 20.6666
23.8061 21.7227 19.6558
21.2496 20.7123 20.0212
21.2905 20.2445 19.8567
22.1447 21.2366 20.2062
21.9727 20.5388 19.851
21.4614 20.2266 19.3988
21.4741 20.3068 19.4844
20.6861 20.0015 19.9638
22.5622 21.682 21.392
22.7312 20.9099 19.702
20.9094 20.8637 20.8584
21.6287 20.6716 20.2415
21.9122 21.4389 20.8012
20.4067 20.3041 20.4559
22.5774 22.2421 22.7163
27.6242 26.7417 24.8998
21.5575 22.2009 23.0346
22.5233 22.0667 21.5999
20.9538 21.2506 21.8052
21.4966 21.3044 21.1582
20.7625 21.4213 21.8251
20.4496 21.1022 22.1635
21.4119 21.6623 22.3431
21.7824 22.2209 22.5704
21.1649 21.746 22.4665
19.5313 20.4386 21.9225
20.0581 20.3743 21.4404
20.2868 21.0324 22.0314
19.3583 20.3772 21.7583
21.0191 21.271 21.5027
18.4806 19.7397 21.7114
20.4393 20.8894 21.2665
19.3317 20.7276 22.5813
20.6532 21.6099 22.816
18.7364 19.9831 21.2104
17.0689 18.6749 21.1747
19.7962 20.9216 22.7482
20.2129 20.3158 21.1902
19.4554 21.2377 22.8858
18.4619 20.6559 23.2371
19.41 20.5593 22.2163
19.34 21.1754 23.4386
19.1995 20.9208 23.0376
19.63 21.1934 22.7732
18.3329 20.4634 23.0823
18.2512 20.3708 23.4536
19.3429 20.8646 22.7599
19.3945 21.2761 23.1933
18.0452 20.1851 22.6143
17.755 20.205 22.6974
17.5004 19.8538 22.4738
18.2063 20.9079 24.4731
17.0784 19.1493 22.4781
18.8889 21.0566 24.2206
18.3497 20.0824 22.546
18.8658 21.6095 24.3665
17.6038 20.2482 23.3169
17.2316 20.1411 23.729
17.0434 19.6124 22.6077
16.2739 18.8642 22.4344
16.7966 20.1347 25.0582
19.8318 22.2522 25.2373
15.9974 18.2552 21.6105
17.8112 20.9477 24.3501
15.8853 18.9992 22.9625
17.7123 20.7127 24.6969
17.6873 21.3866 25.3874
15.9871 19.4823 24.601
18.096 21.1454 25.0616
16.7358 19.8239 23.57
17.3543 21.3275 25.9481
16.7134 20.1052 24.835
17.3507 21.1893 25.9256
16.1038 19.6299 24.408
16.462 19.6814 24.1712
16.8959 20.1924 24.6081
16.2625 19.842 24.3701
16.0119 19.5997 23.8034
14.6881 18.1252 23.2836
16.1203 19.7864 24.6486
17.0806 21.8472 27.3946
15.6829 19.3384 24.2105
15.0007 18.8653 24.0735
16.3791 20.6902 26.1974
16.3226 20.2783 25.522
16.2622 20.6736 26.5215
15.6388 20.0874 26.8306
15.7744 19.1831 24.4073
16.0356 19.974 24.7134
14.6824 19.009 24.6489
15.2336 20.1979 26.7987
14.7377 18.4651 24.412
15.5666 19.4662 25.1078
15.5829 20.3729 26.7416
15.6769 20.1908 26.2888
14.992 19.0047 24.4245
15.0183 19.455 25.3194
14.4859 19.2752 25.7964
15.6729 20.658 27.0609
15.4721 20.9106 27.7316
14.199 18.6408 25.0733
14.3941 19.3728 26.156
14.9853 20.7154 28.5271
14.8946 19.2661 25.9528
15.0128 20.2776 27.9236
15.1249 19.9295 26.6402
14.6075 20.0423 27.3248
14.2783 19.0365 26.2083
14.1662 18.9329 25.8095
14.0468 19.5421 27.305
14.1373 19.8601 29.5903
18.8752 24.7439 30.8881
12.8315 17.6388 25.3341
14.7447 20.4245 29.3171
15.0862 19.784 26.7715
14.1882 19.6018 27.2857
13.873 18.9566 26.7921
14.3833 19.792 26.7899
13.4242 18.9644 26.8595
13.9976 20.2524 29.0599
13.3725 18.1819 25.8316
13.3937 18.2591 25.5072
13.4676 18.9672 26.8559
13.9076 20.5614 29.4974
13.6472 19.433 28.6431
13.8275 19.8873 29.2421
13.3524 18.2851 26.4234
13.9797 19.8252 27.7047
12.1423 17.3537 26.0079
13.127 19.223 28.5796
13.7216 19.237 27.532
12.8013 18.7173 27.5586
13.161 19.4289 29.1822
12.7702 18.2702 27.653
13.6951 19.3117 27.7493
12.2531 17.6626 26.4611
13.6067 19.6458 28.1345
12.2924 17.7861 26.573
12.3609 18.4792 28.3975
13.145 18.5782 26.9694
12.7049 19.2391 29.319
12.4788 17.9269 26.9572
12.6509 18.4836 26.6811
11.7679 18.01 27.7327
12.8726 19.3005 28.5689
11.7552 18.4716 29.0487
12.6523 18.8008 28.8109
12.5033 18.1133 26.9195
11.7987 17.9203 26.9703
12.6167 19.9855 30.4261
12.2375 19.4416 29.799
10.9101 18.0145 30.5499
12.6411 18.2471 28.1426
11.8487 18.0752 28.5272
11.6971 17.2035 26.2862
11.9037 19.092 29.7169
11.0931 17.3178 28.4255
11.8068 18.0262 28.721
12.889 20.0326 31.2254
12.2228 18.955 29.6192
12.6521 19.8952 30.3798
11.1739 17.6272 28.4494
11.8984 19.2668 31.1351
11.6671 18.341 29.1599
11.2027 17.6303 28.0208
11.6204 18.8693 30.2236
11.1268 18.172 30.2067
10.6478 16.9635 28.4688
11.6737 17.9058 28.6003
11.0108 17.4306 28.6421
11.0778 17.5078 28.4167
11.9091 19.0346 30.1176
11.6057 19.2263 31.195
10.703 17.4607 30.2897
12.0923 19.3291 31.3492
11.4811 18.2188 29.1619
11.2911 19.2928 32.6251
11.384 18.502 30.7848
10.976 17.8566 29.9585
11.4032 18.295 29.5177
10.1739 16.5124 27.8885
10.1006 16.4851 27.8207
11.4112 19.5514 33.6866
11.2847 17.5906 28.2304
10.693 18.4725 31.6629
10.4146 17.1805 29.6349
10.9357 18.2171 30.7149
10.8382 17.8051 28.97
10.0868 17.3428 29.4157
10.4669 18.2895 32.1607
11.2209 18.4156 30.664
10.4481 18.3988 31.5318
9.83377 16.5781 28.9376
10.6681 18.7321 32.1353
9.82598 17.2472 31.0586
10.3262 17.5521 30.658
10.291 17.8379 31.6729
10.2687 17.4878 30.919
10.2355 17.1198 30.1455
10.2048 17.5905 30.1651
9.60612 17.2034 31.3062
10.3696 18.1726 32.3413
9.94277 16.8473 29.8148
10.0573 18.0197 33.528
10.4698 16.9383 28.2941
9.19299 16.7876 30.9075
9.94068 18.075 35.2251
13.1293 21.9791 35.2192
9.90782 17.2919 30.6547
9.89111 17.5726 31.1154
9.12806 15.8998 29.1997
10.2367 19.1128 34.1689
9.87384 17.4239 31.5745
9.62976 17.138 31.2708
9.8072 17.8467 32.3388
9.92155 17.777 32.4998
9.99946 17.8374 32.6342
9.67319 17.3055 31.6905
9.5179 16.881 29.9388
8.96311 17.3037 33.3293
9.3305 16.658 32.265
10.5461 19.0035 34.799
9.97753 17.4402 31.8273
9.47928 16.4623 29.144
8.56482 15.9505 29.854
9.29818 17.1838 31.3278
9.09827 16.172 28.9632
8.69603 16.5491 31.337
9.15545 17.3469 31.7574
8.9454 17.4915 34.0911
9.22657 16.7875 32.2525
9.51486 18.4023 35.3978
9.11822 16.559 31.5935
9.65648 18.3242 34.9368
9.38062 16.9465 32.1152
8.80267 15.8019 29.5744
8.96788 16.8262 30.8743
8.93 17.9948 35.7426
9.34629 17.2538 32.1539
8.38552 16.3063 32.3115
9.04557 17.54 34.1611
8.62593 16.2609 31.9046
8.76587 16.5355 31.5676
8.88252 16.6949 31.0418
7.54461 15.0613 30.7226
8.57067 16.7155 32.9192
8.40323 16.697 34.5132
9.08759 16.5161 30.7906
8.28838 16.5035 33.0129
8.08851 14.8845 28.8296
8.21521 16.7104 33.1232
8.11064 15.3998 30.4424
8.46108 16.5585 32.2861
8.25885 16.7055 33.4895
8.26614 15.981 31.8956
8.28194 16.1553 32.4545
8.59564 17.0043 33.7166
8.4368 16.1925 31.4231
7.53966 14.5293 28.7327
7.89094 16.336 32.4056
7.30817 14.6086 30.4558
8.40478 17.2842 35.6399
8.13777 16.1165 33.4261
8.47425 17.3324 34.951
7.82984 15.0309 30.8162
7.77662 15.3232 30.5417
7.70406 16.1453 33.6047
7.77743 15.7505 31.9673
7.52765 15.8784 34.5085
8.04522 16.0795 33.7541
7.93306 15.1892 31.1194
8.12199 16.5093 33.9375
7.98455 15.756 31.3092
7.59939 15.6729 32.6703
7.70248 16.0823 33.1912
7.56821 15.7441 33.2015
7.4866 14.9893 30.4339
7.07452 14.5831 31.4389
7.76376 15.9294 32.965
7.2894 15.1348 31.9341
7.44133 15.0062 30.6711
7.22174 15.5524 33.0534
7.46383 16.0412 34.6564
7.23507 14.9214 32.793
7.62403 15.9574 33.6297
6.93443 14.1269 31.0078
7.18551 14.2688 29.353
7.02097 15.0792 31.5918
6.75242 14.7315 32.9666
7.70858 15.8577 32.2213
6.55421 14.5773 32.1456
6.72171 14.1059 31.0465
7.06935 15.0862 32.3904
7.37457 16.04 34.201
6.75398 14.1969 31.2345
6.83991 14.6486 32.8515
7.49056 16.1613 34.2
6.95225 15.3265 34.1532
6.99648 15.0002 33.6888
6.94389 14.2022 31.4389
7.05984 14.9852 32.1706
7.11758 16.0633 35.3554
6.93672 15.5247 37.5209
8.53292 17.5813 35.075
6.97892 15.7805 35.6857
6.99374 14.4031 31.9219
6.95432 15.3949 34.0301
6.79391 14.2345 31.1744
6.83896 14.9831 32.6701
7.22085 16.7941 36.9698
6.26781 13.0707 30.5752
6.65292 14.4189 32.2798
7.25023 16.2031 35.4519
6.90069 15.314 34.0359
6.98501 16.033 35.9314
6.95406 15.5756 35.844
7.35335 16.098 35.6686
6.81559 15.1906 33.5392
6.706 15.3981 35.1526
6.6124 14.7525 34.2733
6.67876 14.5623 32.5503
6.56429 15.0742 34.3698
6.28974 14.1522 33.7368
6.62344 14.2202 31.555
6.49102 15.215 34.2919
6.2218 14.3171 34.0915
6.27939 13.8736 32.8425
6.57573 14.195 30.1546
5.69268 14.3243 36.2914
7.15055 16.0569 36.512
6.66011 14.7643 33.7034
6.45003 14.6882 33.5532
6.22758 14.3435 33.2848
6.14826 14.0602 32.9467
6.05659 14.172 32.3402
5.86382 14.2861 35.7718
6.46325 14.3874 33.7676
6.23698 13.9619 31.7138
5.74229 13.65 33.7135
6.42003 14.3699 32.9679
6.07628 14.1717 34.128
6.45568 14.9031 33.3179
5.73982 14.0531 35.6177
6.31012 13.4958 30.8365
6.00074 14.8318 35.6786
6.2905 14.1994 33.1293
6.05534 14.4079 34.5917
5.87149 13.9095 34.0382
6.02402 14.3375 34.5581
6.08321 14.179 33.6652
5.89243 14.1707 34.7772
5.97873 13.8499 32.23
5.68516 14.8851 38.2716
6.34972 14.817 36.7137
6.06967 13.6317 33.6785
6.30875 14.4738 32.5912
5.22527 12.5733 33.1485
6.44703 15.5056 35.6087
6.10293 14.8767 36.1685
6.17871 14.8119 35.1509
5.83625 14.1174 34.6901
5.6828 13.9119 33.5408
