# pn-170911/RbIIA-40-AMC2-1280-1959.psd
# Power spectrum* (dif=0,1,2) (really just |FT|^2)
# NOTE: only the first half! (symmetric)
# weeks: 1280-1959
# 11 clock-days, 2 excluded
# PSD: 1441
33389.9 0.85638 0.0153429
1.22143e+06 25.7751 0.0123807
4.52728e+06 86.5372 0.0181194
1.01413e+06 24.7217 0.0181023
622248 49.7106 0.022815
228899 13.0213 0.00948491
255059 31.3819 0.0135286
88182.8 16.1078 0.022906
178920 45.1417 0.0159793
72156.7 14.3452 0.014571
46123.7 9.44345 0.0239708
41809.8 20.2617 0.0193669
70309.2 39.6473 0.0203879
64779.5 43.7302 0.0140115
34587.9 19.6988 0.0430839
22683.7 17.0574 0.0554294
14482.4 11.7111 0.0223422
21442.8 27.3364 0.0351794
16423.7 18.0651 0.0472115
14496.5 9.30129 0.0159207
12936.6 21.493 0.0606196
21387.4 31.5726 0.0411547
19548 30.4704 0.120431
13824.1 22.2508 0.0591697
12417.6 26.3753 0.105173
9680.61 18.3699 0.0366629
11855.5 28.5842 0.13308
4916.52 10.2449 0.0567113
14325.2 37.78 0.127673
5364.31 15.8009 0.0716756
8387.34 23.2756 0.0823765
6164.67 17.1263 0.105589
10215.1 26.361 0.13087
5532.38 26.819 0.163354
6459.42 21.8537 0.14275
5970.09 24.7603 0.138677
4691.15 18.5838 0.0988843
6803.03 29.3621 0.279298
6558.93 36.6879 0.240379
3021.44 10.9242 0.0997928
3409.71 22.8516 0.151949
2525.04 10.637 0.119553
3808.65 26.2608 0.17437
3153.98 16.2252 0.169386
4684.18 26.8167 0.195944
2784.09 15.5304 0.156554
1992.86 10.6947 0.152859
1721.97 6.79214 0.0994624
3103.29 24.3888 0.221052
3299.77 26.275 0.394176
1595.12 14.4465 0.18297
1804.52 14.3807 0.171027
2388.67 16.496 0.163408
1282.96 10.968 0.120571
2020.43 12.2171 0.165369
1351.97 6.01989 0.0909337
2096.32 16.6476 0.290446
1942.3 24.0319 0.370254
1145.75 18.1478 0.357198
1370.02 22.4167 0.399207
1977.55 20.5578 0.378224
844.551 11.2147 0.250824
1236.98 12.6702 0.219612
954.643 10.2475 0.161309
1058.28 10.8833 0.225658
809.074 7.7858 0.154322
1336.71 17.5376 0.311779
1111.08 17.5251 0.350607
1975.28 37.5567 0.652073
1342.91 14.6859 0.411036
1077.28 21.2226 0.593
1454.1 30.4854 0.775588
704.773 9.15565 0.195583
866.896 14.1578 0.383355
1098.88 11.4013 0.236991
761.999 12.6509 0.302335
1116.97 20.3041 0.511623
1229.43 22.9351 0.710808
633.352 6.67883 0.213589
858.082 15.8418 0.470024
926.972 15.5441 0.464997
889.52 17.8601 0.571071
1305.08 35.2189 1.00254
832.003 15.9624 0.557981
1036.13 29.1361 0.85441
1142.67 27.0819 0.925259
556.163 9.70458 0.303525
654.927 13.9582 0.57703
859.62 21.6496 0.673219
576.777 9.11937 0.323613
1534.36 44.2815 1.47553
500.551 13.2261 0.474809
1885.84 73.4784 3.26756
838.479 17.2469 0.700207
548.484 11.7146 0.434845
582.117 18.7643 0.766298
813.493 24.6568 1.17493
512.65 9.7407 0.50822
814.497 28.5368 1.39323
509.66 6.49384 0.278615
334.003 9.66705 0.44657
630.298 13.9664 0.639786
837.485 30.7688 1.37448
624.805 21.7274 1.17237
502.215 16.7574 0.865239
502.961 17.9564 1.06397
376.702 10.3978 0.54008
335.855 13.1262 0.706538
608.729 17.7254 0.876339
802.62 39.2001 2.12541
373.405 15.9778 0.917194
431.233 15.2376 0.857967
361.065 10.807 0.749318
310.971 8.56933 0.539424
365.098 16.4752 1.16088
721.153 26.1122 1.60221
978.611 52.173 3.50936
614.626 23.5579 1.46741
529.198 15.7319 0.930242
240.023 13.9217 0.89656
401.137 13.6667 0.878282
502.927 26.5144 1.94884
442.11 23.0939 1.74992
326.218 15.5011 1.12455
438.703 26.5658 2.02336
698.138 35.9364 2.42434
353.6 12.3114 0.927228
404.592 18.084 1.32393
275.861 18.8826 1.41154
486.385 19.8493 1.60176
533.94 29.4627 2.44117
498.306 32.9663 2.97874
409.172 14.8497 1.21164
341.113 14.4042 1.28967
277.045 16.6306 1.32795
441.917 24.334 2.35063
327.403 18.1021 1.49541
311.14 18.3996 1.4154
284.329 22.7747 2.15006
217.725 12.2405 0.94011
292.285 14.8714 1.23456
155.349 11.3972 1.13529
293.46 20.3101 1.9275
121.819 4.58186 0.497761
310.341 22.1 1.83978
162.042 9.76944 0.966026
193.844 15.654 1.62356
237.535 8.18919 0.846483
354.211 29.778 3.04896
207.832 10.1416 1.14942
355.203 28.5323 3.31178
173.226 10.6153 1.19702
349.51 26.0561 2.63217
379.979 30.7918 3.22085
315.318 18.8869 2.25561
206.544 10.6677 1.26993
185.069 11.4978 1.50628
199.505 12.9927 1.36995
344.903 26.1758 3.0443
293.484 25.0806 3.39148
476.978 49.7663 5.96105
192.957 13.3419 1.51237
243.923 19.034 2.52137
202.836 17.9144 2.16633
276.645 28.2564 3.42507
191.478 15.1103 2.23925
188.929 12.2873 1.39015
176.271 14.1612 1.94503
142.63 8.5889 1.0312
334.064 27.1992 3.71466
256.645 25.2452 3.4242
186.749 14.6641 1.8879
145.048 8.10576 1.14137
159.215 17.4506 2.31952
214.844 17.6289 2.93834
266.629 19.3163 2.55722
165.118 10.5933 1.52944
152.525 10.1467 1.26262
200.736 17.6355 2.60347
220.141 14.701 2.43509
154.454 9.17458 1.49376
131.452 12.8187 1.73954
120.641 9.54799 1.6197
210.325 21.5717 3.19411
179.491 19.0331 2.54212
219.357 33.4673 6.0207
75.0618 5.82336 0.95204
105.226 11.8889 2.0467
175.254 12.8497 1.74209
172.272 19.9239 3.43643
131.37 11.4686 1.83162
107.735 13.687 2.34044
143.273 16.1961 3.22661
86.9958 7.82367 1.33757
192.197 19.2596 3.31226
154.906 23.9156 4.91752
130.499 10.733 1.76578
115.197 8.40344 1.49736
134.302 15.7943 3.19812
176.044 14.2358 2.43093
201.424 17.1904 3.02741
117.149 13.335 2.26519
130.264 14.769 3.24424
177.508 23.2488 4.40413
168.6 23.6811 4.85636
138.294 14.0147 2.92721
96.5372 15.505 2.62351
112.16 9.49069 1.93894
138.946 17.2168 3.64952
209.962 24.2674 4.64624
76.6158 10.8328 2.45976
86.8664 11.0768 2.24967
180.984 30.578 5.84271
87.7927 17.4989 4.50286
136.404 20.7454 4.1657
105.604 18.9598 4.69914
128.189 17.1983 3.71966
147.147 13.4645 2.56814
72.1674 14.6739 3.13941
92.7368 8.77739 2.16239
45.5785 6.3867 1.53923
112.596 22.2779 5.51434
140.437 14.105 3.03296
75.2145 9.71557 2.64258
134.253 15.9463 3.12405
113.053 16.8199 3.62991
202.529 38.1896 8.79828
114.519 15.5889 3.8044
81.9371 17.1576 4.68189
122.836 16.1075 4.29136
186.256 27.1696 5.50473
110.51 21.7381 5.50288
118.886 17.4471 4.29415
105.257 14.1318 3.26069
102.321 15.377 4.06819
73.6181 12.4255 3.52619
210.512 47.338 11.9555
111.599 15.1378 3.60873
68.4661 7.87797 2.32343
69.1615 17.5795 5.41659
134.402 24.913 6.49056
120.621 19.5419 5.2716
126.218 24.5973 7.0098
68.8341 7.65154 2.07048
75.5115 15.0651 4.86249
176.04 23.6196 4.99926
93.0775 18.4879 5.85517
118.201 16.7156 4.25363
83.5475 25.0194 8.14719
76.0161 18.1052 4.91093
118.774 19.7184 6.22511
143.24 23.2001 5.3121
101.726 20.336 6.49233
67.5225 11.1404 3.68432
70.5771 8.78636 2.65686
67.3355 12.5218 4.4568
79.8082 16.1381 4.16437
58.7818 15.5869 5.14008
57.2927 8.14719 2.41252
52.6474 12.1389 4.61985
98.5999 19.6358 4.82262
116.27 19.406 5.8923
49.0981 5.83668 2.33143
79.2573 17.0787 4.73087
75.8371 10.5232 3.43786
131.818 30.2971 10.0191
102.376 26.5396 8.38586
68.5619 11.082 3.49231
92.4655 24.4162 8.35368
53.3309 8.2243 3.20826
49.6988 14.4566 5.39055
120.564 21.5901 7.38413
54.8722 12.37 3.88985
74.7319 17.99 7.3139
178.385 45.4092 14.6089
81.9847 15.8163 5.03267
94.9089 24.0673 9.35418
74.3641 11.3814 3.82998
47.5774 14.1013 4.86645
54.592 8.8934 3.01135
88.1503 15.892 5.64789
111.386 32.4912 11.9089
79.4867 24.3263 11.3017
101.243 24.4886 8.03139
61.507 8.92929 2.85966
73.1365 14.6373 5.60785
122.549 33.3688 11.799
38.7154 10.6927 3.77271
78.7633 17.8149 7.58077
57.6327 9.09034 3.01757
126.971 32.7248 13.3547
87.454 20.9447 6.9115
59.7911 12.6025 4.81416
101.544 27.9767 11.1232
47.6675 10.5254 4.3577
60.6039 11.8327 5.26152
116.242 28.7178 10.5011
40.0325 9.52677 4.77142
78.351 12.5235 4.54492
79.0732 18.7335 8.86692
46.4409 5.1587 1.58954
106.414 27.6089 9.42004
77.2835 20.9695 9.12883
49.3601 9.65078 4.3976
38.682 10.8162 5.24365
59.2944 13.7735 6.97486
56.8083 21.4029 7.45208
41.9284 8.9622 4.44833
43.7335 14.2313 6.85188
90.8345 25.2729 9.76849
62.3148 21.5362 10.7221
58.6641 14.5503 5.94797
54.1087 10.8349 5.77801
73.5942 17.7814 7.83008
87.6508 19.6266 7.91214
85.5019 30.8902 13.9314
75.4342 15.5232 6.96547
30.1264 8.27746 3.69524
56.5326 15.859 7.81142
90.9758 24.1855 10.7977
41.7129 7.92833 3.85727
56.5104 20.0304 8.97072
84.0018 21.285 9.74384
39.7511 8.68474 4.01138
76.7337 24.5875 12.0818
71.5469 23.8878 11.3361
46.8122 16.1632 7.59015
51.4025 13.0142 7.89082
58.4653 18.6104 8.38759
70.7851 20.7272 11.9508
66.8541 19.1218 9.31008
42.7008 16.2559 9.80407
96.6376 35.38 16.1608
35.3236 8.00849 4.48036
52.8384 15.8933 8.15213
47.2413 7.42875 4.44285
40.1627 18.1093 11.0882
51.6262 16.7597 6.17711
32.8735 13.4377 6.70451
53.4749 17.4193 8.63488
58.3383 24.5061 14.0646
40.151 9.02192 5.97212
32.9112 9.9242 4.06287
26.7797 7.17731 3.00453
54.955 30.3822 18.3976
69.4248 24.313 12.9625
60.2407 23.988 12.1289
34.277 15.2656 7.92429
28.9638 13.2357 7.59195
68.2628 23.8211 11.552
45.6048 14.5107 9.09284
29.414 16.0791 9.09324
39.1617 12.9577 7.92009
42.7543 12.9663 6.45064
36.3666 10.7143 5.83487
56.3377 26.9093 14.8687
20.6634 12.1863 9.83003
67.4293 19.5881 10.473
36.0424 6.82973 3.75587
49.306 28.4059 18.3777
42.0436 8.73163 3.91176
29.2689 5.71342 4.31923
64.5361 26.3154 14.7936
45.4973 13.5952 8.18792
54.7383 18.4629 9.34071
30.3782 15.5426 12.3681
52.9012 17.6644 9.23277
28.5447 7.54138 4.38533
53.576 19.5669 11.7307
47.8766 10.8875 6.58263
34.4419 8.41337 6.09924
43.5641 9.74084 5.71682
46.517 11.7742 7.30709
48.605 19.3469 10.9869
42.4668 10.0389 5.89933
47.7026 19.1562 12.7361
40.1611 21.3713 13.2539
41.023 15.1447 10.6503
20.7503 7.65118 5.16868
31.7013 15.6342 9.45743
28.5765 5.69189 4.59342
41.1977 13.2787 6.67026
32.2547 13.9953 8.87854
37.4468 10.8974 7.9621
28.1959 7.0251 5.24804
39.0302 8.85084 5.47665
33.8701 6.71552 4.02968
28.011 5.8382 4.06974
25.7583 11.4457 8.34882
31.5154 6.98315 4.91267
37.4169 13.3973 10.5657
37.5536 12.0889 7.82184
34.3069 12.3201 7.71764
36.4127 15.24 10.7801
23.6255 10.1747 8.36397
63.1144 29.623 18.456
34.3203 15.8529 13.0165
77.5456 26.3527 15.8346
29.0309 9.69597 8.57542
38.4038 20.4099 13.0928
41.4592 11.0988 7.91886
24.9144 13.07 11.0926
44.1304 21.1495 14.4979
29.272 9.49093 7.71231
30.8351 8.80176 7.00479
25.9678 8.93699 8.80502
45.9358 27.2029 17.8374
35.4674 11.247 7.89133
18.4577 5.45091 3.45426
22.4344 12.0448 8.59989
14.0901 7.29137 7.68204
45.1036 16.0314 10.7321
39.468 21.211 15.0455
54.5317 28.823 25.2373
51.5453 26.7639 14.8937
20.2303 10.6521 8.27503
30.7185 15.9629 15.618
25.3194 11.8516 7.74121
30.935 9.63121 7.56204
48.2058 28.5981 23.6889
47.1872 13.6987 7.3835
27.3138 15.5593 13.0703
19.8352 9.05768 6.19146
17.5929 14.3777 11.202
18.7437 11.9853 10.0314
37.3901 18.8072 12.567
32.834 18.0589 14.5974
20.2393 12.3237 10.8307
28.1815 10.8467 11.0973
38.7066 19.3111 12.8555
13.0685 9.17438 9.6671
32.5352 13.2437 12.1168
39.5597 27.1278 21.4543
35.07 13.5674 11.5841
29.6882 11.6937 7.50536
21.654 9.08136 9.76959
16.6881 6.14242 4.68345
35.6369 14.4414 11.9817
29.5104 12.8011 11.5729
24.0851 10.5672 7.66212
22.3237 8.53508 8.01832
22.2987 10.8231 13.4113
46.5139 25.4153 17.4932
27.7391 11.5641 11.0531
25.6212 8.83475 6.13004
29.2574 11.5773 9.99347
9.95797 6.4669 8.4906
31.447 15.1838 9.24082
20.2235 11.0786 11.4941
30.5825 11.2384 10.2633
27.0357 12.4284 11.4103
27.9254 14.2444 10.7223
17.8064 8.74072 7.34031
24.8643 13.7456 11.8706
32.1005 19.2028 18.7178
24.5276 11.8056 9.62803
32.9067 21.5407 22.109
38.4362 22.0646 17.4275
25.4628 11.6247 9.75088
24.1538 15.511 13.3657
20.6179 13.7346 16.1402
27.7711 7.45611 5.48521
25.5283 11.483 13.501
29.2607 17.4639 11.605
31.6929 16.2971 16.8623
29.8684 13.5277 10.5302
17.1231 10.9419 9.35694
33.3433 24.346 23.6605
23.0076 10.5853 15.1848
21.0812 9.75113 6.83992
13.7388 2.82621 2.73431
17.4015 12.1266 13.216
32.6508 26.0568 24.9937
16.1449 8.26444 7.91182
30.4612 10.4222 9.22421
19.7198 11.5429 12.6722
19.8232 16.3896 17.2642
20.1161 11.2351 12.8801
27.8616 14.7055 12.2651
25.9552 24.0726 29.0203
42.1795 23.6011 17.4813
18.4395 7.34132 8.17191
27.6385 18.2944 21.3826
35.7767 22.874 20.2233
17.4745 7.73623 7.40311
16.5935 12.3799 13.7766
18.981 17.7195 16.9898
19.4076 7.40973 9.19572
15.5947 8.79823 8.91368
22.3369 11.9363 11.9822
30.2073 14.937 14.9767
21.4417 9.25664 8.63714
24.4271 10.1921 11.7987
19.8419 14.9564 18.7316
34.0329 18.6008 20.2736
27.5466 15.4205 14.2272
23.9702 24.1763 27.1574
28.4411 16.8547 14.4276
12.7109 7.49775 8.65905
18.2357 16.2802 19.9713
35.2399 28.1473 26.4506
22.5555 10.2845 12.4197
21.2916 20.4411 20.8605
30.138 21.0153 24.3515
25.0286 20.9477 20.4299
19.2606 13.522 19.5217
24.9088 14.9384 16.1622
25.8915 23.9182 26.7658
41.5425 27.7726 26.9503
29.686 25.7226 31.5379
19.8132 8.856 6.56037
25.5063 28.291 34.8222
20.4831 16.9355 32.0356
36.1193 14.8144 9.61224
28.485 17.4966 19.7504
24.1645 14.4111 9.95789
17.2077 12.8167 13.6051
27.3621 21.0742 26.0702
37.6347 20.1704 19.9787
19.4847 10.703 10.083
33.7957 25.8087 27.3813
27.7219 23.3228 26.6935
11.601 10.8092 14.6696
14.8868 8.45951 13.4304
19.7086 16.4177 22.0176
26.9954 11.3703 12.3568
19.8798 12.6663 14.1445
16.4754 12.8467 14.8352
19.9237 8.88834 11.923
28.9868 22.3958 20.1382
20.5153 22.8064 29.3139
25.8972 14.9783 18.9793
14.6091 11.2008 15.8371
16.5355 10.8113 13.234
13.9206 10.9276 11.4641
8.82244 6.85496 7.04506
15.8908 24.1881 32.214
24.7021 15.9129 20.1742
24.9962 16.0819 20.3602
12.6025 9.8979 15.5127
28.7673 20.6881 22.9164
28.4319 20.5937 20.84
11.2856 8.5978 15.0979
25.9664 18.1629 26.7292
22.428 16.7446 24.3425
16.6049 9.31341 9.81502
14.1284 14.3899 20.2732
23.7052 8.34356 11.1057
29.1947 24.7435 24.4438
7.97404 6.98269 12.0666
28.9616 17.0109 17.0843
10.4108 5.80426 11.9404
18.7747 17.8743 14.2824
15.9643 18.9215 24.7872
19.0796 22.6778 30.7608
13.8729 7.32908 13.0254
16.8149 12.0006 12.0422
13.8942 12.972 16.9516
13.8739 9.68006 14.1553
20.6063 20.2951 28.8247
18.908 10.4935 11.4321
17.2253 10.3325 15.6083
18.9642 14.7864 16.5301
14.5061 10.0752 10.2704
16.0049 19.7927 28.5643
17.0495 13.5083 17.6501
21.2953 13.6211 25.235
20.3523 17.2879 19.2368
22.4236 27.9272 36.6768
16.5002 19.413 32.3869
16.8229 10.6912 15.1263
21.1982 8.26805 8.22549
12.4097 14.8566 19.4775
24.7954 14.2321 19.8475
16.7019 10.8845 13.1836
10.0537 5.94948 8.89697
20.8482 18.2385 27.3229
26.0329 22.4908 28.9749
10.5695 4.22781 11.4715
25.0871 23.5157 25.6212
13.0014 9.35684 19.0492
22.5393 13.6429 17.1627
16.0221 20.7563 39.3433
35.4503 47.4781 56.3847
17.5874 6.63932 11.3131
18.4899 14.2627 21.2884
22.135 17.4303 24.073
14.146 11.7816 14.0347
15.7985 14.3168 23.0576
21.6909 16.6031 20.1685
19.2127 13.4003 15.1322
20.6028 24.9172 34.9315
16.0499 12.6223 22.4534
17.6055 14.7513 19.2434
12.9918 14.2319 21.3832
12.5937 6.70788 8.48198
13.7129 16.6234 23.643
18.5951 11.0082 16.5016
19.1216 12.2319 15.5838
9.47693 6.52725 11.7709
21.483 19.3785 29.3173
15.8576 15.248 21.857
28.3858 33.1406 45.8076
17.8968 9.96855 15.2449
5.82354 5.28442 7.78417
10.2596 5.26854 8.20854
15.1728 10.3743 21.9781
12.7755 7.0588 7.7793
18.6068 21.3694 35.1479
12.2588 5.3389 11.6347
15.4904 15.4776 18.6474
14.0726 12.5509 25.6839
22.2973 18.4543 18.9406
13.5851 11.0136 19.7319
15.7 17.8041 31.4834
21.4961 26.6917 37.1139
11.9753 10.5933 28.6607
19.2118 19.2827 23.7054
14.9969 9.65457 14.3281
24.6154 20.3378 29.8468
11.2315 7.24017 20.7779
23.2708 14.7945 18.4203
14.9355 18.8773 34.7331
15.9674 11.0622 19.6261
20.6165 13.5459 16.5948
18.2405 13.5035 20.9121
9.87508 14.6409 18.1057
21.9422 18.306 27.5156
14.7496 15.1145 20.8381
17.7221 22.7854 44.0167
16.2345 11.7999 18.4055
16.354 14.9251 28.9924
18.6582 22.0189 51.6515
31.1265 25.7862 22.1369
9.80073 14.8239 29.0639
19.4237 24.0297 26.3028
11.1464 10.0123 17.0065
11.9189 14.7112 24.8721
9.79547 9.20011 13.6138
16.995 13.4377 23.6518
10.4331 5.91259 10.1217
9.43252 7.13247 14.1502
15.3001 22.6738 40.8995
14.45 7.15827 14.9372
12.0793 13.078 21.1246
12.1689 10.6206 11.2093
12.8239 11.9446 17.4878
11.4051 10.0097 16.0671
14.9515 15.9175 23.2944
11.8588 7.1261 7.60722
12.6731 16.2832 22.8929
10.1575 9.5439 9.62849
19.6238 28.8154 40.6822
8.65151 18.0506 39.5704
9.74165 10.0095 22.5216
8.54021 11.3278 23.4201
13.9836 10.2876 18.183
16.7921 10.8301 14.4304
14.108 15.1266 20.0878
16.9366 22.8894 41.9261
7.33952 6.47571 17.925
12.2238 15.07 22.6511
9.63347 13.3481 24.2998
16.094 14.1874 25.9183
16.6923 8.32567 10.8956
16.3128 17.8635 32.0914
13.6407 10.6387 22.9034
17.3714 14.0754 22.3381
12.1494 18.1287 33.1574
10.4046 8.80419 21.5883
17.1578 13.3577 24.5709
10.9673 13.8886 32.28
18.5611 18.5096 21.8839
12.9041 14.7161 28.1446
13.2986 7.98618 13.9712
16.6403 23.9011 42.6206
13.8504 14.6942 25.5745
15.0598 9.18878 26.8653
15.836 25.8502 30.5109
9.86047 15.9191 29.0864
10.2851 10.6617 21.5261
12.2758 10.7348 23.6242
15.9742 12.6599 21.0406
11.4563 11.3059 24.2943
16.3657 11.9624 22.8894
19.4619 14.4295 26.0816
12.0107 23.552 38.3389
14.253 20.7693 37.944
17.1566 14.3193 34.0418
14.3033 14.2957 18.691
9.67383 13.9249 29.8006
13.5128 8.63156 19.8355
14.4514 12.3703 15.4907
11.4299 11.8969 30.9738
16.0689 11.2253 16.0692
16.4981 23.6793 38.7378
10.0814 13.5581 23.3787
8.23931 12.3964 26.9738
9.66484 17.9939 48.746
15.4114 13.1111 20.0868
13.1081 17.1378 28.0246
9.50864 13.8599 30.2124
16.0384 18.3993 30.8797
8.19438 5.726 14.0408
9.48877 8.40398 20.1309
9.6937 13.5122 22.3905
13.2406 11.8734 28.8131
11.8921 8.45062 13.4057
12.4277 17.9211 41.4875
8.36817 9.24091 21.969
20.6052 31.7324 50.4062
16.0814 13.9273 26.1949
16.7423 11.8073 20.759
15.8995 16.3641 33.5848
10.7078 7.9289 19.6764
21.9066 35.4469 57.2596
13.3187 13.9258 27.6869
6.54799 11.6144 35.6741
12.0262 8.57147 14.5824
12.2123 20.7616 36.3657
8.14061 16.8225 33.1316
11.392 17.8314 30.2195
9.97587 11.7905 32.6751
12.0349 12.436 21.6335
8.97856 16.2546 30.7528
12.8269 8.98032 25.3269
13.7574 10.9823 22.4724
11.8702 7.58618 12.6277
7.46158 9.06885 21.8602
9.63222 16.3941 34.7424
10.9802 11.3508 22.1293
8.86722 15.0566 39.6188
17.6042 18.6837 35.4841
10.9014 11.4242 23.0981
11.6193 6.16796 17.0765
10.3762 22.3718 49.1535
18.3967 15.7835 27.016
11.5477 13.6737 34.7869
14.7177 19.591 39.9568
14.0639 6.25927 8.7481
7.87235 3.92529 9.91211
10.1552 11.0341 26.8525
13.9604 11.5497 24.8445
9.22933 12.463 19.9533
12.1009 13.2834 34.0728
13.8548 10.9969 17.7297
10.122 17.0519 38.5911
13.1463 18.1789 38.4468
15.2661 8.71407 21.2538
12.8213 12.7367 19.1928
6.89754 8.01873 22.0935
10.4759 16.9693 37.2494
10.8093 10.1182 19.7773
12.453 12.93 34.3796
11.5397 17.9048 34.863
11.8321 13.7847 35.5467
16.7407 17.3998 27.7891
8.71142 13.3402 33.5103
11.2418 10.4405 18.866
8.5278 8.54704 20.2052
11.2673 10.5889 20.3945
9.33647 10.7595 15.7242
8.56742 12.1863 31.0006
9.5891 5.68504 15.0882
10.6322 5.13775 10.6547
7.58994 8.15802 28.2482
20.3597 29.9036 61.8267
18.5638 23.9979 49.0196
10.1618 13.8721 36.3373
8.6504 17.2556 45.2663
16.0779 14.0913 25.3466
9.26784 16.4554 42.364
11.7996 15.6173 22.6425
7.85613 10.3537 25.8172
11.6459 13.4126 22.1128
12.0466 18.9829 51.225
14.0132 16.2221 21.307
10.1321 13.4512 42.7711
12.7365 11.831 17.8336
10.4673 12.9261 29.7319
11.7839 27.0151 67.9511
11.2681 10.2661 28.1614
16.7781 22.0198 47.1362
14.4818 19.428 38.0634
7.96665 7.55464 21.0117
9.58803 8.5545 27.6952
10.5735 14.9117 22.296
6.91569 13.0603 42.7203
11.677 15.3086 25.3824
10.1072 13.3194 32.3304
10.5565 8.82557 21.111
8.99372 7.15854 14.1468
11.136 16.1666 26.0898
7.87611 9.13742 27.7475
13.7404 17.6557 38.538
9.57712 12.3957 27.7568
6.46579 7.47762 30.8884
11.5257 22.0874 49.4277
6.75956 10.3039 26.0753
10.9955 18.0792 34.4793
9.18471 9.01003 30.138
5.77437 5.71516 19.9668
8.11517 10.1239 25.4102
13.618 21.1626 49.6288
16.2698 15.6385 31.6302
12.5655 12.5435 27.6762
11.094 13.672 34.8948
7.54886 8.25679 26.8033
10.2414 16.5813 36.3422
5.43359 7.10469 14.0491
8.87488 10.4375 24.6502
10.1271 11.1549 31.7286
7.16096 12.9994 42.6677
12.1638 16.631 33.9902
12.5901 22.8945 53.4252
8.87387 16.2515 31.6869
9.8026 7.69107 20.5672
9.37801 12.0277 25.9488
8.98538 9.0273 23.4293
4.79736 8.28947 20.0914
8.95989 8.31323 13.8656
8.89158 19.2454 43.2097
9.5221 10.8083 25.7796
7.53986 14.2159 48.727
11.91 8.95154 19.7951
8.96493 9.09821 14.9053
6.02907 8.66959 17.5239
7.79319 9.71641 32.1209
11.0245 17.2141 41.1337
8.25037 6.52935 19.3067
