# pn-170911/RbIIR-av-WTZR-1280-1959.psd
# Power spectrum* (dif=0,1,2) (really just |FT|^2)
# NOTE: only the first half! (symmetric)
# weeks: 1280-1959
# 303 clock-days, 57 excluded
# PSD: 1441
1270.56 0.0890668 0.0510569
32459.1 0.764078 0.0792963
151208 3.03881 0.087182
18745.2 0.632785 0.0879862
45300.9 3.2543 0.0895718
7318.1 0.527637 0.0895787
5852.6 0.726447 0.0836269
3506.54 0.575134 0.0837704
3399.94 0.839289 0.102556
2117.89 0.526326 0.085368
1863.28 0.625394 0.0895848
1468.83 0.549922 0.0954204
1423.64 0.680076 0.0891738
1124.04 0.613351 0.0934161
986.141 0.744015 0.081672
890.122 0.636063 0.0907529
894.573 0.86808 0.0948763
730.717 0.705944 0.088081
742.218 0.870815 0.0847993
580.322 0.776292 0.0914546
617.504 0.995537 0.0886128
605.324 0.996475 0.0905156
606.934 1.0269 0.0823328
566.152 1.10471 0.0901041
589.233 1.40091 0.0963646
482.614 1.17902 0.0826161
546.101 1.48042 0.0946169
504.876 1.41636 0.0927551
520.661 1.603 0.108957
446.695 1.47718 0.087883
515.345 1.84716 0.0826814
515.005 2.05935 0.109711
478.712 2.02984 0.101398
401.292 1.83916 0.0957506
478.578 2.35718 0.102082
399.884 2.10007 0.100653
392.751 2.15691 0.101225
469.128 2.64694 0.102234
435.588 2.61653 0.0993845
429.842 2.7666 0.109812
431.853 3.17832 0.116846
436.745 3.22265 0.102753
412.442 3.16926 0.112133
437.14 3.474 0.107312
415.29 3.39818 0.117678
410.691 3.52714 0.103569
409.626 4.06846 0.11433
404.931 3.93541 0.12039
365.082 3.76153 0.132298
376.376 4.119 0.125351
416.675 4.89429 0.142218
369.05 4.46763 0.138623
371.131 4.48111 0.144831
360.885 4.47399 0.128753
407.651 5.20095 0.162606
339.66 4.69592 0.152621
336.625 4.57014 0.13589
361.685 5.19168 0.16342
344.941 5.19355 0.160217
350.295 5.63456 0.162614
362.446 5.82439 0.174593
360.418 5.86564 0.175102
366.791 6.17509 0.207693
284.831 5.00903 0.184426
280.923 5.30051 0.194578
305.645 5.74533 0.189836
275.014 5.3998 0.186239
289.006 5.94869 0.212751
277.251 5.76268 0.218479
290.235 6.31763 0.213351
305.75 6.6476 0.244858
311.956 7.04181 0.259492
289.737 6.97395 0.262968
290.525 7.25467 0.258346
327.732 8.3179 0.302805
287.935 7.37378 0.271128
284.143 7.23262 0.289012
297.435 7.96195 0.290925
287.913 8.17585 0.294911
236.891 6.76774 0.259231
287.796 8.50363 0.318516
273.019 8.22463 0.342672
253.409 7.58571 0.298112
291.216 9.21331 0.35771
240.38 7.87628 0.353772
236.476 7.72164 0.335704
248.379 8.62029 0.380421
250.327 8.82433 0.400401
264.331 9.26335 0.39851
259.12 9.14644 0.434644
228.082 8.64648 0.406645
251.022 9.69277 0.45722
237.63 8.91696 0.457582
233.761 9.28694 0.422867
224.895 8.90242 0.440512
239.916 10.0722 0.497765
291.112 12.5917 0.643007
203.505 8.71911 0.466999
195.239 8.74601 0.480863
214.901 9.66652 0.542687
205.782 9.47636 0.516729
217.881 10.0608 0.551959
204.941 10.0762 0.566498
189.09 9.06668 0.532663
227.537 11.569 0.648132
188.938 9.62089 0.579937
190.412 9.75686 0.58154
211.17 11.3085 0.696061
194.602 10.665 0.644026
207.41 11.3739 0.709774
198.542 10.984 0.689621
194.511 10.9623 0.718197
199.024 11.2376 0.728092
205.676 11.9255 0.758127
177.436 11.0245 0.742812
198.515 12.4541 0.823044
172.524 10.9826 0.76564
177.339 11.4652 0.774773
172.132 10.9743 0.78871
178.102 11.6084 0.813826
193.254 12.5873 0.941993
179.861 12.0915 0.927836
157.292 10.6117 0.852035
155.026 10.7973 0.838538
171.293 12.2502 0.942352
164.216 11.8441 0.932638
170.876 12.6493 1.06589
158.189 11.7523 0.974793
172.546 12.6709 1.05147
179.289 13.3534 1.13919
180.536 14.1739 1.17897
166.824 13.0159 1.08644
139.792 11.1556 0.982064
154.509 12.7927 1.17697
166.297 13.753 1.21067
153.545 13.0275 1.19768
144.301 12.5964 1.12309
147.449 12.8358 1.19533
139.405 12.1849 1.14222
150.676 13.1242 1.20447
132.245 11.9831 1.1668
132.753 12.3005 1.24095
131.048 11.8614 1.17132
144.192 13.7407 1.41995
149.448 14.4056 1.38856
147.045 14.514 1.48217
133.134 13.1678 1.398
133.702 13.4595 1.47648
135.455 13.834 1.50407
138.723 14.0531 1.50938
138.874 14.5553 1.58174
134.256 14.187 1.54056
145.484 15.4633 1.75029
128.104 13.8317 1.63761
133.32 14.0697 1.62934
131.659 14.8025 1.73539
127.012 14.1898 1.6367
115.765 13.4177 1.6223
121.3 13.6123 1.61033
122.853 14.6053 1.77608
126.655 14.3719 1.75887
118.811 14.1193 1.73244
131.482 15.7338 1.93384
134.34 16.9453 2.19691
130.278 16.2941 2.17226
119.463 14.8444 1.98487
118.544 15.1781 1.98249
124.838 15.8739 2.09506
113.583 15.0933 2.04249
127.596 17.2109 2.38162
120.212 15.7511 2.19042
114.103 14.9912 2.08244
111.281 14.7516 2.01877
112.023 15.2738 2.16352
121.768 17.4872 2.56614
130.7 18.0391 2.54469
102.101 14.5179 2.26933
100.506 14.2861 2.09478
116.98 17.5707 2.7643
107.038 15.3123 2.28578
107.58 16.2087 2.50793
106.466 16.106 2.48563
113.387 17.0083 2.66468
105.987 16.0495 2.46548
109.969 17.5402 2.85805
108.991 17.0492 2.63861
126.39 20.0944 3.27994
103.738 16.4783 2.79281
103.974 17.0869 2.94198
99.1062 16.3281 2.80139
101.98 16.5806 2.87176
91.8482 16.0135 2.88863
154.071 26.4822 4.43606
99.1762 16.9625 2.94195
89.7734 16.0098 2.82659
103.304 18.6044 3.43706
95.0673 16.1567 2.82992
91.9823 16.4323 3.07503
95.4862 16.9354 3.182
94.3657 17.0778 3.21268
97.8943 17.9985 3.33728
91.7389 16.6233 3.12476
93.7679 17.8076 3.40301
91.2848 17.3946 3.44509
96.0483 18.4575 3.56821
90.1354 17.4107 3.44687
90.8345 17.3732 3.45557
100.702 19.6438 3.97988
99.6563 19.9177 4.10054
92.6004 18.5225 3.786
92.1507 18.3123 3.81794
93.7081 19.1768 3.97911
86.88 17.6517 3.65407
94.6587 19.5581 4.14484
81.6063 16.9439 3.73809
92.6553 19.5533 4.21015
88.6448 18.5357 3.89345
96.2906 20.2638 4.51142
86.2657 19.2359 4.3932
93.0347 20.0236 4.39602
86.4068 18.9134 4.27494
77.6827 17.3724 3.93112
94.6025 21.6057 4.93495
88.2935 19.9994 4.64874
81.4993 18.7824 4.40992
80.734 18.8507 4.47929
79.5177 19.0892 4.63335
81.3333 18.8338 4.4951
79.5632 18.585 4.5704
79.0652 18.7965 4.55459
78.8285 18.8071 4.67142
85.5393 21.4239 5.39854
78.3397 19.7697 5.04076
88.6463 21.9016 5.48523
89.0589 22.3668 5.70881
82.9357 21.1906 5.40604
85.6166 22.1126 5.76098
79.8203 20.3861 5.26098
75.1367 19.9907 5.4395
82.2188 20.7254 5.38055
84.8657 22.0734 5.96995
73.9777 19.6271 5.35028
81.4992 21.8977 6.00473
75.7526 20.521 5.70195
75.024 20.4023 5.63726
80.4247 21.7797 5.82018
80.273 22.26 6.27722
71.8731 20.0132 5.61216
74.7934 21.3551 6.14258
65.8515 18.4704 5.22563
67.9532 19.7556 5.81974
78.5293 21.88 6.41257
76.7011 23.4829 7.20583
73.7471 21.2092 6.10071
68.5368 20.0378 5.99585
76.3957 21.9738 6.44177
71.6552 22.2607 6.92254
74.7009 22.9288 7.10233
64.5902 19.3562 6.09183
72.6324 22.4333 7.06859
67.128 20.6851 6.48835
73.4221 22.9031 7.18835
75.9397 24.1696 7.8351
79.4311 24.9335 7.70509
68.4063 21.6335 6.8985
69.0265 21.5041 6.927
65.8757 21.2061 6.91505
62.7414 20.9778 7.0421
66.2754 21.7572 7.35443
67.2037 21.7891 7.2739
69.5767 22.4508 7.47445
62.2632 20.5838 6.90433
67.9894 23.1595 7.87512
63.7812 21.9482 7.76702
63.8179 21.4984 7.46416
61.561 21.2085 7.4807
63.6466 22.0125 7.61932
61.996 21.7417 7.87806
62.5849 21.7681 7.63952
59.8776 21.2245 7.50108
63.1178 23.1264 8.50847
64.4838 22.8284 8.12448
64.1071 23.6192 8.76593
67.0044 24.1101 8.95092
62.69 22.9939 8.55379
58.0629 20.8632 7.86464
58.3614 22.2822 8.43883
57.8419 21.5803 8.58361
96.2238 35.9152 12.9729
61.2624 24.1729 9.6274
57.6871 22.5395 8.81144
60.9318 23.8365 9.58548
65.2999 25.2459 9.93288
61.1922 23.5319 9.07618
66.8115 26.5901 10.4414
62.5835 25.5812 10.503
80.3183 31.7198 12.3785
61.9022 24.3891 9.95595
60.246 23.9126 9.6124
59.0313 25.3039 10.8475
64.2514 25.0881 10.0291
51.3586 21.9138 9.4507
58.4372 24.0337 10.0225
54.8677 22.456 9.4549
54.4702 23.5142 10.2829
59.0551 24.3121 10.2364
59.8269 24.8498 10.3732
51.8131 22.2267 9.99088
57.1071 24.315 10.3658
52.5257 22.8448 10.1689
49.7336 21.2212 9.32145
59.0181 27.0606 12.4571
58.2856 25.2543 10.933
56.6426 24.9127 11.1525
59.351 25.3348 11.0738
60.908 28.2584 13.121
54.634 23.9338 10.7706
59.5375 26.3137 11.8086
54.0226 25.1751 11.7474
59.1976 27.3613 12.6562
53.9233 25.4533 12.0936
58.1269 27.0204 12.5462
50.4385 22.6621 10.4307
53.1719 25.9067 12.3967
53.0171 26.0395 12.8737
43.9236 20.0543 9.48691
51.8433 24.3575 11.7238
49.7028 22.6811 10.5051
50.3903 24.919 12.4755
51.2353 24.4668 11.5726
49.9869 24.1899 11.8926
50.3361 25.178 12.4648
46.434 22.9987 11.5265
45.0323 22.2857 11.4813
48.3652 23.7815 11.8987
52.8825 26.5593 13.5263
47.9958 24.3662 12.362
45.8775 23.5111 12.4963
48.65 25.0459 13.0913
50.2726 26.0405 13.7282
50.9554 26.0759 13.6601
49.7385 25.7424 13.4043
47.1238 24.6628 13.259
53.1494 27.3267 14.248
43.9693 24.5848 13.6147
43.2668 23.0674 12.7123
44.3137 24.5953 13.9243
46.8844 24.1084 13.0075
46.3242 25.4679 14.1793
44.7598 23.0874 12.3445
45.8606 25.348 14.2502
45.141 23.6148 12.812
47.0092 26.425 14.9089
42.8968 23.7642 13.5388
40.6222 22.6124 13.0023
43.6148 24.315 13.8579
46.9324 25.8949 14.4584
41.0847 23.6886 13.9578
43.4741 24.675 13.9876
41.9632 24.7394 14.5132
40.4857 23.4191 13.814
46.7371 27.2654 16.0026
40.2858 23.472 14.0254
46.3293 26.2803 15.1669
42.5552 24.7105 14.4374
41.796 24.8501 14.7978
36.685 21.4346 13.2088
46.4679 28.2997 17.3439
44.5333 27.7596 17.1228
41.0834 24.6472 15.1668
39.5005 23.4822 14.4503
42.4644 26.1587 16.4031
36.8946 22.6397 14.5068
40.1316 24.5174 15.4072
40.3158 24.6352 15.1832
41.9233 26.3051 16.2257
37.0762 23.7903 15.3074
39.8283 24.9148 16.1515
37.31 22.7855 14.5771
37.2584 24.295 16.106
38.1186 25.0076 16.6771
38.7057 24.8679 16.6967
43.7702 27.7515 18.1953
40.9918 26.2686 17.6257
57.2564 35.8525 22.2887
39.758 25.1008 16.0297
36.6099 25.037 17.1965
40.9322 27.5227 18.4896
38.2944 24.8747 16.6925
42.3225 28.3198 18.8526
39.625 26.9386 18.4816
35.4139 23.9803 16.7852
36.312 24.2476 16.2732
31.8601 21.9401 15.5084
39.754 28.4319 20.2121
38.4024 24.7982 16.828
37.124 25.4221 17.4406
36.2176 25.1132 17.8144
37.266 25.8184 18.3144
35.7357 25.4816 18.7597
39.5882 27.127 18.9963
34.5925 24.1261 17.1925
33.1681 24.0049 17.6941
37.4417 25.8097 18.1227
39.5266 29.5505 21.7383
37.3947 27.1098 19.6892
32.8534 24.3384 18.3427
35.64 26.0182 19.7
37.132 26.4976 19.1659
33.1042 24.0528 17.2392
34.5001 25.9781 19.2028
32.2314 25.6172 20.8815
42.6922 30.7876 22.5523
39.5214 30.7103 24.7706
47.239 33.6759 24.3447
36.3026 27.6321 20.7014
41.2872 31.3366 23.5852
34.1922 25.5743 19.2924
31.0367 24.5451 19.5409
34.7486 26.2257 20.0343
31.4751 24.8329 19.9421
34.5306 26.484 20.7511
38.1736 30.109 23.6299
32.5497 25.9105 20.9708
30.9387 24.6389 19.7466
31.8953 25.2331 20.8404
34.5136 26.8192 20.3321
28.8942 24.3516 20.6459
31.1956 24.2701 19.8163
30.9762 24.6665 20.011
29.592 23.8628 19.7337
29.3816 23.6402 20.1134
30.4497 23.3671 19.0107
29.2388 24.3097 20.4228
32.8558 26.596 22.0761
31.3145 24.9033 20.1581
30.1189 24.8886 20.4894
29.2888 25.3602 22.5015
35.223 29.2331 24.6064
31.594 25.6914 21.1875
29.5578 24.5873 21.1508
31.0016 25.8054 21.5469
29.7387 24.9551 21.0618
30.3555 27.333 25.1022
32.3801 26.6625 22.8092
28.5547 23.3671 19.8968
28.076 24.7921 22.2217
27.8173 24.318 21.9259
31.8128 26.4123 22.4107
30.1078 26.0548 22.87
28.1513 25.388 23.1499
32.4713 28.0273 24.1622
28.8379 26.5237 24.759
30.7643 26.5287 23.4954
29.0098 25.2988 23.7704
33.9517 27.6741 22.8071
29.0303 27.2122 25.4708
28.6409 25.2548 22.8467
29.8302 27.5715 25.583
33.3411 29.7906 26.5013
27.0464 24.621 22.9541
31.0096 28.5903 26.8105
32.134 28.8128 25.4086
25.3908 23.8979 22.6263
24.299 22.7929 21.7049
24.6502 24.0429 24.146
28.7941 25.9469 24.0534
27.3134 25.6318 24.2397
26.3864 25.3601 24.3136
26.6019 25.4731 24.799
27.8303 25.8835 24.6471
26.7162 25.8031 25.0528
28.5876 27.0026 26.0848
28.7117 26.5631 24.9903
26.7274 25.9881 25.1999
26.0569 26.1616 25.6886
25.6017 24.973 25.5332
25.8146 24.3697 24.3963
25.8618 24.4711 24.1012
26.7258 26.0376 26.9451
39.7256 37.6893 34.56
24.1662 24.1848 24.7494
25.7841 25.3141 25.8736
25.7853 25.2864 24.9291
25.2001 25.6287 26.0705
25.0006 25.1024 25.4915
22.9326 23.3798 24.1064
24.3276 24.721 25.2228
23.0098 22.8401 23.2886
24.8152 26.1857 27.5326
26.1801 25.9795 26.2825
26.9454 27.4909 28.3491
25.4332 26.416 28.021
23.9978 23.8771 24.1046
24.433 26.7579 28.9131
21.5605 22.3942 25.1502
25.9182 26.6824 27.3752
22.3848 23.298 25.1425
24.7741 25.2812 26.547
24.544 25.3205 26.1744
24.7809 26.5587 28.3507
23.0548 23.3597 24.5053
24.2051 26.9084 29.7946
23.6236 24.441 26.1695
23.3416 25.4929 27.9263
24.516 26.4324 29.0262
22.3356 23.8469 25.9094
24.2471 27.5704 31.217
24.6063 26.5519 28.8504
25.7626 29.273 32.4841
23.7243 26.6871 30.3819
23.2922 25.078 28.5048
21.9473 24.8973 29.2959
24.5903 26.9199 30.9105
26.1961 27.6659 29.4281
24.5888 28.3191 31.9225
22.2863 25.25 29.2863
22.6562 25.0226 27.9189
20.5174 23.4181 28.0125
25.3071 28.0834 31.3008
22.1454 25.1116 29.3144
22.4127 25.3036 29.2107
21.6792 25.1796 29.9466
21.0522 22.9664 26.0047
21.0096 24.633 28.6354
21.2925 24.9754 29.8981
21.2684 24.3234 28.9198
22.9984 25.874 29.9382
21.5617 25.4619 30.9684
22.6582 25.6345 29.8117
21.9062 25.4422 29.079
17.6735 20.5418 25.4832
19.7208 23.3485 27.8694
19.8514 24.4676 30.4888
21.4466 24.8956 30.1212
21.7869 26.7896 33.3268
23.3332 26.9494 31.3685
21.3714 26.2301 32.3605
19.9712 23.9941 29.5195
20.3818 24.418 30.0519
20.6713 25.8869 31.4392
19.1075 23.2828 29.8554
20.6892 24.7841 30.7658
20.2336 24.4546 30.4856
19.46 23.9885 30.213
18.4323 23.4468 30.3233
19.7509 22.8824 28.9748
21.7352 26.684 32.8859
19.604 24.1494 30.6243
20.2659 25.6306 32.5881
19.6604 24.7283 32.1356
19.7837 25.1567 33.0693
22.0363 26.5263 31.9575
20.6158 26.4153 34.0316
20.9962 27.3428 36.5468
23.7488 29.0143 35.4675
18.8455 25.0335 33.6773
20.2606 25.8911 33.826
19.1882 23.4956 29.9084
19.7873 25.7129 32.9803
16.8296 21.1091 27.8157
20.4285 27.8318 36.3582
18.3916 24.2183 33.5629
20.2002 25.7991 33.7003
18.4863 24.4483 32.7018
19.2528 25.3831 33.8687
19.0152 24.5352 32.7443
16.9623 21.9872 30.8123
20.095 27.0857 35.8214
18.614 25.3083 35.0986
19.1013 24.5402 32.4328
17.5229 23.8891 33.4415
17.1425 22.0625 30.2341
18.7844 26.1159 36.1058
16.9515 22.8874 33.1859
19.0808 26.6766 41.9405
30.4182 37.9853 45.0921
19.0231 26.6635 37.3379
18.9821 24.508 31.4566
18.4755 27.3753 38.5786
17.2033 24.4151 36.931
20.2279 25.8807 34.906
17.753 24.0418 34.5634
18.0706 24.6335 33.4333
17.0941 24.2568 34.8886
17.2532 24.2317 34.716
18.0443 25.2784 35.2839
16.1213 23.4506 34.2615
16.7302 23.8563 36.1056
18.6002 23.8222 32.1884
17.0706 24.7565 34.528
16.0592 23.1039 34.1176
18.0115 24.4703 34.4058
16.097 22.8913 32.8925
17.2727 25.2957 36.3307
16.8327 23.4073 33.2421
15.1414 22.1903 32.5906
15.8012 23.5418 35.7682
17.6973 24.8131 34.8608
14.8043 23.0872 36.6458
17.7854 24.5568 34.9003
16.4516 24.4573 36.6203
17.3184 24.9997 38.0779
19.9068 30.0749 44.8476
16.7329 23.5872 34.3844
15.955 23.7185 35.7037
15.3556 21.5683 31.9326
15.3526 24.3743 38.7844
17.2765 24.6613 36.7022
16.9782 25.5528 39.1396
17.2196 24.7764 37.1526
17.2328 25.658 36.8431
14.8594 23.558 37.465
15.5397 23.4776 36.8754
16.9554 24.9321 36.065
13.9709 21.6252 33.7493
14.2006 22.3681 36.42
16.2339 25.2879 39.117
15.2353 24.042 40.1214
16.8762 24.7345 38.9438
16.2493 24.3841 36.9087
15.2762 23.5443 36.9405
14.6326 22.428 35.2172
15.5817 24.7083 37.4887
13.8401 23.3642 38.5438
13.6301 20.3108 32.9619
15.114 23.7028 38.6098
15.8149 23.9981 37.6055
15.34 23.5503 35.4032
13.0271 21.3435 35.963
15.0979 24.0228 38.4586
14.6408 23.375 39.0255
15.2587 22.5092 34.79
14.3469 23.6763 39.5442
15.1304 24.1977 39.5561
13.2794 20.2884 33.8849
15.2763 24.9869 40.7178
15.0178 22.9735 36.5094
14.4466 23.1856 38.1588
15.7715 25.1929 41.0091
15 23.9143 39.3251
14.1531 21.1286 33.0433
14.3167 24.0734 39.2834
13.7215 22.0928 36.8223
14.1616 23.24 37.2067
13.1411 23.4165 41.0561
13.623 21.4654 37
14.2543 22.7154 36.6614
12.9677 22.7066 40.8916
16.1438 26.4017 44.3768
14.5132 23.5002 39.574
13.6612 21.9355 36.9308
13.2668 22.5261 38.4064
15.1551 26.343 44.9871
13.4966 21.3308 36.4604
13.3278 21.2546 35.9875
13.7463 23.1107 38.304
12.9361 22.2229 37.7892
11.8928 21.0673 39.0767
13.2032 20.6407 34.5989
12.7637 21.6183 37.2954
12.3996 21.2326 36.791
12.1803 21.1333 38.737
13.1189 22.2027 37.2737
11.7829 20.6642 38.2375
12.4023 20.9267 36.89
12.2967 20.194 35.1319
12.1188 21.4124 38.4259
12.2919 21.1268 36.9329
11.7614 20.9483 38.821
12.1455 20.5347 37.1345
13.0886 24.0424 48.5228
20.8314 35.853 55.0475
12.306 21.7633 40.4514
12.3138 20.9038 37.2761
12.0037 21.3276 38.2367
12.3657 21.9801 39.2524
12.1559 21.8725 40.7561
12.3554 21.8928 39.3047
11.2142 21.0085 40.826
12.6775 21.5241 40.1144
12.5317 21.2126 37.8031
12.6658 23.205 41.3457
12.381 23.3186 44.3905
12.0447 21.8409 40.1078
11.4868 20.2334 39.0766
12.6746 22.1347 40.0385
13.0308 23.4523 41.5847
12.861 23.8364 42.8651
11.8036 21.3259 41.0597
12.7707 22.7864 40.7583
12.3393 23.3926 45.0768
12.2218 21.978 41.0659
11.3976 19.889 38.5356
12.5192 22.1581 40.0036
12.6197 24.4526 46.4889
12.3427 22.6224 44.8503
12.147 20.916 39.7941
11.6988 20.038 35.5056
11.0635 21.0937 40.7373
11.762 22.1302 42.5488
12.3204 24.9691 51.8181
13.0792 21.5938 38.1467
11.3548 20.8746 39.5709
11.739 22.0743 40.8471
11.3755 21.8146 42.5424
11.5434 22.9221 45.8568
12.2114 21.6761 42.1659
11.8275 21.7254 39.9866
11.1261 21.8231 41.4933
10.9274 20.6276 38.7856
10.1737 20.0533 41.2549
11.3209 22.514 44.4028
11.0157 20.0294 38.9479
11.4898 22.7439 43.1614
9.72778 19.8792 42.9636
11.4307 21.9013 42.9442
10.384 19.5583 41.5901
11.848 20.3956 37.0291
10.2884 20.7621 42.9779
10.5722 19.9789 41.068
11.4085 20.853 39.4818
10.5151 20.5232 40.2729
10.9188 22.0317 44.4592
10.6955 20.2983 40.1606
9.50345 18.9729 40.0556
11.4101 22.8479 45.4001
10.5186 21.1713 45.431
11.0793 21.2924 41.0234
10.5492 21.3559 42.9762
10.3301 20.5303 44.0558
10.8953 20.9398 39.1649
9.02333 18.986 39.546
9.8706 20.8739 46.8148
12.396 23.0673 44.5534
9.91968 20.164 44.0136
11.0457 20.9151 41.875
11.0711 22.3509 43.7055
9.99696 21.3032 44.3067
9.73195 19.8268 42.7998
10.7567 21.9401 46.7281
10.6873 20.8546 43.9419
10.0342 19.4642 40.5779
9.98419 20.6829 44.0193
11.1616 22.5013 44.9599
9.59298 19.1014 40.0282
9.53316 19.916 41.7095
9.45363 20.3934 44.509
10.1696 20.6478 44.0841
10.2668 21.0842 43.7299
10.1578 22.6079 49.8575
10.1087 20.1764 44.1474
10.6777 22.0322 43.2642
8.99648 19.2006 42.2339
9.43728 20.3512 44.6551
9.73285 20.586 43.552
8.87802 17.3256 39.3398
10.354 21.3085 42.9091
8.7273 18.4957 41.4856
9.33081 20.8611 47.3786
10.1221 20.6918 44.9562
9.78921 19.0898 40.0977
9.62049 20.8019 45.4321
8.97053 18.8805 44.0487
9.80247 20.0438 42.2722
9.06904 20.0447 44.5232
9.10031 19.6484 42.593
8.57612 19.7814 52.3712
13.217 27.1602 50.966
8.92126 19.623 45.6755
9.19542 18.4486 41.0349
9.04336 18.8172 37.4543
7.60637 18.9217 45.4632
9.84353 20.6318 45.14
9.08875 19.3422 43.3319
8.92895 18.3973 39.2747
8.4621 18.2658 39.8922
7.85345 17.3981 42.1964
9.53596 21.1297 46.593
8.68492 19.346 44.4987
8.46291 18.4681 43.1375
8.61903 18.5425 43.3589
8.82284 18.4757 40.2362
8.18123 18.7065 43.3763
8.90046 19.2774 41.7066
7.88873 17.3869 44.1259
9.97974 21.2972 44.0225
7.73863 17.4886 44.0686
9.93711 21.562 44.7758
8.57218 19.8661 48.1394
10.0601 23.0175 50.4895
8.90242 18.9156 42.7188
7.75869 16.6995 40.3169
9.34162 21.3446 46.3402
7.88485 18.2325 43.2874
8.24677 17.8778 41.7865
8.65591 19.6495 45.0757
8.40097 18.5164 41.272
7.74643 18.4085 42.7432
7.39069 16.5233 39.914
7.73924 17.6866 41.1756
7.82658 17.7682 42.7982
7.9284 16.9755 39.5642
8.21792 20.0222 46.9834
8.44873 19.0934 45.973
8.25114 18.0357 40.3921
7.36702 17.9108 42.4819
7.3934 17.1351 42.6746
7.91019 19.1293 47.9994
8.95813 20.8677 49.2339
8.49921 18.4143 42.8982
8.11903 20.7619 52.1105
9.02196 19.7971 46.4114
8.39527 18.6894 45.1191
7.95162 17.3375 40.3222
7.93801 18.9604 44.6757
7.94928 19.2171 48.6896
8.50861 18.4382 40.9066
7.70775 18.5826 45.759
8.51076 20.0943 45.7101
6.97915 16.4304 42.8738
8.00596 18.1765 42.0156
7.44928 18.5066 46.4619
7.46022 17.0611 43.1571
7.95209 18.4902 45.2272
8.71308 21.3436 50.8686
8.70051 20.2267 49.1579
8.35338 18.7682 42.9523
7.73939 19.6183 49.3245
