# pn-170911/RbIIR-52-RbII-1280-1959.psd
# Power spectrum* (dif=0,1,2) (really just |FT|^2)
# NOTE: only the first half! (symmetric)
# weeks: 1280-1959
# 89 clock-days, 1 excluded
# PSD: 1441
191956 2.92599 0.0329792
5.97876e+06 169.411 0.0695167
5.49942e+06 74.259 0.0745685
2.16391e+06 34.1262 0.0664018
1.39305e+06 24.1796 0.0594762
955161 16.6751 0.0610563
658071 13.8282 0.061559
443436 9.57733 0.0580743
349802 9.42942 0.0641937
297989 7.15293 0.0669408
199095 5.12335 0.0633353
221653 5.24785 0.0676534
139296 5.38381 0.0600411
153059 4.55932 0.0625076
113210 3.6025 0.0588863
117959 3.157 0.072577
84097.8 3.70969 0.0531127
92861.1 3.30331 0.0614175
78129.5 2.76781 0.0708083
70529.2 3.08898 0.071884
39196.3 3.74827 0.0711938
76033.8 3.25702 0.0670938
57281.5 2.70175 0.0667103
42897.3 2.54472 0.076428
35440.5 2.7605 0.0784118
34277.2 2.48362 0.0751289
26429.3 2.48704 0.068488
32325.9 2.44437 0.0680746
30268.5 2.00282 0.0628008
25140 2.52466 0.0699903
19876.3 2.92068 0.0698128
24374.4 2.15836 0.0760429
22901.4 2.21892 0.0764
17504.4 2.24282 0.0836806
21442.9 2.23805 0.0841803
19302.4 2.59274 0.0742912
17078.9 1.99926 0.0712094
17426.6 2.25535 0.0724834
15040.2 2.44124 0.0778919
15771.5 2.66 0.0834264
13335.8 2.6838 0.0948923
10941.8 2.95348 0.0773665
12698.1 3.21594 0.0932431
11270.5 3.03882 0.0898396
10018.9 2.76312 0.0966661
10610 3.1539 0.0851562
11327.1 3.53039 0.106518
11063.4 2.64142 0.0862314
7876.7 3.57617 0.101321
8868.4 2.56019 0.0852471
9992.55 3.49358 0.110001
9694.11 2.71685 0.110982
7749.24 3.51504 0.10608
7667.72 2.99896 0.103461
7374.91 3.94824 0.120648
8648.61 3.82839 0.111396
7256.6 3.0327 0.0969744
8571.91 3.64456 0.112564
7573.92 3.40464 0.131444
7254.79 3.85572 0.123264
7007.95 3.95996 0.134895
7287.87 4.78619 0.143757
6522.92 3.97969 0.134287
7390.63 4.55033 0.168009
6903.64 4.33272 0.1638
6317.17 3.79998 0.134977
5621.9 4.4373 0.150911
7093.29 4.41947 0.15554
5653.9 4.78291 0.181685
5650.58 4.89863 0.20815
4814.07 4.85713 0.177701
4980.19 5.52661 0.229956
4970.46 4.94172 0.203478
4079.85 4.08301 0.197505
4933.3 4.76128 0.181698
4766 4.62994 0.209734
4874.06 4.60333 0.204036
4184.05 3.73693 0.178902
4130.42 4.57316 0.209118
3780.67 4.79634 0.211917
3733.49 5.39628 0.238749
3634.2 5.53854 0.235869
3474.99 5.16374 0.238545
3057.51 5.40092 0.22244
3392.73 4.43851 0.214446
3551.32 4.87068 0.241906
2503.36 5.61529 0.286612
2943.77 5.61216 0.289837
2877.27 5.12455 0.275575
2772.42 5.32718 0.263833
2301.06 5.66387 0.275389
3317.61 6.1019 0.275806
2720.11 6.58109 0.364733
2579.13 5.87572 0.303888
2854.97 7.38825 0.372919
3019.78 6.05455 0.280548
2616.42 8.51433 0.422522
2831.24 6.32108 0.413526
2572.3 7.07663 0.414921
2035.7 5.91831 0.31451
2229.78 6.73655 0.385215
3454.41 7.924 0.406385
2507.46 6.86674 0.397464
2612.7 6.15363 0.405208
2545.62 7.06689 0.450628
2714.89 6.61819 0.428824
1716.79 8.52801 0.519474
2534.58 8.28387 0.432523
1902.62 8.43686 0.533943
2125.52 7.19036 0.469107
1618.46 7.55812 0.479108
2345.06 9.56487 0.617296
2278.1 7.80646 0.570425
1445.39 7.20165 0.535299
1915.39 8.72943 0.591988
2273.8 9.08458 0.628423
1252.66 7.97532 0.612958
1616.61 7.8971 0.585646
1832.7 9.4493 0.698384
1814.45 7.50825 0.499277
1982.84 7.91769 0.642934
1348.31 8.8294 0.629575
1703.71 8.5435 0.641085
2132.79 10.1561 0.723826
1866.43 8.97928 0.740097
1940.37 11.442 0.923649
1693.77 7.6188 0.62387
1378.06 10.5876 0.850522
1517.74 11.3271 0.984966
1324.7 8.36068 0.712059
1438.21 7.7058 0.734566
1412.7 9.78777 0.857368
1291.75 7.8554 0.728184
1560.56 7.62824 0.713098
1457.23 8.02456 0.727075
1643.97 11.4214 1.01674
1650.72 9.14955 0.882173
1244.9 9.19419 0.858311
1158.69 8.86755 0.897012
1405.91 10.7975 1.05846
1331.68 9.95721 0.956384
1430.81 12.1943 1.19868
1064.54 12.1208 1.13527
1256.22 10.6032 1.07065
1310.08 9.50276 0.991178
1170.65 9.19646 1.01606
968.812 9.80126 1.10097
1317.25 12.07 1.29982
1047.42 6.54882 0.729891
1177.32 9.72487 1.11238
1045.08 10.9913 1.27442
1176.39 14.1898 1.56901
1078.76 10.7929 1.2209
1272.35 8.71901 1.06332
1214.16 11.9064 1.4185
1134.39 11.2955 1.32001
869.18 10.5254 1.33814
1200.62 14.47 1.80057
976.93 11.4249 1.50631
875.418 11.7833 1.435
974.442 11.8087 1.6065
841.712 13.5096 1.75852
970.642 11.5321 1.5768
954.976 12.2974 1.55005
1234.67 14.1369 1.81019
1165.95 12.1093 1.69356
907.114 13.6509 1.73083
780.898 15.5687 2.10763
1158.79 10.1075 1.39909
850.928 8.77362 1.24976
927.724 11.3921 1.76801
598.357 9.9806 1.44711
625.898 13.1807 1.84324
1081.09 14.7782 2.18262
817.328 15.7034 2.25822
602.891 12.7274 1.89663
876.517 10.7078 1.63682
900.025 12.5965 1.97624
741.279 13.0906 2.04129
848.266 14.9653 2.23888
915.898 14.538 2.2669
930.439 12.7103 2.03908
607.969 11.7005 1.84311
905.686 14.747 2.48038
808.765 12.5058 2.06787
979.178 13.7635 2.33673
863.071 11.991 1.99681
989.763 14.7522 2.49458
647.31 13.3034 2.25821
595.645 15.1242 2.64379
720.904 13.345 2.43777
868.123 11.2197 1.98536
639.05 16.5166 2.93811
839.214 13.7706 2.55907
744.717 14.5221 2.57641
680.084 15.2079 2.61576
704.421 12.0506 2.18065
864.127 13.684 2.53974
597.781 13.3382 2.66269
622.242 12.6794 2.51954
701.682 15.0418 2.91046
592.952 12.9608 2.57983
523.492 14.2534 2.81878
782.636 15.1098 2.94503
660.913 16.3151 3.18665
606.737 14.9455 3.08606
661.757 15.1721 3.13955
738.834 16.9336 3.64325
641.016 13.8049 3.06085
727.324 16.7366 3.45969
648.421 16.9342 3.42021
700.469 16.7049 3.55376
705.254 16.4 3.51151
658.894 14.7952 3.31931
701.536 17.8978 4.17368
574.363 12.8616 2.71486
612.991 15.6908 3.39261
610.55 16.9224 3.88335
568.49 14.1918 3.26011
630.631 15.2214 3.43294
613.536 13.6269 2.99908
677.504 17.9102 4.25983
635.799 17.1175 3.86771
660.344 14.3147 3.42783
653.987 15.6953 4.01198
572.264 16.9004 4.07107
552.248 18.6079 4.30304
574.267 16.0369 3.93363
536.019 16.6871 4.1988
523.264 17.1149 4.32601
518.338 16.2488 3.98009
544.082 14.0903 3.54412
526.565 16.7248 4.38331
536.675 12.8631 3.57462
433.385 14.7298 3.85026
449.821 14.5826 3.65901
429.597 15.6895 4.01113
523.882 17.9991 4.99085
582.705 19.8752 4.95657
498.59 18.7629 5.34653
400.179 16.8664 4.42536
500.469 15.8834 4.20634
480.944 18.6741 4.9111
406.433 17.4552 4.68992
423.647 18.8944 5.42233
467.035 19.7313 5.49136
450.078 18.1996 5.21102
397.051 17.3577 5.06876
408.53 16.6138 4.64621
564.944 18.8828 5.55977
426.245 15.2022 4.58113
487.465 18.2293 5.31976
412.122 15.4944 4.59984
444.214 19.6229 6.04899
434.349 14.1657 4.28941
386.307 16.4681 4.7354
509.965 17.4944 5.4307
419.75 16.5187 5.28889
439.192 23.2922 7.07771
420.236 22.2228 6.75648
427.588 18.4321 5.80445
420.871 15.7126 4.92268
328.002 17.2106 5.89469
372.75 16.9548 5.37224
328.426 18.1039 5.86718
370.986 19.9545 6.40987
451.175 15.2075 5.11229
475.541 16.499 5.49173
301.885 18.4138 6.38405
474.216 17.2852 5.82313
429.178 20.012 6.70639
389.224 14.3954 4.97989
360.641 17.6052 5.99786
360.518 15.5846 5.35147
354.859 20.0591 6.9591
435.367 19.4341 6.64879
339.721 16.1233 5.88888
398.968 17.623 6.3747
320.607 17.1363 6.08221
366.476 17.2842 6.63893
320.522 16.4176 5.8213
344.052 17.2639 6.24273
372.408 17.934 6.49371
337.175 20.0004 7.41877
272.595 16.585 6.43106
217.977 14.383 5.32454
165.887 19.7612 7.89341
422.353 21.0944 7.92795
260.041 24.5993 9.45043
209.473 18.2165 6.85907
274.366 18.5363 7.30476
257.899 20.3061 7.79454
271.531 19.7514 7.94553
333.318 19.1741 7.72475
321.58 19.9494 7.94802
318.837 18.7947 7.46662
356.621 19.7619 7.9137
301.652 16.2208 6.94552
279.367 17.6038 7.38412
415.297 25.5541 10.2617
260.323 15.8376 6.71089
343.751 18.9718 7.99587
267.807 19.429 8.2044
335.273 22.3262 9.45274
299.543 20.7967 8.56527
285.831 19.8336 8.67537
300.608 21.7985 9.41162
262.502 17.1401 7.61375
237.181 21.9907 9.17639
383.682 18.0359 7.57366
320.766 15.2386 7.148
282.46 20.767 9.36179
268.857 19.3984 8.6289
262.652 18.9424 9.09381
232.2 20.3252 8.6277
275.734 16.581 7.52722
283.266 19.4781 8.62005
259.18 17.9818 7.8863
218.341 18.8767 9.17212
311.302 16.794 7.87207
303.682 23.11 9.85753
276.539 20.3971 10.3197
340.881 18.4614 8.99049
273.296 18.6267 8.93814
283.206 21.6607 10.4185
251.777 20.8986 10.0486
246.815 20.4125 10.473
232.669 18.4151 8.95122
254.053 20.9267 10.1397
194.468 20.105 10.0473
250.09 19.792 10.0107
220.011 18.3631 9.59695
224.773 20.024 10.5453
221.47 19.5304 9.4448
227.63 20.178 9.76328
275.076 20.7177 11.1156
183.403 20.9046 11.3122
222.601 18.919 10.7062
238.312 18.8077 9.45323
247.187 18.7652 9.3138
209.305 21.8061 11.489
211.004 22.7269 12.356
231.461 21.5125 11.1118
264.561 16.6693 8.77755
233.113 18.6298 9.64287
319.286 24.399 13.7325
241.256 20.3375 10.7956
246.729 25.3396 14.1005
249.329 20.7773 11.1768
253.119 22.7541 13.0999
257.496 21.7185 12.4374
291.658 24.1131 14.3003
234.51 20.8924 11.3687
272.292 20.537 11.8119
251.016 27.2043 15.6302
316.792 19.4715 10.9425
235.99 19.5977 10.4911
240.523 19.8962 11.818
234.278 23.8789 13.9831
257.881 24.1653 13.7912
245.999 18.4518 11.166
207.654 20.0143 12.2658
232.64 19.4429 12.5701
253.033 19.1364 10.3747
221.798 20.6889 12.4766
203.867 19.5606 12.2493
230.284 17.9896 10.5944
239.604 25.3017 15.637
215.53 18.2269 10.7782
208.171 22.7942 14.6392
186.248 19.0129 11.564
180.973 16.9026 10.6586
214.006 18.8318 12.8721
214.6 19.7014 11.7553
150.445 15.4033 9.97956
235.313 28.72 17.3591
207.015 25.3431 16.5341
228.111 16.8347 11.2528
155.607 26.168 16.4358
216.809 18.813 12.3467
209.604 19.9381 12.7741
187.952 21.8744 14.8947
233.462 23.1289 14.6647
196.936 19.2559 13.6123
184.693 23.6705 15.302
207.679 18.8759 12.7153
196.54 15.4733 10.592
173.82 20.9404 14.121
206.844 17.5156 12.4428
270.807 21.822 14.2705
218.109 20.5308 13.9713
207.184 22.1761 14.964
195.798 22.94 15.3815
196.282 16.7867 12.5984
171.543 19.0633 13.683
195.586 16.3966 11.7641
159.481 20.7401 13.3488
206.373 23.6057 16.5345
159.736 22.2436 16.0309
218.794 21.2832 14.7852
198.505 21.0863 15.7948
143.173 17.5023 11.9311
191.361 23.9008 18.0303
213.242 22.0129 14.6704
145.496 23.3468 17.4704
180.493 19.0322 14.4034
207.695 21.7715 15.2905
201.927 17.1082 13.0235
186.562 19.0028 14.6019
165.555 22.1218 16.639
201.742 20.6971 15.7277
189.453 19.1412 14.2342
182.964 20.0505 15.2544
211.224 22.9801 17.3592
179.972 19.1355 14.4374
157.342 16.9026 13.3025
185.426 19.0519 14.8999
166.647 21.2036 16.7402
185.04 20.5286 15.6787
175.25 22.7616 17.1975
143.723 17.6476 14.1099
142.971 20.8996 17.3085
141.532 19.6115 15.5954
171.276 22.3558 16.2388
168.034 17.7878 13.5626
143.017 20.3438 17.3486
134.552 17.5429 13.9734
166.877 16.8146 14.2159
161.777 19.9478 16.5953
184.219 22.1806 17.827
138.467 22.5167 18.357
171.01 24.9895 19.403
174.182 19.8472 16.5304
169.833 22.4236 18.7485
155.467 20.5041 16.0133
176.42 19.6422 17.9022
145.607 18.816 14.8736
163.009 18.6429 15.7141
168.834 18.2873 14.7615
167.649 20.4517 17.534
181.841 19.9613 17.7929
199.516 23.8577 20.4923
178.866 21.1194 18.3933
166.809 20.0208 16.7181
152.417 19.4276 16.9271
182.748 20.7112 19.926
124.105 17.0012 14.1233
142.39 19.231 17.2261
138.96 23.4949 21.7509
121.193 21.4359 20.376
164.239 24.939 21.0518
136.21 17.4741 16.3779
198.685 21.2717 17.9265
191.077 23.2655 20.8144
114.876 25.9963 23.5018
136.781 20.2893 18.7689
207.534 24.9308 21.1314
147.099 22.0462 21.3501
152.206 24.9683 22.5225
110.945 19.2089 18.2231
117.062 20.8381 19.6737
179.894 19.4412 18.922
141.426 18.3354 15.9481
116.561 23.0458 21.512
137.342 26.4355 24.3964
149.334 20.2905 19.2935
126.341 18.7799 17.6569
133.759 20.3281 19.3247
144.76 21.3287 20.3705
167.909 23.5478 22.777
117.523 19.6859 18.079
148.227 19.6386 19.3117
135.955 21.3348 20.9142
150.042 21.0854 21.1314
141.646 22.7728 22.9342
155.09 23.6153 21.768
105.458 17.8306 16.5778
112.227 23.5799 23.273
136.169 19.2096 19.3705
148.202 19.5206 21.0366
120.542 30.2893 28.8124
140.116 19.5893 18.9907
147.081 18.6238 19.7729
120.816 19.7594 19.7448
140.635 20.4927 20.9489
161.708 20.1428 18.254
106.009 21.1875 22.2614
148.971 18.6068 20.3851
113.658 22.9895 22.6503
117.249 18.4742 20.3339
120.276 19.8375 19.1246
147.074 19.512 21.5987
135.239 21.0135 21.6675
117.182 18.2577 17.7842
137.281 20.6631 21.0651
136.231 18.2256 19.6804
127.439 23.2747 25.7946
137.171 17.5026 20.9991
141.696 21.1113 21.9295
145.21 20.6839 20.0066
140.483 17.0777 17.4493
123.068 18.4202 19.9833
126.506 19.2353 21.7593
129.064 24.9572 27.1472
132.467 20.7213 22.9706
118.589 19.9793 19.2723
124.455 25.746 29.6626
112.422 20.4683 23.2319
115.573 13.9659 17.5301
124.299 24.2937 24.8361
110.606 19.6058 23.7432
132.071 23.9697 25.7496
125.217 16.7558 19.5848
118.526 17.7922 20.3226
135.259 18.7146 21.8588
111.488 23.4354 26.374
115.29 18.7658 21.2212
121.17 23.6187 24.6862
100.464 20.2543 22.7426
122.191 18.4525 24.4373
119.675 16.9692 17.6215
128.255 19.4238 23.2099
112.074 20.9795 22.3027
106.906 19.0662 22.5448
105.004 17.431 21.64
118.002 17.506 21.586
104.314 17.209 18.3884
127.35 19.5093 22.8351
98.1999 18.505 24.6275
121.921 16.4416 18.8188
121.306 18.4219 22.396
96.6242 15.7701 18.4713
102.746 18.2374 22.3454
115.92 19.371 23.5097
114.346 23.1755 27.2335
102.893 22.23 26.716
113.177 20.2806 24.7418
143.777 22.427 27.4846
115.647 19.8212 24.7698
119.735 15.5559 18.5998
114.536 17.3373 21.9561
103.433 18.221 23.055
105.544 19.369 22.0359
97.8714 24.7194 29.2706
114.025 25.4169 33.9819
115.452 17.5723 21.1131
115.664 17.552 21.2006
99.1701 19.1197 24.2719
135.421 18.8992 24.6581
99.8502 22.9494 28.3704
97.0816 22.2448 26.3136
105.449 19.1221 27.2284
86.9451 14.274 17.436
89.9157 21.5834 29.4102
126.455 20.0639 23.9287
108.168 18.0927 22.857
84.5001 22.8799 28.049
128.932 20.0641 29.4735
106.136 20.0124 26.3824
111.608 23.1771 27.466
84.4762 24.1294 29.7196
111.123 20.2741 28.3749
102.395 19.4298 26.8544
118.918 22.4866 27.7437
110.612 20.0742 28.1742
109.569 19.6517 28.0188
93.7142 21.4643 30.0907
115.295 18.9019 24.4205
92.1178 22.5858 28.9611
103.536 21.8743 29.5059
104.34 17.9925 25.2153
104.479 22.572 29.2786
88.2136 19.3639 25.6497
71.3241 21.0581 29.4009
77.5401 25.9642 37.4317
158.325 18.4664 26.3297
76.0957 28.0597 38.0683
76.6991 22.0994 31.1282
103.863 21.6689 29.6679
95.8672 21.9069 28.3787
100.628 19.4561 25.3774
95.9274 18.2536 27.5104
86.4718 17.6702 28.2322
93.5002 21.4687 29.3657
94.4509 20.5506 29.4681
86.9224 19.5091 26.2785
87.0394 21.8172 32.103
89.8199 20.3819 27.0301
66.8468 17.5312 26.0132
88.6605 18.0937 27.4134
91.1399 20.6508 31.2443
90.2289 27.66 34.4309
84.4618 15.7832 25.1098
102.82 22.0682 32.3991
78.565 18.8756 28.9503
63.762 20.7043 28.4356
77.5577 22.1875 36.8451
104.292 21.4278 34.9615
98.9065 22.3799 27.3926
101.946 18.8198 27.9564
78.1673 20.0731 28.4288
90.9056 19.7507 30.4537
75.5106 21.7685 33.1969
89.5308 17.5151 27.3851
103.464 29.4296 40.2124
77.097 14.592 22.0744
47.7131 19.7297 32.3434
93.2738 22.5787 34.6084
77.0641 14.6019 23.6148
96.8026 18.3395 28.6571
98.5207 18.8694 25.7425
93.4213 20.646 31.6113
82.1455 18.5594 28.5514
85.1391 18.9687 30.1698
71.5605 17.7768 27.1182
83.1163 25.7395 42.1811
78.1012 21.1999 31.5116
83.4412 21.1696 33.5842
92.7398 19.7826 27.5503
69.3597 20.4711 28.8957
70.1857 17.7343 28.5592
84.2917 18.134 27.5409
77.1472 18.5551 32.2419
78.2385 22.0416 33.5638
66.904 22.0707 35.0632
74.6324 14.2171 23.0787
91.5186 17.4971 24.8647
92.9672 21.1477 34.7734
78.6214 18.5565 31.0863
71.3745 16.4893 26.8276
85.1484 20.6667 32.1968
87.116 19.9305 31.5108
70.0844 22.0171 36.1894
98.9815 17.5182 30.0552
87.3495 20.8381 35.8226
81.2776 21.926 34.0604
83.0478 21.9359 33.276
88.9164 16.1227 29.7841
85.7373 20.0773 32.9941
85.1479 19.5621 32.7809
76.7061 21.2601 34.5705
85.4336 24.575 36.4115
78.377 14.5151 25.3733
88.8321 17.2887 27.5469
74.0812 19.1643 31.1583
95.4903 21.1086 36.0686
73.8552 19.1916 33.2145
78.8199 17.9139 28.74
85.8009 24.3676 39.1057
60.9477 18.137 33.9378
95.2453 17.9932 30.4976
87.6512 16.9407 28.1921
78.1604 18.5999 33.0852
69.5542 17.8324 30.2847
76.1715 22.8393 36.3402
80.2568 17.9231 36.4306
89.9942 22.1107 36.4706
69.9524 18.0105 30.7598
72.335 19.685 33.6954
75.258 15.6889 27.0691
72.4348 16.734 31.894
83.2324 22.9664 37.6095
72.8972 20.1437 34.7491
81.6928 19.6974 32.1778
77.6192 24.4631 40.5151
70.5419 22.0604 39.7183
69.5256 18.2016 35.1637
83.9353 15.5906 27.682
71.6634 16.941 32.1369
67.5312 16.6887 29.4524
86.246 18.7226 30.9376
87.888 21.0218 38.8409
70.1628 25.1288 42.9054
65.2557 13.6579 25.412
80.1789 20.1896 36.7723
70.4137 18.6179 33.4732
75.9786 20.4383 34.2732
77.3592 17.4603 37.1392
75.4543 21.3527 35.5451
73.8836 15.8692 29.7282
75.2349 16.4045 29.5746
71.4652 15.1785 27.1238
62.6977 15.6541 26.6809
61.8676 23.9531 41.6135
60.8497 16.0817 35.3303
74.0968 23.5659 47.0227
72.2995 17.8715 28.5325
88.8952 19.8791 36.692
82.0127 15.7006 28.1493
66.796 17.1395 31.9531
73.4927 17.924 34.8945
71.8417 19.2239 33.3985
59.7337 14.264 27.0507
74.6598 17.8848 38.033
61.9507 20.4349 37.816
70.2729 19.351 32.9892
64.0613 18.5184 35.8385
65.8365 17.8577 33.1454
74.5098 17.6378 31.2676
72.8301 17.6649 35.3204
58.2784 16.533 29.7269
75.0516 16.1238 31.0923
70.6393 14.8629 28.8852
75.3463 15.9397 30.3819
64.5307 18.7115 38.8015
76.4658 16.3232 27.9318
81.6484 19.9753 41.3883
62.3564 13.8194 27.0154
68.2079 17.1192 32.8815
73.0971 18.827 36.275
60.8286 24.4826 45.0442
72.4215 20.1646 39.1523
65.6431 19.211 37.7031
51.6952 17.3157 37.0168
72.2528 19.7828 37.1445
63.8519 15.789 33.1134
79.7882 17.1016 31.5894
67.2138 16.2635 30.4244
46.4973 15.3874 31.3759
77.6058 16.5843 34.1926
68.7866 20.3316 38.862
70.5616 16.8275 30.4856
68.7979 15.2118 30.8724
48.9116 12.4772 27.637
66.5602 17.6462 32.1485
63.0506 15.0631 39.98
65.889 23.5419 41.8371
66.0295 14.0759 31.7013
61.29 17.0824 34.9487
76.6288 15.9421 35.3508
69.9509 14.3285 26.5642
63.9505 17.9974 36.3364
64.0586 19.6329 41.7143
87.7249 20.6326 44.4224
61.5859 17.6924 32.0786
62.4873 14.7358 31.7795
67.6812 19.1792 40.2294
61.0133 17.6121 35.4966
70.9535 16.6183 38.4301
60.958 19.0816 33.7283
88.7469 18.1771 40.5412
62.5594 16.9825 37.638
53.0247 19.6208 38.9677
67.6057 17.723 41.3429
85.9378 22.5135 45.1287
54.0056 18.4534 38.0508
64.4783 15.7399 34.3916
62.2987 17.6302 38.0142
57.0878 19.2712 37.5856
59.5456 16.1888 36.4015
69.9433 16.9921 37.2119
54.2478 17.0672 34.2164
43.7863 15.4481 33.3822
58.5983 15.333 30.6589
62.3038 17.0436 35.4914
49.1749 18.2812 45.4277
64.457 19.5038 42.5299
64.0994 17.2353 36.275
51.8622 17.0183 37.0643
56.888 13.3175 29.2816
62.7613 18.9255 35.2311
68.8372 15.2816 36.6515
52.6999 14.2708 30.3102
56.0012 17.3211 37.9245
64.4652 19.6534 43.3264
56.8369 16.8265 36.6216
60.3547 19.0594 42.6923
64.1013 14.2415 39.6147
52.1085 17.3404 29.3937
71.5975 19.0685 42.5033
63.6198 14.6941 31.8131
55.6118 14.8045 32.2315
55.1494 16.7215 36.0343
75.5076 13.0711 30.6749
63.8338 16.0296 40.8616
63.3607 18.4025 37.998
54.0494 20.4947 44.171
61.9178 15.8731 33.7967
53.2111 16.601 34.441
68.7641 13.6752 37.1125
63.1011 14.5379 30.28
56.6988 19.5578 42.8139
79.6557 17.0917 42.0393
73.7874 15.2763 37.18
59.1533 17.1729 38.2287
74.5016 12.2098 29.0655
59.3683 16.6042 38.0002
81.1822 13.5431 31.6731
55.4929 18.2379 41.7363
52.4876 13.2384 31.3218
64.3631 14.4491 33.4498
55.5556 19.0454 44.6821
60.0134 16.6765 38.9899
64.5781 18.3206 36.9682
49.7491 16.237 38.8001
55.7771 17.3049 37.4249
49.614 14.265 35.6835
53.5013 16.4158 40.5782
56.3957 16.6218 37.8688
51.1006 15.0995 39.3112
55.2315 14.3155 35.267
55.5043 16.5116 39.0912
66.4148 18.5745 42.7443
54.0877 15.2397 32.2186
52.6232 16.3095 38.1632
58.3737 16.6617 38.2167
52.2685 18.4199 44.8376
42.0293 19.1806 41.4164
51.3609 14.7843 36.512
70.637 12.6993 32.5556
52.3111 13.2213 34.4538
65.3718 15.9545 34.3842
53.4916 17.4436 40.8843
62.1913 21.2099 52.4666
52.006 15.0269 37.1529
53.867 18.921 46.2428
59.336 15.1774 38.0969
62.2635 16.0242 33.9187
44.1109 19.4055 46.3653
61.8116 15.9749 43.0069
48.2553 14.0003 37.6715
64.5314 17.5506 36.7738
61.679 13.3695 32.8976
56.3407 13.4604 33.2911
49.3295 14.0511 34.4539
63.1902 14.239 33.9979
55.4639 16.1561 40.3756
66.7379 14.424 30.4205
57.9359 14.743 37.3024
