# pn-170911/RbIIR-61-USN7-1280-1959.psd
# Power spectrum* (dif=0,1,2) (really just |FT|^2)
# NOTE: only the first half! (symmetric)
# weeks: 1280-1959
# 532 clock-days, 2 excluded
# PSD: 1441
142.263 0.042183 0.0258289
15821.1 0.433436 0.0378839
48612.3 0.981677 0.0380622
21913.5 0.860505 0.0397396
25643.7 1.90376 0.0364133
7558.15 0.731102 0.0371255
5893.97 0.838965 0.0389649
3926.65 0.731321 0.0402147
2870.17 0.703097 0.0370358
2180.51 0.697888 0.0381888
1829.35 0.731049 0.0375371
1557.64 0.766087 0.0380997
1338.58 0.770516 0.0389434
1089.56 0.72488 0.0375839
1031.91 0.820507 0.0361731
920.353 0.803408 0.0399563
733.574 0.756524 0.0386203
729.48 0.847873 0.0451222
663.212 0.84721 0.0384013
555.019 0.815245 0.0381897
530.643 0.86243 0.0379414
503.529 0.865462 0.0388943
442.582 0.920219 0.0419306
420.116 0.88569 0.0421736
403.479 0.980789 0.0404936
391.943 1.00896 0.0372828
349.921 0.993398 0.0373496
351.3 1.08266 0.0403129
342.536 1.10811 0.0405052
290.607 0.985966 0.041798
307.9 1.15393 0.0443117
288.091 1.18949 0.0437822
277.222 1.17975 0.0426416
243.258 1.14618 0.0402073
277.549 1.33053 0.0449449
241.765 1.28195 0.0451551
244.48 1.27213 0.0445895
233.483 1.36888 0.0486122
212.258 1.30882 0.0469205
212.967 1.39568 0.0478076
205.599 1.36046 0.0463905
217.521 1.62711 0.0487296
189.169 1.41937 0.0478593
191.169 1.54796 0.0465324
202.735 1.74604 0.0536849
179.853 1.59836 0.0570918
191.378 1.72574 0.0533245
182.443 1.76554 0.0553327
182.527 1.82006 0.0572004
182.496 1.91164 0.0544642
176.61 1.95462 0.0573927
175.049 1.97807 0.0635048
162.778 1.88651 0.0591413
152.807 1.86057 0.0615211
159.092 2.02921 0.0633032
150.246 2.03278 0.0694058
160.671 2.20648 0.0735995
153.74 2.18187 0.0727895
156.063 2.38882 0.0713928
161.644 2.56149 0.0822392
147.647 2.30651 0.0770321
150.028 2.52507 0.0787224
148.894 2.62397 0.0849531
141.155 2.51368 0.0892287
141.096 2.6286 0.087923
141.481 2.67416 0.0888237
148.531 2.89124 0.0984603
140.011 2.85157 0.0992609
148.133 3.05276 0.102523
137.456 2.91481 0.105893
140.281 3.15656 0.10769
141.393 3.23774 0.106712
130.981 3.07078 0.108876
140.177 3.38619 0.124799
127.743 3.23016 0.128795
134.951 3.43988 0.129952
129.038 3.37739 0.124727
121.88 3.29325 0.122176
124.538 3.30219 0.127176
128.577 3.65981 0.147128
128.958 3.74594 0.150663
123.264 3.5998 0.15229
127.939 3.92375 0.153187
125.801 4.03752 0.167212
127.498 4.0519 0.175939
123.957 4.07268 0.184517
127.24 4.45569 0.195359
116.602 3.97957 0.183135
121.61 4.21752 0.1962
112.105 4.14605 0.191497
122.866 4.54639 0.212967
114.864 4.40446 0.206675
118.343 4.61756 0.212667
121.125 4.8607 0.226635
110.908 4.53627 0.232098
110.223 4.53967 0.23077
117.597 5.07985 0.257139
116.236 5.05969 0.2572
116.694 5.08012 0.261781
103.078 4.63971 0.253319
118.305 5.41605 0.296206
110.123 5.17754 0.272038
124.334 5.9157 0.334267
118.952 5.67634 0.310746
114.395 5.56624 0.319693
108.021 5.47845 0.321103
105.624 5.40589 0.346495
105.238 5.58112 0.324355
101.453 5.48064 0.349491
106.526 5.81859 0.369447
104.936 5.73448 0.368358
108.938 6.13419 0.392227
97.503 5.7878 0.373905
109.409 6.51908 0.422446
104.782 6.24393 0.42364
111.909 6.81159 0.463296
102.821 6.39733 0.428865
107.07 6.76476 0.475967
102.371 6.60043 0.467032
98.7494 6.47273 0.455856
107.451 7.23318 0.525226
94.489 6.55607 0.465789
100.845 6.88868 0.505035
99.0022 7.08442 0.53278
98.9636 7.06022 0.533731
95.9516 6.84797 0.535695
106.731 7.91507 0.630174
101.821 7.64291 0.617788
97.055 7.4269 0.594293
97.7209 7.41962 0.614912
100.631 7.90243 0.655334
100.436 7.99413 0.670657
107.366 8.73757 0.748518
91.1524 7.47418 0.649476
92.1192 7.74935 0.691116
104.818 8.9608 0.797224
90.6597 7.90418 0.701072
97.2016 8.33316 0.773634
94.3605 8.40355 0.787894
88.2811 7.88436 0.767872
99.0427 8.90494 0.837332
90.4746 8.43666 0.80447
84.0788 7.67417 0.756196
93.3546 8.74694 0.884264
89.6276 8.469 0.854447
93.0683 9.02753 0.928292
86.802 8.43567 0.855341
87.4798 8.91252 0.94718
88.3843 8.76028 0.945279
95.302 9.83688 1.05211
87.1938 8.91086 0.982329
86.0914 9.20265 1.03294
84.9859 9.13764 1.02418
92.4042 10.1416 1.14649
79.3371 8.67568 1.00491
84.8549 9.5297 1.1135
84.9201 9.65777 1.12489
80.2789 9.1321 1.06438
87.0754 10.2246 1.22552
85.6238 9.88854 1.19777
90.1904 10.6463 1.3241
85.3792 10.2082 1.28045
86.5716 10.5128 1.33035
90.1787 10.9023 1.36912
81.7615 10.321 1.33814
86.4074 10.8264 1.4
81.3638 10.2959 1.36603
80.2299 10.3591 1.38224
77.2587 10.107 1.35797
78.8987 10.3345 1.42137
78.3921 10.5486 1.47278
78.166 10.5281 1.47771
77.2178 10.6047 1.50128
88.6499 12.3309 1.76663
83.0915 11.5672 1.67356
79.4817 11.1841 1.61872
78.3354 11.2099 1.63178
75.7379 11.2006 1.68858
75.8408 11.045 1.64682
73.3051 10.9173 1.67301
75.7764 11.4533 1.78588
79.0382 11.9229 1.81336
77.9365 12.0086 1.9076
75.2631 11.5885 1.82198
72.2243 11.3446 1.80901
78.6937 12.64 2.03751
72.528 11.4122 1.87231
80.1698 12.8969 2.14843
70.9371 11.6415 1.93287
74.2968 12.3625 2.08923
72.3436 12.1423 2.10085
72.5158 12.4537 2.2032
70.5137 11.7364 2.01746
72.0016 12.3439 2.18175
75.817 13.0567 2.32816
72.3607 12.7697 2.29688
72.7226 12.6697 2.23631
74.4879 13.6113 2.50265
74.543 13.5664 2.50472
79.1351 14.1143 2.59644
70.053 12.9236 2.48758
75.0902 13.9901 2.66127
69.519 12.9349 2.49586
70.5784 13.6454 2.68501
68.7882 13.4652 2.66743
72.7845 14.3104 2.81393
69.3188 13.6306 2.71856
67.827 13.0885 2.62537
67.8732 14.0771 2.90508
70.8318 14.2756 2.94664
65.7559 13.0732 2.70654
64.5846 13.3656 2.78341
66.8341 14.1199 3.0115
63.5436 13.3436 2.85238
64.5702 13.7679 2.99734
67.0817 14.2227 3.08843
64.3354 14.0494 3.07908
65.0096 14.1226 3.10453
65.612 14.3616 3.20978
63.2711 14.0023 3.13457
62.3305 13.7492 3.09118
61.9318 14.4835 3.39596
63.6227 14.4297 3.38268
61.4759 13.9689 3.21938
59.4852 14.0666 3.40492
66.3326 15.3795 3.62044
61.9765 14.5193 3.46786
59.2079 14.2432 3.47335
58.0534 13.8719 3.36902
61.5252 14.6867 3.58396
59.8413 14.4616 3.56482
58.7313 14.3236 3.55004
62.0978 15.522 3.90401
64.1778 15.9574 3.99446
62.4002 15.7926 4.05303
56.0586 14.4663 3.78106
60.0886 15.4551 3.96489
60.2911 15.5624 4.11847
60.5711 15.7324 4.10267
58.7925 15.6106 4.23747
58.7314 15.554 4.17433
56.0879 14.7044 3.9789
59.9096 15.8742 4.27665
58.2253 16.1989 4.50715
55.6674 14.8371 4.07711
60.6181 16.9061 4.76307
56.1249 15.6008 4.37395
56.0526 15.3976 4.2683
55.7296 16.0813 4.65347
55.4063 15.8316 4.54804
55.6697 16.2607 4.82454
59.3744 17.3168 5.08283
57.5886 16.9773 5.09052
56.8904 16.5685 4.90221
59.234 17.2628 5.07328
52.8626 15.8603 4.7961
53.9816 16.2975 5.02867
54.2914 16.2818 4.9413
49.2431 15.1121 4.78844
56.1004 17.5057 5.43819
49.4764 15.1079 4.63507
54.1466 17.2634 5.49808
55.7672 17.6794 5.65593
48.5614 15.6886 5.11515
50.1805 16.0592 5.17412
52.4445 16.8979 5.47288
51.7322 17.0155 5.60484
48.018 15.6732 5.21324
50.7091 16.4253 5.41385
47.3713 15.7346 5.38382
51.6584 17.2394 5.84553
52.3867 17.4559 5.83819
48.8082 16.5977 5.71579
49.5938 17.0201 5.90577
51.26 17.6353 6.04946
48.5585 16.7017 5.85507
48.8036 16.8707 5.93877
48.2447 16.5921 5.86344
47.4059 16.7184 6.02361
51.1354 18.034 6.46112
46.2243 16.688 6.12454
50.4381 18.1998 6.53733
46.0035 17.0903 6.42097
47.2516 17.3904 6.53675
50.0286 18.1899 6.66842
47.1207 17.4284 6.55097
51.3381 18.8308 7.01943
48.1301 18.2517 6.91296
49.5532 18.8867 7.30123
47.9217 18.0493 6.89039
45.5327 17.4974 6.87783
49.8861 18.864 7.20498
46.6547 18.4414 7.28032
43.1009 17.0728 6.73504
44.0338 17.5884 7.17202
43.6825 17.0256 6.8146
47.1293 18.6933 7.41683
47.458 18.9772 7.67696
43.8477 17.9084 7.32974
43.9749 18.1615 7.61924
43.9069 17.6737 7.37929
43.605 17.9383 7.44299
44.2909 18.4807 7.75851
42.3699 17.4737 7.35692
42.3091 18.1212 7.75524
44.4856 18.3155 7.70202
45.5456 19.2611 8.30581
44.6481 18.9371 8.10131
44.4128 19.4159 8.4904
43.9961 19.2616 8.43083
45.9681 20.0335 8.75217
44.4404 19.4463 8.57335
42.119 18.4621 8.25023
40.8017 18.3155 8.33441
42.1199 18.8648 8.51882
42.695 19.1789 8.63594
40.1681 18.1827 8.38366
38.241 17.3366 8.00051
38.6003 18.0039 8.36686
42.1144 19.7341 9.09699
37.268 17.5127 8.39387
39.207 18.4449 8.84882
41.686 19.2986 9.02908
38.7784 18.3412 8.79919
38.8536 18.5539 8.84994
38.8493 18.7396 9.15928
40.3126 18.9432 8.92576
39.7984 19.5343 9.48665
40.1866 19.6342 9.74245
37.2602 17.7545 8.60558
41.3703 20.3447 9.97871
38.6093 19.0779 9.56865
36.7294 18.229 9.27639
38.0438 18.5252 9.26592
37.157 19.0009 9.78012
37.2438 18.8911 9.59388
35.5544 18.5123 9.63469
36.6412 18.6048 9.56603
37.7712 19.841 10.4191
35.9152 18.3984 9.65456
36.9326 19.0052 9.92097
35.9588 18.8807 10.0342
36.9406 19.2857 10.2622
36.3114 19.3818 10.2321
34.6752 19.0023 10.4821
35.4381 18.7368 10.2008
37.3051 20.293 11.0747
34.6072 18.4613 10.0025
34.3256 19.0255 10.6089
33.8736 18.633 10.4319
33.5744 18.2359 10.0794
34.7509 19.4446 11.1018
36.6607 19.3644 10.4488
40.1142 22.7679 12.6494
32.7568 18.5357 10.5645
34.8419 19.5599 11.0682
33.4416 18.5808 10.5217
36.5716 21.4113 12.6365
34.4636 19.529 11.3565
32.5562 18.8475 10.8878
34.8025 20.1751 11.6204
32.5832 19.1569 11.4379
32.9855 19.1578 11.4138
34.381 19.9851 11.8462
35.2588 21.7138 13.1709
34.0934 19.659 11.5521
36.8856 22.0007 13.0164
30.5201 18.3124 11.1608
33.5012 20.485 12.584
34.785 21.3073 13.0427
32.2759 19.9416 12.3907
31.3312 19.4885 12.2811
30.086 18.1998 11.3114
30.9247 19.0176 11.9893
31.748 19.8969 12.7003
34.8649 21.2569 12.983
28.4422 18.2104 11.8856
32.922 20.0178 12.3537
30.6356 19.6708 12.5469
26.9403 17.4158 11.4639
29.6311 18.98 12.335
31.0112 19.803 12.7486
28.8426 18.82 12.4624
33.4982 21.5905 13.7813
28.9769 19.9767 13.658
32.0178 20.7635 13.6034
30.6669 20.4375 13.6716
30.0694 20.0059 13.5876
27.411 18.1382 12.1796
28.214 19.1725 13.2177
30.6608 20.8523 14.3152
29.0144 19.1085 12.9305
31.2611 21.8118 15.2656
32.0039 21.5908 14.7351
30.1219 20.7609 14.6249
31.552 21.09 14.1286
28.1597 20.1051 14.4814
29.4071 20.2209 14.0634
28.8192 20.404 14.5131
28.339 19.8596 14.2432
28.2223 19.7049 13.8279
26.0651 18.8639 13.7738
27.7936 19.4827 13.9469
27.1576 20.2135 15.032
27.1084 19.2498 14.203
28.9026 20.4964 14.6841
26.3579 19.6689 14.8739
29.5884 21.5707 15.5401
26.8622 20.0382 14.8078
25.2675 18.8839 14.4241
26.111 19.2931 14.644
27.876 20.4636 15.1664
27.7643 20.6396 15.5032
30.2108 22.5662 16.6396
25.9956 20.0101 15.6054
27.0384 20.5697 15.8162
27.1999 20.7393 16.014
25.3156 19.3373 15.1185
25.6491 19.4653 15.0421
25.9459 20.1505 15.8743
24.8161 18.9434 14.8369
25.997 20.041 15.4755
23.0997 18.0157 14.3595
23.4275 18.1943 14.2195
25.0587 19.9426 15.5587
24.3387 20.1072 16.6322
26.026 20.1202 15.8754
24.4954 19.7386 16.2883
27.185 21.2443 16.7806
23.1199 19.2264 16.1691
26.6308 21.066 16.9545
23.6753 19.4021 16.1747
23.4471 19.0412 15.8695
26.8711 21.8695 17.8395
24.3502 20.2012 16.8519
24.8872 20.84 17.8185
24.3794 19.7646 16.3771
23.203 18.9576 15.8975
24.6383 20.9679 17.9205
26.4052 22.139 18.5929
23.0782 19.2472 16.5998
24.2057 20.4202 17.5255
23.9534 20.4756 18.0097
25.8175 21.5197 17.8959
24.374 20.6616 17.6063
22.7781 19.4983 16.594
21.2829 18.8483 16.7373
23.9119 21.2023 18.9157
23.5875 20.3992 17.6044
23.3376 21.0334 18.5206
22.3967 19.6767 17.6903
21.945 19.4708 17.6478
22.786 20.4092 18.4142
24.7584 22.0499 19.7761
23.2871 20.5987 18.2479
21.9147 19.8014 18.1376
23.714 21.7025 19.7689
22.3694 19.9148 18.1226
23.7125 21.4399 19.219
23.292 21.5312 19.6793
21.2255 20.29 19.2764
22.7267 20.1007 18.5883
21.6625 20.072 18.9329
22.6761 20.5886 18.8198
22.1493 20.7993 19.9807
22.555 20.7708 19.4811
22.2474 20.4787 19.1103
22.0893 21.16 19.8646
21.3753 20.5322 20.1531
21.4204 20.1066 19.0972
21.0416 19.9658 19.202
21.8665 21.2997 20.4769
21.3009 20.6837 20.1835
21.0637 20.239 19.9345
20.9658 20.0312 19.586
21.079 20.2185 19.957
21.5103 20.5564 19.6754
19.5053 19.2166 19.4937
21.174 20.6129 19.9415
20.1456 19.783 19.3784
18.9255 19.2862 19.8825
20.5519 20.4237 20.6649
20.2061 20.024 20.2798
21.2591 21.1517 21.0892
19.7134 19.8804 20.1869
18.6458 19.2982 20.1825
19.6249 19.9907 20.6707
19.6494 19.5485 19.6855
19.5479 20.2143 20.7653
18.4799 18.8967 19.7249
19.7022 20.0766 20.9971
20.5634 21.2334 21.6682
19.7298 20.6065 22.1712
20.3176 20.5981 20.86
19.1765 20.2113 21.1526
18.4682 19.6712 21.2318
20.1766 20.7577 21.3348
16.9045 17.8154 19.3198
18.2516 19.4341 20.9753
19.3048 20.777 22.4154
18.8608 20.1439 22.2371
19.8982 20.4445 21.1956
17.8419 19.2503 20.8435
17.5187 18.7172 20.2366
18.7305 20.5103 22.1742
17.8125 19.8213 22.2107
18.3321 19.7885 21.4255
17.4816 19.6463 22.4167
18.3656 20.1259 22.5065
18.866 20.2286 21.7478
18.2543 20.9963 23.904
17.6624 19.4529 22.1359
18.241 20.1442 22.6087
18.009 20.4123 23.2111
18.5303 20.5155 22.935
17.3402 19.6746 22.6424
17.503 20.0244 23.023
17.9706 19.1568 20.9023
17.0357 20.3724 24.239
17.4708 19.0269 21.4399
17.6665 20.7912 24.5516
17.7627 20.1034 23.2583
17.9153 20.3747 23.7231
17.323 19.9504 23.3883
17.6347 19.7554 22.4115
17.4427 20.2227 23.9164
17.4774 19.8194 22.7958
17.0361 20.0215 23.2386
16.7203 19.8647 23.6594
16.2597 19.4079 23.4394
16.4569 19.5677 23.4718
16.847 19.5851 23.3974
16.8554 20.1371 23.736
15.19 18.0606 22.2435
16.6557 20.3247 24.7975
16.3238 18.9085 22.3536
14.7446 18.1111 22.7242
16.6117 20.2798 25.2661
16.5911 19.3766 23.2263
16.6797 21.1761 26.3545
15.998 18.6716 22.9656
15.6192 18.6318 22.5992
15.2135 18.7027 23.0942
16.5502 20.6876 25.3398
15.1223 19.2278 24.7395
14.7121 18.3556 23.992
16.3301 19.3175 23.3956
14.7699 18.5547 23.7811
15.812 19.9373 25.3043
16.1271 19.7212 24.3747
14.7396 19.1863 25.212
15.7446 19.9204 25.4968
14.9192 18.3297 23.5178
14.6864 18.5762 23.9561
15.537 19.8002 25.0968
14.9902 19.34 24.9213
14.1189 18.1743 23.4922
15.0534 19.8807 26.7006
15.1214 18.8332 23.7003
14.988 20.0534 26.4056
15.0323 19.4041 25.0767
14.3382 19.0041 25.4473
14.7274 19.6706 26.6297
14.7443 19.0172 25.088
14.8596 20.0023 27.7586
16.4082 20.9769 27.0657
15.345 20.2857 27.0113
14.3525 18.9118 25.1963
13.9565 19.3945 27.2287
15.1217 20.0015 27.23
14.9389 19.2994 25.4918
13.8687 18.6734 25.6074
13.9747 18.4811 25.0569
14.4693 20.2294 27.4474
13.8146 18.9151 26.187
13.9 19.0117 26.0315
13.7378 19.2107 26.7307
13.5049 18.8765 27.006
15.1895 20.4227 28.0156
14.44 19.9739 27.5172
14.026 19.3062 27.3213
13.8406 18.5582 25.3617
12.5212 17.7588 25.6108
13.7559 19.3555 27.3139
13.2436 18.3299 25.9005
12.949 18.0118 26.3146
14.7566 20.0975 27.16
13.6897 19.81 28.4229
13.0603 18.5917 26.868
13.3373 18.9744 27.6656
13.7329 19.6817 27.8303
12.9285 18.8383 27.424
12.7183 18.3252 27.5906
14.3349 20.2023 28.3594
13.6252 19.8015 29.4698
13.2766 18.67 27.1504
13.648 19.393 27.5817
12.312 18.0685 26.6312
12.9938 19.212 28.6167
12.9314 18.2431 26.1182
11.8303 17.6243 26.8856
12.0584 17.3178 25.6861
12.4597 18.521 28.0263
12.9879 18.4299 26.2922
11.6261 17.7635 27.9847
13.2503 19.6619 29.7511
13.176 18.639 26.8245
12.5228 19.0231 28.1553
11.7415 18.2612 28.6235
11.8662 17.234 26.5865
12.8271 19.1068 28.8318
12.3333 18.5294 28.1544
12.1234 17.8406 26.5001
11.6312 17.6509 26.9567
11.5583 18.3112 28.9541
12.1954 17.9618 26.6982
11.4693 18.3869 29.1103
11.7818 17.693 27.6356
10.9678 16.4306 25.9302
11.4998 17.8886 28.1271
11.2826 17.4091 27.3559
11.9538 18.916 29.9451
11.7734 18.0832 28.585
11.7739 18.0633 28.7244
12.1637 18.6075 28.5693
10.9344 17.1433 27.684
12.2436 18.6176 27.7686
10.9442 18.6461 30.7802
11.135 17.1125 27.5585
11.6385 18.2989 28.7946
11.1729 17.5675 28.5704
12.177 19.4663 30.6533
10.4228 16.9308 28.8268
11.0522 16.4141 24.9718
10.3605 17.4583 29.3246
11.1599 17.2002 26.56
10.6665 18.5434 31.7959
11.6997 18.0071 29.0579
11.1865 18.3499 29.7818
10.8728 17.9653 30.3701
11.1405 18.0165 29.6786
10.9049 18.3512 31.4138
11.0306 17.0796 27.38
11.3136 19.4443 31.842
10.1311 16.0775 26.6638
9.81499 16.5773 28.511
10.1828 16.927 28.3568
10.8822 17.9846 29.2722
10.2632 17.8174 31.0993
10.003 16.0734 27.2015
10.8001 18.3136 30.9151
10.1 16.6912 28.5319
10.6042 18.1371 31.4203
11.1545 18.6648 31.0017
10.0042 17.1754 30.0916
10.5832 17.6917 30.3689
10.934 18.9212 32.7432
10.7407 17.6502 30.2197
10.4419 17.6834 30.4184
10.4637 18.548 32.6953
10.3177 17.4561 30.382
10.2244 17.1202 28.682
9.77011 16.953 29.4217
9.65694 17.3133 31.0187
9.4477 15.8619 28.5896
10.5305 18.0328 30.5457
10.1034 18.1789 32.024
9.92792 17.3765 30.9046
9.49683 17.1363 31.7474
10.3001 17.7666 31.306
9.96414 17.4988 31.9162
10.3871 17.8268 30.7733
10.0865 18.166 32.6736
10.7457 19.1837 34.2734
9.91635 17.1473 30.0976
9.40191 17.3032 32.4486
10.1854 17.8408 32.1167
10.4566 19.1902 34.5733
9.07718 15.8345 29.808
9.75769 17.4339 31.8019
10.0615 17.848 31.9109
10.0812 18.0581 31.9246
9.6006 17.4193 31.2906
8.93028 16.1206 30.197
9.16113 16.9821 31.6596
9.27303 16.8024 31.3154
8.95857 15.7491 28.6749
9.31283 17.4049 32.0376
9.00173 16.6797 32.1361
9.88175 18.1352 32.9748
9.27777 17.4722 33.1769
9.49401 17.179 32.3956
9.72534 17.6243 31.6471
8.67086 16.5615 32.3385
9.75923 18.3048 33.745
8.66149 16.0541 30.8431
8.62694 15.601 29.7363
8.92258 17.01 32.6224
9.45767 17.6518 32.9442
9.39299 17.5023 32.1093
8.20441 15.8023 31.0826
8.60196 16.5911 32.1758
8.68407 16.504 32.6644
9.21963 17.003 31.6412
8.50339 16.8057 33.2867
8.87832 16.4988 32.4141
8.77523 16.1996 31.0056
8.47935 16.2034 31.9778
8.72009 16.7332 32.6797
8.6097 16.3506 32.1717
9.64175 19.091 36.5235
9.29262 18.0099 34.9865
9.00311 17.5767 34.7353
8.85156 17.113 33.9337
8.65121 16.3947 32.5737
8.78121 16.4426 31.6634
8.23293 16.467 33.0816
8.08215 15.7609 32.1432
8.80293 17.3378 34.4176
8.45515 16.6734 34.0331
8.04767 15.126 31.0972
8.7856 17.066 33.5758
8.98606 17.9419 35.8568
8.35994 15.834 30.8439
7.7188 15.5468 31.7007
8.04377 16.3467 33.7857
8.44256 16.1762 31.4001
8.31074 17.0414 33.5939
7.885 16.204 33.5333
8.1955 16.9937 35.4305
8.22741 16.0057 32.3032
7.70267 15.5185 32.6769
8.24936 16.8094 34.4721
8.07567 16.0467 33.3741
8.11806 16.0478 32.6831
8.05097 16.8339 35.8834
8.43898 16.9007 35.1864
8.79888 17.537 34.4909
7.48446 15.9354 34.4192
7.89062 16.382 35.218
8.50531 17.3797 35.3415
7.5868 15.0169 32.8679
8.84367 18.1504 36.2604
7.81471 15.6161 33.2671
7.92772 15.9742 32.828
7.93236 17.3249 37.0523
7.97882 16.1761 34.2957
7.92707 16.3259 34.1663
7.72071 16.3399 34.5602
7.6944 16.2283 34.8017
8.06519 17.0485 35.8099
7.44946 14.9791 32.6829
8.04772 17.3595 37.2444
8.07497 17.291 38.0827
8.20769 16.6791 36.0612
8.24296 16.6404 33.3191
7.1392 15.415 33.0634
7.58873 16.5961 36.0771
7.65365 15.8084 33.0085
6.87049 15.1629 33.5964
7.45072 16.3475 36.5674
7.87342 16.2133 33.4168
7.07564 15.2389 32.5354
6.7786 15.2898 34.6787
7.47539 16.0308 34.6314
7.25141 15.6332 34.1085
7.15166 15.6562 34.9475
7.57039 15.6479 32.189
6.93342 16.4895 37.5168
7.27045 15.9195 36.2382
7.13096 14.9628 33.3707
7.09688 14.8831 31.954
6.67507 15.3016 35.4093
7.48033 15.6108 32.3879
6.71199 15.529 34.6891
6.95634 15.5493 35.1446
7.0031 16.2468 37.9249
7.46836 15.7727 35.2433
6.96059 15.5135 34.8757
6.9831 15.59 35.7264
6.97636 15.2933 34.4977
7.15166 16.0838 36.5473
7.05586 15.2355 32.6736
6.5419 15.7491 36.6994
6.75618 15.179 35.7835
7.0576 15.8981 36.9329
7.22397 15.902 36.0259
6.78709 14.7958 33.4033
6.94283 16.3416 38.4796
7.83834 17.479 37.9892
6.59604 15.3876 36.5044
6.78815 14.7787 34.7297
6.9701 15.7373 34.6182
6.37039 14.5079 34.0155
6.59751 15.3146 36.6934
7.14328 15.8572 35.6969
6.7392 15.2899 34.4906
6.23723 15.1848 38.1602
7.32598 16.0845 35.4443
6.39774 15.1786 37.5999
6.9725 15.6466 36.0196
6.60146 15.2778 36.173
6.81885 15.0612 33.1588
6.38817 15.442 36.6869
6.24737 14.5218 35.7456
6.65394 14.9111 34.3657
6.39211 15.1469 36.4806
6.7842 15.6825 36.3014
6.46148 14.9485 34.4505
6.07198 15.0655 37.7656
6.36882 14.2798 34.2927
6.36043 15.0034 35.4436
6.26922 14.5628 33.6047
5.97561 14.1369 33.8582
6.19455 15.2277 37.7569
6.4898 14.8755 34.6947
5.98118 14.3312 33.993
6.20311 15.3829 37.1186
6.05801 14.403 36.2959
6.21877 14.3063 34.0409
6.12466 14.9591 36.8869
6.18863 14.3214 34.3463
6.13326 15.5386 38.7768
6.47195 15.4535 37.2329
6.10042 14.9723 37.2997
6.10864 14.1804 34.1228
5.76552 14.2682 35.9641
