# pn-170911/RbIIR-av-Hmas-1280-1959.psd
# Power spectrum* (dif=0,1,2) (really just |FT|^2)
# NOTE: only the first half! (symmetric)
# weeks: 1280-1959
# 75207 clock-days, 6865 excluded
# PSD: 1441
775.61 0.0890257 0.0293799
31481.3 0.656345 0.0351889
134899 2.75584 0.0352561
20137.4 0.677077 0.035151
42745.8 3.15734 0.035742
6647.59 0.582672 0.0353861
5776.91 0.774134 0.0349267
3400.73 0.578565 0.0351171
4128.2 1.0448 0.0355449
2130.87 0.606385 0.0350646
2494.08 0.976812 0.0350478
1522.68 0.661209 0.03508
1778.87 1.00539 0.0357061
1157.04 0.712802 0.0356011
1510.22 1.20214 0.0362347
950.911 0.796906 0.0356499
1298.16 1.36701 0.036733
812.982 0.901757 0.0360365
1137.76 1.54308 0.0372398
723.081 1.0222 0.036267
1023.05 1.73844 0.0387442
649.936 1.14881 0.0374849
947.741 1.97118 0.0400897
606.841 1.30389 0.0385172
857.094 2.13929 0.0411147
570.629 1.47773 0.0396915
825.932 2.43706 0.0427812
541.935 1.66183 0.040774
768.445 2.64725 0.0448999
521.735 1.8659 0.0429063
686.435 2.72183 0.0468717
507.289 2.09563 0.0448672
667.346 3.03466 0.0503536
489.184 2.31331 0.0473033
643.379 3.31012 0.0532315
480.311 2.56279 0.0504773
618.082 3.591 0.0568121
471.03 2.83777 0.0538981
577.392 3.7509 0.0605688
457.72 3.08582 0.05781
555.27 4.00188 0.0655894
446.972 3.34031 0.061844
536.856 4.28297 0.0709419
443.01 3.66538 0.0675417
528.322 4.6411 0.0773559
426.94 3.8751 0.0724274
502.011 4.83583 0.0837578
418.388 4.15516 0.0789881
493.838 5.16459 0.0911718
410.757 4.46178 0.0865964
465.652 5.30964 0.0978275
401.574 4.72299 0.0938397
459.247 5.6815 0.108665
398.998 5.08542 0.102938
444.038 5.93027 0.117407
383.149 5.27667 0.111508
431.322 6.19846 0.127854
376.449 5.56007 0.121406
419.47 6.48433 0.138998
367.295 5.84539 0.131447
401.174 6.62673 0.148155
361.97 6.14636 0.143715
397.398 7.0345 0.163218
348.324 6.32332 0.1544
376.424 7.09016 0.173043
346.529 6.70312 0.169961
370.436 7.43068 0.188142
337.478 6.94391 0.182788
354.048 7.54337 0.199626
330.491 7.2097 0.198005
348.557 7.87274 0.218843
321.663 7.45791 0.211771
342.384 8.2015 0.236014
311.877 7.63117 0.228065
330.597 8.36094 0.252368
299.033 7.74952 0.241888
321.66 8.58258 0.269807
296.072 8.07346 0.260365
314.903 8.86153 0.29085
292.823 8.41931 0.283902
300.513 8.89738 0.305111
281.905 8.52832 0.299137
295.173 9.18661 0.327678
275.194 8.73202 0.318392
285.353 9.32944 0.34528
271.738 9.04902 0.344527
278.556 9.53397 0.36859
264.758 9.25985 0.365248
271.408 9.71851 0.391156
256.963 9.39362 0.387896
265.461 9.96084 0.415544
257.745 9.86509 0.419421
255.823 10.0375 0.436818
239.35 9.5432 0.423007
248.043 10.1336 0.458703
240.727 10.0513 0.462976
298.352 12.8452 0.591987
234.669 10.1634 0.484097
235.61 10.499 0.511049
224.938 10.1627 0.503963
232.919 10.7818 0.543772
225.061 10.6216 0.546069
236.052 11.4074 0.595734
219.226 10.7469 0.571781
221.899 11.1383 0.603007
215.445 10.9813 0.605179
215.113 11.2132 0.629258
205.594 10.8805 0.621737
212.588 11.505 0.665945
205.854 11.3144 0.669702
208.796 11.7124 0.703479
197.491 11.2535 0.687927
200.164 11.658 0.723897
198.571 11.7419 0.740529
204.08 12.3243 0.791348
192.924 11.8055 0.769467
194.519 12.1448 0.803353
181.65 11.5064 0.776629
189.508 12.2669 0.838537
185.299 12.1748 0.846526
189.685 12.6849 0.895376
181.277 12.2344 0.877726
178.658 12.3455 0.898924
177.564 12.4772 0.923158
181.05 12.9015 0.966703
173.36 12.554 0.957581
177.29 13.0759 1.0128
168.765 12.5464 0.982158
169.842 12.9056 1.02964
165.86 12.7865 1.03537
167.12 13.1016 1.07592
165.582 13.2053 1.10088
168.347 13.5914 1.14696
162.128 13.2684 1.13686
160.572 13.3458 1.15931
157.24 13.2818 1.17211
157.451 13.4973 1.20534
155.164 13.4824 1.22377
155.513 13.7102 1.26206
149.444 13.3316 1.24249
154.746 14.094 1.33134
146.991 13.5315 1.30039
146.708 13.6462 1.32526
147.26 13.9541 1.37529
151.063 14.539 1.44978
142.318 13.7978 1.39328
142.332 14.0828 1.44608
141.678 14.1821 1.47406
141.144 14.3455 1.51115
139.388 14.2946 1.52116
141.182 14.7683 1.59641
137.464 14.4854 1.5809
136.421 14.5936 1.61491
134.213 14.5532 1.63289
133.558 14.6616 1.66299
133.651 14.8996 1.71589
135.271 15.2424 1.77155
129.795 14.8051 1.74125
131.326 15.2077 1.81548
127.965 14.9429 1.8026
127.201 15.0753 1.8423
127.448 15.304 1.8976
125.902 15.2675 1.90626
125.371 15.4473 1.95925
125.755 15.661 2.00776
121.94 15.3414 1.98715
121.597 15.5328 2.04029
123.926 15.9906 2.1194
122.412 16.0194 2.15239
119.637 15.73 2.12949
117.644 15.7245 2.16034
116.932 15.7949 2.19088
117.903 16.1497 2.27157
114.403 15.7967 2.24395
114.13 16.0338 2.31084
114.961 16.2813 2.36605
113.604 16.2306 2.37897
111.221 16.1127 2.39745
112.156 16.4354 2.47059
109.893 16.2786 2.4714
110.583 16.5382 2.532
108.962 16.5054 2.56349
108.412 16.5861 2.59807
108.353 16.8376 2.6804
108.609 16.9461 2.70975
107.342 17.0114 2.75981
107.756 17.1429 2.7884
104.373 16.8896 2.79728
105.132 17.1566 2.86662
102.226 16.8467 2.84409
101.377 16.8825 2.88002
102.214 17.384 3.03097
135.147 22.9937 3.94226
100.834 17.243 3.02309
98.5127 17.1608 3.05956
99.0122 17.3857 3.12064
100.22 17.7399 3.21129
98.271 17.5225 3.19032
96.3963 17.5264 3.25049
96.3782 17.5728 3.27732
95.7702 17.6911 3.34104
95.1052 17.7036 3.36866
95.7482 18.0309 3.4646
93.8073 17.8125 3.4562
95.6262 18.346 3.58984
92.8625 17.9512 3.54519
92.9393 18.1785 3.6249
91.3862 18.0266 3.63458
92.0326 18.391 3.74884
91.8346 18.4906 3.80047
91.2812 18.4672 3.80987
88.8807 18.2606 3.8279
89.0398 18.4541 3.89678
88.3912 18.4325 3.92075
87.4131 18.46 3.98282
88.5672 18.9193 4.11094
88.4627 18.963 4.14388
87.2284 18.8291 4.14342
85.8092 18.7857 4.1916
85.0902 18.7948 4.22837
85.3632 19.0596 4.33657
83.9132 18.8179 4.29924
84.6292 19.217 4.44929
83.6199 19.0692 4.42594
83.0111 19.1562 4.50369
82.0056 19.0387 4.50574
82.223 19.3197 4.62825
81.7365 19.316 4.64822
82.1582 19.7222 4.80948
82.5113 19.7818 4.829
80.4533 19.5104 4.8056
79.1445 19.3843 4.82931
78.7988 19.5381 4.92154
79.5203 19.8966 5.06498
79.5664 19.9256 5.07708
77.453 19.66 5.07936
77.8355 19.8623 5.14762
76.1454 19.5956 5.1379
76.2063 19.7982 5.23571
76.9506 20.2612 5.42445
77.8983 20.5024 5.48528
74.8081 19.9247 5.39377
73.5986 19.7591 5.404
73.9734 20.0588 5.53026
73.7428 20.1791 5.61122
74.6454 20.5158 5.72887
74.0982 20.5245 5.77903
73.6726 20.5366 5.82799
72.9617 20.5539 5.88274
72.1341 20.4308 5.8866
71.2814 20.428 5.93842
70.615 20.4191 6.00599
70.8067 20.6209 6.10476
70.8219 20.7069 6.15538
70.0348 20.6233 6.1679
69.3724 20.689 6.27208
69.4165 20.7747 6.31405
68.8858 20.8503 6.41606
68.9117 20.9261 6.45966
68.3329 20.9976 6.55306
68.0435 20.9975 6.58556
67.8021 21.02 6.62128
66.6149 20.8856 6.66729
67.0791 21.2435 6.83712
67.8372 21.5556 6.94679
66.1392 21.1988 6.89876
65.32 21.1053 6.91531
64.7397 21.0963 6.9816
64.8132 21.286 7.10563
64.6864 21.3146 7.14745
65.0217 21.6248 7.3072
64.3733 21.4769 7.2757
63.431 21.4431 7.36142
62.8884 21.3702 7.38229
63.2424 21.5965 7.49261
62.8475 21.6744 7.59425
62.7283 21.7769 7.67261
62.3555 21.7305 7.69931
61.7534 21.7039 7.73676
60.4339 21.4275 7.71936
61.2129 21.8637 7.91123
60.8127 21.8752 8.00391
60.9245 22.0389 8.09533
59.9659 21.8353 8.07395
59.3021 21.776 8.12203
58.9183 21.6905 8.13004
58.3713 21.8079 8.29762
59.2281 22.3211 8.65443
82.4037 30.7972 11.4359
58.7482 22.3072 8.62117
57.5248 21.9917 8.55725
57.3756 22.0738 8.62369
56.9766 22.0455 8.6781
58.0381 22.6281 8.93382
56.4875 22.1775 8.84726
56.0376 22.0994 8.84585
55.7285 22.1447 8.94049
56.2193 22.4533 9.09429
55.6419 22.3766 9.12846
55.0825 22.3885 9.23979
54.9408 22.4126 9.27402
54.5155 22.35 9.30933
54.2617 22.396 9.38081
54.0485 22.4651 9.47637
53.9271 22.5721 9.57871
53.5431 22.564 9.65078
53.6403 22.7053 9.751
52.6236 22.4307 9.70867
52.6162 22.6053 9.85146
52.55 22.7075 9.96463
51.841 22.5258 9.93982
51.7233 22.5546 10.0174
52.3519 22.9755 10.2112
51.1783 22.6883 10.195
51.0214 22.723 10.2827
50.9295 22.7887 10.3555
50.3022 22.6408 10.3577
50.4679 22.8703 10.5081
50.0853 22.8667 10.6121
50.2902 23.04 10.7135
49.5807 22.9119 10.7341
49.542 22.9804 10.8092
49.0156 22.9557 10.9034
49.135 23.1196 11.0221
48.6431 23.0442 11.0679
48.5393 23.075 11.135
47.8779 22.8607 11.105
47.8854 23.0673 11.2649
48.3347 23.4633 11.5305
47.5724 23.1193 11.4057
47.4429 23.2251 11.5274
47.2775 23.3205 11.6576
46.9074 23.1998 11.6441
46.5653 23.1901 11.7237
46.3664 23.209 11.7967
46.0268 23.2286 11.8978
46.3733 23.4995 12.0619
46.1968 23.5359 12.1522
45.0334 23.1088 12.023
45.0083 23.2572 12.2004
45.0017 23.2874 12.2422
45.2437 23.6329 12.5187
44.9437 23.5467 12.5154
44.8477 23.634 12.6149
44.0387 23.3965 12.5884
43.8969 23.4325 12.6776
43.4627 23.3161 12.7009
43.8694 23.6658 12.9286
42.929 23.3088 12.8561
43.3291 23.5761 13.0264
43.0492 23.5695 13.109
42.6163 23.4195 13.0638
42.5402 23.6161 13.3009
42.5809 23.6964 13.3988
42.2596 23.6257 13.3927
42.0718 23.6846 13.5264
42.2359 23.8869 13.6807
41.5369 23.6305 13.6498
41.4142 23.6841 13.7384
41.0168 23.6139 13.8062
41.4622 23.9127 13.973
40.6149 23.5776 13.9012
40.5952 23.7595 14.1073
40.4345 23.7058 14.1053
40.3001 23.787 14.2477
40.174 23.8183 14.3292
39.8715 23.7592 14.3748
39.4289 23.6079 14.3549
39.5623 23.8199 14.5337
39.1774 23.7324 14.5653
38.7745 23.6386 14.6046
39.1498 24.008 14.9049
38.6937 23.8247 14.8867
38.9599 24.0756 15.0794
38.3659 23.8855 15.0881
38.4721 24.0107 15.2055
38.3029 24.0237 15.2857
37.9642 23.936 15.3043
37.1915 23.5981 15.2144
37.5853 23.925 15.4384
37.2223 23.8996 15.5741
37.1251 23.843 15.5799
36.8786 23.9201 15.795
37.0123 24.2718 16.5493
52.0277 33.4695 21.0563
36.3534 24.0323 16.1488
36.5967 24.199 16.2547
36.2023 23.9398 16.0918
36.3443 24.2015 16.3209
35.6189 23.8209 16.1739
35.4544 23.8534 16.2895
35.6961 24.1079 16.5245
35.4331 23.9704 16.4385
35.2687 24.1171 16.6854
34.8399 23.9182 16.681
35.1364 24.1684 16.867
34.7203 24.0031 16.8413
34.5199 24.0041 16.9451
34.3067 23.9142 16.9451
34.3353 24.0848 17.1431
34.2404 24.0797 17.174
33.9707 24.0679 17.2781
33.9412 24.2041 17.4815
33.5396 23.9506 17.3715
33.6247 24.1707 17.6092
33.3275 24.0524 17.6368
33.4574 24.23 17.8007
32.9804 23.9758 17.7075
33.1746 24.2489 17.9711
32.6799 24.0198 17.8986
32.4574 23.9183 17.8875
32.3937 24.0331 18.0823
32.4267 24.159 18.2527
32.251 24.1453 18.35
32.1255 24.1477 18.419
31.9522 24.1527 18.4968
31.875 24.1066 18.4994
31.7588 24.2064 18.696
31.4094 24.0187 18.633
31.2778 24.0652 18.777
31.2917 24.1446 18.9075
31.1381 24.1729 19.0435
31.0945 24.2065 19.1316
31.0948 24.2459 19.1886
30.8165 24.2154 19.2829
30.7375 24.3003 19.4878
30.6983 24.2649 19.45
30.4261 24.2213 19.5015
30.1294 24.106 19.5942
30.3148 24.3326 19.7931
29.933 24.1052 19.7061
29.7474 24.0594 19.7308
29.8323 24.3168 20.0785
29.4127 23.9871 19.8679
29.6461 24.3402 20.2581
29.3017 24.103 20.1434
29.2242 24.1294 20.2197
29.1511 24.2208 20.3758
28.9922 24.2063 20.4919
28.8673 24.2014 20.5504
28.7156 24.1494 20.6118
28.5909 24.1234 20.6569
28.4271 24.1785 20.8275
28.2786 24.0578 20.7913
28.3375 24.3007 21.0727
27.8551 23.9207 20.8648
27.8744 24.0806 21.0814
27.8898 24.1196 21.174
27.6528 24.0179 21.1847
27.6206 24.1877 21.502
27.6685 24.1452 21.3986
27.2198 23.9729 21.4314
27.4899 24.2856 21.7573
27.3152 24.2291 21.8165
26.9934 24.0883 21.8514
27.0308 24.3034 22.407
30.0145 26.6522 23.711
26.9846 24.3681 22.3015
26.8603 24.4118 22.4991
26.6161 24.1567 22.2705
26.6463 24.2637 22.405
26.4303 24.3058 22.6524
26.2798 24.1523 22.5473
26.2104 24.1508 22.5897
26.19 24.3021 22.812
25.8142 24.0381 22.7199
25.7878 24.1095 22.8539
25.5655 24.0067 22.9341
25.6085 24.114 23.074
25.6599 24.1952 23.1457
25.306 23.9828 23.0701
25.2158 24.0868 23.3209
25.0851 23.9618 23.2742
25.1861 24.2136 23.5959
24.8144 23.8634 23.3556
24.8289 24.0509 23.6543
24.8461 24.0593 23.6808
24.7316 24.127 23.887
24.5053 24.1283 24.2442
24.4018 24.2753 25.5555
34.855 33.6323 31.2879
24.2886 24.2041 24.5639
24.2724 24.149 24.4218
24.182 24.1217 24.4377
24.0232 24.0995 24.5333
23.8867 23.9306 24.3972
23.8117 23.9853 24.5359
23.6628 23.9779 24.6569
23.5701 23.8773 24.5983
23.47 23.9265 24.777
23.4003 23.9341 24.8437
23.2851 23.9126 24.938
23.1961 23.9207 25.0285
23.1229 23.8942 25.0587
22.9848 23.862 25.1628
23.077 24.0611 25.4405
23.0332 24.0785 25.5328
22.8019 23.9489 25.545
22.5847 23.7771 25.4465
22.5571 23.7756 25.4467
22.5057 23.8634 25.6588
22.3995 23.8266 25.7564
22.2904 23.8483 25.8525
22.0286 23.6571 25.8021
22.0831 23.7273 25.8976
21.9924 23.7643 26.0765
21.8562 23.652 26.0101
21.8954 23.778 26.2147
21.8549 23.8639 26.411
21.6721 23.751 26.4017
21.4992 23.6109 26.3339
21.5346 23.7666 26.5994
21.3965 23.674 26.6181
21.4864 23.7532 26.6611
21.2285 23.7092 26.8297
21.1336 23.5922 26.7346
21.0073 23.5824 26.8552
20.9015 23.5302 26.9407
20.8653 23.5463 26.9571
20.7601 23.5632 27.1484
20.7232 23.5902 27.2667
20.7346 23.6849 27.4339
20.5972 23.6153 27.4308
20.5048 23.5932 27.4675
20.3469 23.4915 27.5371
20.301 23.5319 27.6885
20.2863 23.5317 27.7514
20.074 23.3693 27.6684
19.9971 23.397 27.8287
19.9862 23.3806 27.7321
19.8168 23.3611 27.942
19.7711 23.3567 28.0441
19.7057 23.3745 28.189
19.6967 23.3356 28.1436
19.6484 23.4683 28.4913
19.6719 23.4888 28.5273
19.5295 23.3914 28.497
19.3241 23.2364 28.3895
19.3427 23.4225 28.7778
19.1938 23.2059 28.5364
19.1667 23.3311 28.8273
19.1778 23.4053 29.0316
18.9384 23.0825 28.6838
18.8872 23.1517 28.7823
18.8642 23.2766 29.1102
18.7889 23.2657 29.243
18.7661 23.2551 29.2221
18.6583 23.1989 29.3589
18.648 23.209 29.3139
18.4391 23.0761 29.382
18.4683 23.1592 29.4415
18.3323 23.1751 29.725
18.1894 23.0059 29.614
18.3763 23.3146 29.9976
18.1389 22.9914 29.6839
17.9896 22.9349 29.7801
17.9966 23.0669 30.0897
18.0472 23.0946 30.0745
18.0899 23.2897 30.4112
18.0203 23.295 30.5207
17.7326 22.8939 30.1145
17.7879 23.1362 30.5913
17.8469 23.22 30.6536
17.6103 23.0391 30.5841
17.503 23.0216 30.7637
17.4933 22.9497 30.648
17.338 22.9242 30.8462
17.4065 23.0352 31.0161
17.3354 22.9456 30.8322
17.1673 22.9013 31.0578
17.2334 23.0461 31.3264
17.1883 23.0295 31.4035
17.1247 22.955 31.3683
17.0409 23.0428 31.7158
17.1737 23.4282 32.5916
17.1023 23.8072 35.7137
24.3675 31.8879 39.7954
17.1605 23.6202 32.8406
16.851 23.1493 32.2868
16.6577 22.9188 32.0888
16.6778 22.944 32.1323
16.5712 22.8506 32.0249
16.3994 22.6661 31.8485
16.265 22.5959 31.8551
16.1955 22.6322 32.1597
16.2776 22.7253 32.2796
16.2193 22.6706 32.2625
16.0815 22.5434 32.162
16.1075 22.6963 32.4832
16.0087 22.5966 32.3809
15.7756 22.3813 32.3331
15.8029 22.4335 32.3816
15.6978 22.3934 32.511
15.739 22.5414 32.8441
15.6732 22.3819 32.5729
15.524 22.2993 32.6387
15.5955 22.4248 32.7727
15.4528 22.3866 32.9443
15.3937 22.3029 32.8811
15.2928 22.2611 33.0339
15.36 22.323 33.0614
15.2499 22.2575 33.0986
15.2066 22.2235 33.0822
15.0749 22.1557 33.1636
15.1937 22.3759 33.5121
15.1286 22.3969 33.6465
14.9719 22.1666 33.422
14.8841 22.126 33.4771
14.7775 21.9266 33.1695
14.6502 21.9498 33.5256
14.7579 22.0523 33.5875
14.7497 22.148 33.7587
14.5851 21.9824 33.7316
14.5944 22.0397 33.8854
14.5434 21.997 33.8318
14.4553 22.01 34.0361
14.3694 21.8746 33.8729
14.2941 21.8445 34.0069
14.348 22.0094 34.2503
14.1515 21.803 34.209
14.1283 21.6559 33.9409
14.0736 21.6858 34.0139
13.9743 21.6521 34.2128
14.0693 21.855 34.6226
14.1572 21.9672 34.5968
13.978 21.8343 34.6419
13.8466 21.6604 34.5299
13.8441 21.7215 34.6357
13.7482 21.6169 34.5963
13.7462 21.7036 34.8482
13.6783 21.6694 34.9194
13.5965 21.5464 34.7989
13.474 21.3406 34.4956
13.4757 21.483 34.8593
13.42 21.4935 35.0671
13.4517 21.4508 34.8313
13.3645 21.5849 35.44
13.3786 21.4435 35.0224
13.2498 21.4606 35.2754
13.1224 21.2701 35.1888
13.1945 21.4018 35.3442
13.2006 21.4999 35.5941
13.1523 21.4979 35.6565
12.9431 21.1753 35.4163
13.0943 21.391 35.5027
12.8883 21.248 35.5806
12.8334 21.2393 35.7814
12.8522 21.215 35.7447
12.8014 21.1489 35.5517
12.6834 21.0667 35.6224
12.6543 21.1168 35.8733
12.66 21.0927 35.8294
12.5208 21.0016 36.0608
12.7182 21.2055 35.9468
12.4856 21.0895 36.2717
12.5022 20.9608 35.9476
12.4242 21.0158 36.1666
12.3801 20.9995 36.284
12.4507 21.2397 36.8112
12.3146 20.8428 36.0795
12.2185 20.8222 36.171
12.1971 20.9194 36.5319
12.226 20.906 36.4151
12.1185 20.8521 36.6321
12.1373 20.9335 36.7563
12.0577 20.7621 36.3645
11.9543 20.851 36.9373
11.9966 20.7993 36.7835
11.8472 20.6883 36.9145
11.9105 20.8386 37.1714
11.7577 20.655 37.4168
11.724 21.3081 43.2214
17.5563 29.3513 45.6166
11.7836 20.9768 37.6454
11.4713 20.4448 37.0545
11.568 20.5308 37.153
11.553 20.5185 37.1767
11.5416 20.4695 37.0027
11.4699 20.5224 37.2797
11.3521 20.3088 37.181
11.4089 20.4289 37.254
11.3307 20.293 37.1143
11.364 20.4718 37.4868
11.2759 20.3464 37.4747
11.3155 20.4074 37.4614
11.2178 20.3434 37.5118
11.1192 20.229 37.5122
11.1007 20.1931 37.5523
11.0415 20.0602 37.2436
10.9913 20.164 37.7639
11.1273 20.3589 37.854
10.9456 20.0975 37.6866
10.9075 20.1106 37.756
10.864 20.0431 37.7444
10.8115 20.0177 37.8323
10.8375 20.0877 38.0726
10.8521 20.0428 37.7786
10.648 19.8632 37.8
10.6862 19.9572 38.0045
10.6728 20 38.3515
10.722 19.9941 38.039
10.5617 19.9339 38.494
10.7143 20.0779 38.4347
10.5788 19.8911 38.077
10.4891 19.9269 38.5057
10.5079 19.9503 38.5839
10.4444 19.8729 38.621
10.417 19.7532 38.2848
10.3565 19.7543 38.4032
10.2692 19.6289 38.3584
10.2502 19.6027 38.3908
10.3088 19.8873 39.1006
10.2729 19.6193 38.25
10.0806 19.5177 38.5443
10.0926 19.4941 38.5931
10.1657 19.5737 38.4911
10.02 19.4658 38.4821
9.92203 19.3579 38.4866
9.86586 19.263 38.5489
9.9689 19.5971 39.7489
10.4178 20.0791 39.1968
9.7951 19.2704 38.6303
9.82791 19.4002 38.9546
9.80298 19.2791 38.7223
9.72785 19.222 38.7762
9.72831 19.2667 38.9415
9.78 19.4889 39.4666
9.7317 19.3173 39.145
9.63285 19.2018 39.254
9.66487 19.25 39.0858
9.59005 19.252 39.4471
9.57665 19.1191 39.0505
9.49591 19.1034 39.196
9.46091 19.1154 39.4816
9.49854 19.1233 39.3866
9.41348 18.912 39.0469
9.45009 19.1769 39.5346
9.37982 19.1137 39.6557
9.36596 19.0935 39.7932
9.29915 18.8832 39.4071
9.33513 19.0332 39.5791
9.17993 18.7745 39.3749
9.20753 18.8118 39.3052
9.14094 18.8125 39.5498
9.20146 18.9604 39.7317
9.08996 18.7769 39.5706
9.05453 18.7105 39.5775
9.12887 18.9428 39.9065
8.98877 18.7102 39.8303
8.97842 18.7067 39.9035
9.0177 18.7856 39.9696
8.9286 18.628 39.8605
8.94896 18.7468 40.0559
8.90678 18.5946 39.7489
8.81912 18.5218 39.8076
8.83517 18.5843 39.9085
8.79416 18.5849 40.0898
8.80999 18.6486 40.1683
8.68843 18.4397 40.0947
8.72375 18.4572 39.9323
8.65024 18.4306 40.0513
8.62844 18.4223 40.0708
8.60909 18.3967 40.2615
8.63089 18.4689 40.1506
8.48238 18.299 40.4355
8.54648 18.3701 40.4573
8.45315 18.3269 40.8114
8.38975 19.0975 49.8028
12.7883 25.7441 47.6134
8.42621 18.568 41.1598
8.41018 18.3226 40.5449
8.31947 18.1468 40.3487
8.29073 18.118 40.4628
8.34431 18.2332 40.6744
8.30684 18.1036 40.3569
8.21799 18.0063 40.3942
8.23113 18.0186 40.249
8.16118 17.9438 40.3484
8.18978 18.0812 40.5733
8.11516 17.8925 40.3838
8.06257 17.837 40.4706
8.08571 17.8331 40.4398
8.07866 17.9402 40.5972
8.02258 17.8087 40.4895
7.99153 17.7974 40.5634
7.95831 17.6984 40.4854
7.99861 17.847 40.6263
7.92769 17.7829 40.7458
7.90138 17.6752 40.5602
7.8796 17.6989 40.6954
7.83987 17.6266 40.305
7.71453 17.4403 40.3642
7.76464 17.6186 40.7389
7.72762 17.4757 40.4557
7.69103 17.4535 40.643
7.73742 17.6207 41.0574
7.7438 17.5655 40.8146
7.66258 17.4304 40.7682
7.68766 17.5213 40.7674
7.60901 17.4601 40.986
7.60375 17.3666 40.7219
7.59686 17.4418 40.8989
7.52927 17.3599 41.0311
7.55326 17.274 40.5549
7.44809 17.2395 40.767
7.50912 17.3802 40.9677
7.39774 17.153 40.7449
7.38923 17.1325 40.91
7.43512 17.2086 40.9203
7.38932 17.2076 40.9414
7.2925 16.9926 40.796
7.33447 17.0877 40.9375
7.3253 17.1263 41.0076
7.29763 17.0595 40.8551
7.26104 17.0706 41.06
7.25135 17.1276 41.2255
7.20708 17.0157 41.3121
7.25008 17.0368 41.0265
7.18136 16.9494 40.9048
7.1438 17.0083 41.2972
7.10558 16.8709 41.1654
7.09825 16.8144 41.0609
7.10582 16.9028 41.231
7.1085 16.9811 41.4055
7.01978 16.7053 40.9524
7.03457 16.819 41.2254
7.01201 16.8015 41.199
6.9792 16.8061 41.4258
6.99265 16.7934 41.2528
6.91592 16.6737 41.301
