# pn-170911/RbIIR-47-RbIIR-1280-1959.psd
# Power spectrum* (dif=0,1,2) (really just |FT|^2)
# NOTE: only the first half! (symmetric)
# weeks: 1280-1959
# 4522 clock-days, 216 excluded
# PSD: 1441
293.179 0.144131 0.0477747
83931.5 2.0562 0.0460731
224810 4.14498 0.0467754
60153.5 1.91344 0.0468845
53836 3.55533 0.0465171
17389.3 1.45992 0.048379
13647 1.63463 0.046916
8806.56 1.32396 0.0452875
7749.16 1.70062 0.0464619
5240.16 1.3587 0.0475177
4353.08 1.35594 0.0461188
3630.14 1.40675 0.0472045
3168.07 1.50742 0.0501838
2736.76 1.51574 0.0462454
2441.72 1.61148 0.0480618
2200.2 1.66182 0.04805
1990.8 1.76686 0.0494517
1857.39 1.8821 0.0493142
1749.02 2.047 0.0492504
1648.54 2.12935 0.0512557
1566.38 2.34538 0.051884
1494.58 2.45424 0.0509854
1459.14 2.70507 0.0536249
1430.71 2.89775 0.0528677
1381.35 3.1309 0.0535093
1337.57 3.30413 0.0572659
1348.85 3.66489 0.0597544
1306.43 3.83851 0.059486
1351.28 4.33264 0.0628518
1261.64 4.46779 0.0638661
1277.62 4.84182 0.0661943
1289.98 5.21454 0.0711191
1236 5.40643 0.0738053
1250.43 5.78285 0.0783407
1265.65 6.2512 0.0824283
1231.46 6.45202 0.0864418
1190.93 6.70452 0.0883367
1269.84 7.59983 0.0962841
1269.69 8.00351 0.102862
1237.26 8.25399 0.106524
1244.22 8.73266 0.11207
1207.2 8.96734 0.117716
1196.86 9.37807 0.12647
1235.44 10.2038 0.132795
1253.77 10.8558 0.14739
1189.6 10.7792 0.14724
1146.07 10.9782 0.156261
1157.51 11.5058 0.166777
1232.58 12.768 0.18672
1184.99 12.9024 0.193975
1125.06 12.626 0.196324
1134.29 13.397 0.208498
1129.77 13.9159 0.228073
1153.78 14.6839 0.238803
1163.34 15.3377 0.26197
1091.31 15.121 0.263498
1126.84 16.0476 0.28502
1069.71 15.6979 0.294172
1100.32 17.0031 0.32015
1054.6 16.7402 0.327398
1037.49 17.0209 0.335349
1037.66 17.7121 0.35433
1038.23 18.3159 0.378039
986.922 17.9952 0.387212
1041.12 19.6827 0.426817
1016.67 19.6458 0.440429
982.963 19.6622 0.458051
977.794 20.1208 0.475636
911.189 19.3097 0.468227
936.584 20.4265 0.505314
900.919 20.1971 0.517417
881.747 20.4357 0.5336
925.449 22.2445 0.590012
892.601 21.6355 0.591496
869.834 21.8156 0.613298
814.548 21.1199 0.610693
840.071 22.2877 0.658985
816.562 22.316 0.667321
835.254 23.3608 0.723466
793.084 22.79 0.718866
791.977 23.4355 0.766638
766.347 23.1361 0.76275
768.662 23.7543 0.801197
736.565 23.3392 0.810539
751.42 24.5705 0.868659
745.76 24.7003 0.894229
710.469 24.2638 0.896989
700.571 24.3594 0.920938
698.108 24.8067 0.956196
681.564 24.7796 0.975407
673.852 25.1434 1.00337
685.685 26.1363 1.0718
648.373 25.1703 1.05331
619.523 24.5659 1.04761
623.225 25.2235 1.10615
630.469 26.2258 1.16523
709.742 30.3762 1.36901
626.753 27.1065 1.24956
596.455 26.4875 1.24891
586.634 26.424 1.27747
592.508 27.3539 1.33738
571.27 26.6747 1.33508
592.492 28.378 1.44724
538.18 26.4567 1.37071
556.007 27.5084 1.45046
550.845 27.9664 1.50536
523.029 27.1033 1.49125
508.892 26.924 1.51302
517.417 28.0465 1.58805
511.781 27.9495 1.62194
497.446 27.6607 1.62257
482.124 27.1193 1.62224
476.203 27.4564 1.68098
483.096 28.4523 1.7646
477.012 28.4775 1.80093
466.968 28.4769 1.82832
455.727 28.3241 1.84185
432.975 27.235 1.80423
436.358 28.0795 1.88862
450.031 29.437 2.01402
451.28 29.7944 2.07295
435.123 29.2544 2.05452
418.073 28.7292 2.06049
421.672 29.6378 2.16627
411.554 29.2081 2.15493
411.946 29.6124 2.22249
396.203 28.9255 2.22084
390.389 28.8165 2.2452
385.303 28.9923 2.28028
379.426 29.04 2.33846
366.877 28.6075 2.3094
379.832 30.1047 2.48546
366.891 29.3301 2.46588
368.836 29.8865 2.53642
356.979 29.2706 2.50217
363.97 30.7245 2.67786
355.667 30.3387 2.68447
341.557 29.5855 2.66065
345.593 30.1502 2.7536
341.86 30.0497 2.77568
333.594 30.0833 2.82603
323.61 29.6758 2.82685
317.734 29.1746 2.80454
329.536 30.9975 3.03042
324.93 30.9775 3.07067
318.541 30.543 3.0543
313.283 30.6026 3.12134
304.33 30.0911 3.10383
293.972 29.6225 3.09225
304.25 31.2111 3.3045
298.243 30.7544 3.30867
291.99 30.627 3.32672
280.097 29.688 3.25531
289.39 31.2574 3.50258
278.306 30.2642 3.43646
290.102 31.9739 3.65318
288.427 32.183 3.7373
277.131 31.2558 3.65356
269.389 31.2154 3.71829
278.782 32.5601 3.92721
263.706 31.1294 3.79584
260.051 30.9467 3.82226
257.938 30.7833 3.81984
268.535 32.8581 4.15939
263.747 32.6501 4.15622
255.266 32.1449 4.17581
247.914 31.4912 4.11037
257.864 33.1375 4.39083
250.114 32.4426 4.37463
248.287 32.265 4.3423
245.343 32.4901 4.44999
242.316 32.5142 4.5102
244.381 33.3038 4.68386
237.354 32.5049 4.61594
231.068 32.0077 4.60304
237.294 33.3431 4.83312
235.146 33.4105 4.88351
229.449 32.9904 4.90835
227.218 32.9871 4.93047
224.833 33.1938 5.04887
222.964 32.7892 5.01146
219.341 32.8792 5.07901
218.733 33.2581 5.18625
221.765 34.3695 5.4669
214.518 33.0426 5.26521
213.29 33.7596 5.49211
213.133 33.6579 5.44999
210.435 33.7796 5.58239
209.78 33.9544 5.66467
209.116 34.3768 5.79217
205.256 33.9091 5.79868
198.523 33.4086 5.80049
242.421 40.8853 7.05453
205.314 34.6959 6.07079
190.9 32.8952 5.87443
196.982 34.4633 6.19409
193.573 33.8554 6.13882
193.717 34.365 6.24589
187.821 34.0196 6.30191
190.604 34.2978 6.3777
188.709 34.7104 6.55518
189.034 34.889 6.62599
189.965 35.4502 6.82082
183.818 34.586 6.69717
187.545 35.7353 6.997
185.166 35.4871 7.0145
187.269 36.3609 7.25831
179.096 34.9853 7.03447
175.6 34.7783 7.06378
175.556 35.2584 7.28556
178.453 35.7709 7.36794
175.058 35.5349 7.42254
175.148 36.1436 7.64536
174.366 36.0308 7.64843
173.707 36.4168 7.85643
172.434 36.7316 7.97823
167.132 35.3985 7.71329
169.041 36.424 8.06212
165.753 35.6361 7.9028
164.916 36.1226 8.10157
161.887 35.6896 8.13232
159.832 35.9338 8.22102
160.836 36.0221 8.35808
158.193 35.7607 8.31157
160.409 36.668 8.61274
159.143 36.3344 8.55656
159.444 36.973 8.86796
155.657 36.4476 8.79952
158.568 37.6216 9.13081
160.479 37.7783 9.15021
155.379 37.7066 9.34622
157.018 38.1364 9.53285
155.013 37.7991 9.47086
154.392 38.3814 9.82956
152.429 37.9005 9.67368
150.539 37.7226 9.70645
147.224 37.2518 9.62876
146.886 37.5099 9.80875
140.339 36.4004 9.62453
149.171 39.3422 10.5898
148.624 38.9811 10.442
141.8 37.405 10.157
138.768 36.8631 10.0729
144.232 38.2928 10.4472
144.142 39.3629 10.9477
139.448 38.2205 10.7438
141.976 39.0375 10.9515
135.664 37.6938 10.7416
141.455 39.5334 11.3032
135.131 37.8591 10.9593
131.898 37.6902 11.0514
134.505 38.3763 11.2712
131.235 37.7888 11.1786
134.847 38.9317 11.5471
133.777 39.1387 11.6971
135.156 40.0368 12.1005
132.443 39.1948 11.9206
132.293 39.5439 12.0964
130.9 39.5649 12.1642
126.586 38.898 12.2156
130.994 40.024 12.5988
129.324 39.6668 12.4669
128.982 40.124 12.8014
125.28 39.3673 12.6709
128.482 40.4826 13.0561
123.198 39.2232 12.7766
121.649 38.996 12.8446
124.46 40.4589 13.4381
122.47 39.6972 13.2009
120.589 39.2892 13.1626
120.051 39.8573 13.4574
119.821 39.5497 13.3405
118.793 40.036 13.8118
119.19 40.1543 13.8995
120.951 40.8964 14.1359
117.105 40.2271 14.1738
117.677 40.7272 14.3809
117.576 40.4547 14.281
115.864 40.3362 14.3895
114.775 40.1993 14.4146
114.742 40.6443 14.6257
111.659 39.8765 14.6032
112.94 40.9117 15.0895
110.982 40.0837 14.8059
109.073 39.7062 14.868
111.288 40.3709 15.0702
110.363 40.7098 15.3992
109.667 41.0576 15.856
135.6 50.3094 18.8434
109.46 40.7791 15.7477
107.372 40.3903 15.6268
106.95 41.1124 16.0642
106.75 40.7579 16.0548
105.612 41.0579 16.2318
106.42 41.4025 16.4653
103.617 40.5728 16.3014
105.065 41.2685 16.4947
104.356 41.5607 16.7764
100.718 40.3157 16.5597
102.575 41.3341 17.0138
100.935 41.1578 17.1148
104.221 42.6894 17.7186
102.387 42.0153 17.589
101.147 41.6773 17.5768
100.918 42.1313 17.9558
97.6444 40.9373 17.6008
98.5229 40.9941 17.4805
96.9728 41.2903 17.9565
96.9402 41.3372 18.0597
96.4653 41.1386 18.0633
98.0662 42.2402 18.6237
97.6749 41.8862 18.4494
96.9359 42.6351 19.1066
94.4332 41.2869 18.5075
96.7948 42.6505 19.2036
96.4278 42.9294 19.595
93.3135 41.249 18.8336
93.7161 42.2129 19.3227
95.2355 43.4764 20.3089
93.0188 41.8656 19.3097
91.8999 42.0661 19.6713
91.5222 42.4598 20.0627
91.1014 42.8702 20.503
92.1975 42.7014 20.3087
90.7717 42.2641 20.2165
89.832 42.5179 20.5839
91.0187 42.9051 20.661
89.5415 43.2795 21.3192
92.524 44.2907 21.6969
89.2233 43.0446 21.2371
89.044 43.3273 21.527
87.0072 42.5983 21.4025
87.7162 42.9932 21.4607
86.0604 42.7026 21.5867
84.8622 42.3429 21.6919
85.5042 42.7334 21.8659
85.4237 43.1027 22.1032
84.4682 42.8149 22.1461
83.7703 42.7119 22.2624
84.3561 42.9698 22.3597
84.4884 43.7232 23.0537
83.5768 43.3859 23.1058
84.4697 43.9175 23.2045
84.2772 44.0764 23.5005
80.4578 42.4083 22.8682
81.1369 42.9094 23.2585
81.23 43.0839 23.4272
81.3999 43.6344 23.8194
78.0707 42.4067 23.5687
78.7847 42.5905 23.6411
77.5988 41.7167 23.0555
79.5547 43.2984 24.1181
78.1188 42.9488 24.2086
80.8093 44.3772 25.0506
78.2497 43.1486 24.1292
75.3693 42.011 23.9589
75.2515 42.6249 24.5887
77.2231 43.9474 25.3913
75.4718 42.9055 24.9751
74.938 43.4687 25.5828
75.7699 43.6056 25.6094
74.5832 42.6147 25.0959
76.3954 44.3758 26.317
75.0228 43.2059 25.5996
74.0299 43.6523 26.2697
73.8249 42.9521 25.6821
74.8594 44.4608 26.8026
72.4247 43.2251 26.4133
71.0985 42.3902 25.8822
72.2099 43.372 26.691
71.6396 43.4612 26.7955
70.3848 43.2328 27.1764
71.6629 43.2268 26.5979
69.7707 43.2262 27.2058
71.0996 43.8712 27.6196
70.8955 44.2417 28.1392
71.521 44.3762 28.0641
69.3388 43.9246 28.2097
68.4432 42.9312 27.7046
69.3667 43.6712 27.949
68.0573 43.623 28.4466
66.5398 42.1651 27.5516
67.1454 43.8131 29.0407
70.04 45.0702 30.0323
82.5727 53.0584 34.1534
67.0319 43.8274 29.2701
67.3538 43.9748 29.4206
67.0246 44.0323 29.5586
69.1144 45.5714 30.4797
63.2282 42.2858 29.0703
67.0336 44.2176 29.8213
65.0037 44.1512 30.5081
63.6061 42.8881 29.7463
63.0559 42.5324 29.3036
63.1809 42.9921 29.9637
64.8506 44.145 30.5076
64.2699 44.7215 31.5405
63.1881 43.9386 31.0728
62.3604 43.0368 30.6854
61.8924 43.0324 30.5829
64.5353 45.0436 32.0292
62.3165 44.3674 32.0301
62.8729 43.8437 31.4251
60.2616 43.0268 31.287
60.8686 43.6196 31.9362
60.2834 43.1117 31.5039
59.0384 42.6847 31.6334
61.1299 43.6871 32.0365
60.3389 44.0565 32.8216
59.374 43.0686 31.7573
57.75 42.6406 32.3021
59.1576 42.9577 32.0493
58.383 43.633 33.1292
59.2166 43.6303 33.053
59.2098 44.1507 33.4706
55.8402 42.255 32.6081
57.2702 42.8884 32.9405
57.64 43.6165 33.7579
57.2573 43.3829 33.4914
56.9377 43.5168 34.104
57.2972 43.5698 34.0493
56.5084 43.8006 34.6195
55.8373 43.0981 34.0507
55.9498 43.3394 34.3959
55.3624 42.987 34.0938
55.8518 43.4956 34.6135
54.4209 42.6721 34.2901
55.5862 44.0386 35.6685
55.1433 43.5748 35.3282
54.2972 43.1397 34.9811
54.5065 43.643 35.6019
54.5976 43.8753 36.0299
54.0821 43.7065 36.1294
53.7505 43.6699 36.2552
53.4672 43.1255 35.617
52.2543 43.0783 35.9447
52.327 43.1954 36.5182
52.6616 43.6896 36.823
51.1563 42.1222 35.6272
53.4234 44.8079 38.0622
51.7584 43.1175 37.0002
52.9495 43.9224 37.3152
51.4237 43.3465 37.3062
50.1814 42.7417 37.3244
51.4782 43.8382 37.904
51.1542 44.0057 38.5836
51.5745 44.152 38.7283
50.5643 43.5988 38.5164
49.8518 42.6813 37.8103
51.3771 44.1641 38.6154
49.7198 43.7351 39.2776
49.6547 43.0608 38.1288
50.0543 44.0473 39.4248
49.086 42.6644 38.2732
48.9717 43.5722 39.2953
47.531 42.5604 38.7645
47.012 41.7912 38.21
48.1196 42.5911 38.7647
48.6113 44.2242 40.9414
49.993 44.7626 40.7912
48.7714 44.5645 41.4996
48.8714 44.3195 41.0498
47.4974 43.4756 40.7268
47.5578 43.5117 40.611
45.9847 42.4947 40.2682
48.1446 44.2599 41.256
45.7455 42.76 40.9128
46.6302 43.3916 41.5134
47.5518 44.0521 42.0867
47.5466 44.6557 42.9537
46.0787 43.2976 41.4687
45.2048 43.0822 41.6557
44.9515 42.6425 41.4314
44.5974 42.5551 41.9069
46.2313 43.7032 42.2793
45.6064 43.827 43.0241
45.0623 43.4254 42.8133
44.7757 43.3738 43.0753
45.077 43.9637 43.6303
43.3572 42.3464 43.431
54.2054 52.3052 50.1044
43.8453 43.5768 44.3148
44.8002 43.7656 44.0142
44.3185 43.8818 44.7116
44.6067 44.7646 45.6197
44.3895 43.8724 44.2879
41.9082 42.0306 43.1718
42.1508 42.4351 43.5726
42.1355 42.7684 44.8095
42.8362 42.5511 43.8075
42.6482 43.342 44.6399
41.4637 42.3783 44.151
41.7704 42.8013 44.775
42.2022 43.4389 45.5094
41.5098 42.8698 45.2346
41.8986 43.4983 46.0611
42.2598 43.7301 46.2966
40.6462 42.356 45.5311
40.6485 41.9184 44.6132
41.0352 42.6228 45.1336
40.2672 42.3267 45.6582
40.9408 43.3094 46.7928
40.1934 42.6866 46.5475
40.5614 42.6537 45.8801
40.157 43.0301 46.7745
40.1687 43.4877 47.5758
39.0387 41.6417 45.5008
39.7129 43.5529 48.3797
39.1633 42.3661 46.92
38.6598 42.0484 46.675
39.4423 43.2288 48.4422
38.65 42.491 47.86
38.7566 42.4004 47.9164
39.2347 43.0024 48.2021
38.0128 42.2221 47.8732
37.9996 42.1783 48.0233
38.5045 42.7914 48.2032
38.0712 42.6432 48.9396
37.9232 42.3374 48.508
37.4715 41.8627 48.0338
37.2315 42.0672 48.3168
36.9933 41.9674 48.92
37.51 42.7767 49.5099
37.5405 42.6021 49.0591
36.1453 42.2113 50.3468
36.7275 42.0109 49.2366
36.8567 42.3224 50.122
36.369 41.7888 49.0989
35.4072 41.1388 49.3775
36.8354 42.4807 50.0417
35.2056 41.1369 49.4422
36.1114 42.3953 51.2626
36.4465 42.8564 51.5371
36.2066 42.9668 52.3
35.3402 41.6333 50.4597
35.8269 42.2749 51.0495
35.4551 42.2727 51.7276
35.4281 42.1891 51.3986
35.2117 42.1363 51.7689
35.1743 42.1906 51.625
34.9639 42.3253 52.3907
34.6214 41.8667 51.7887
34.563 42.0296 51.8446
33.975 41.6852 51.9609
33.798 41.6283 52.5041
34.1133 41.3983 51.9724
34.2945 41.976 52.1385
33.1671 41.014 51.6862
32.6044 40.4639 51.9268
33.4869 41.2858 52.0695
33.3575 41.4712 52.8969
34.2157 43.0426 54.6339
32.3456 40.7344 52.4939
32.4428 40.7216 52.6224
33.3157 42.2051 54.6149
32.8077 41.9182 54.8765
32.5952 41.11 53.2031
32.5743 41.81 54.8323
33.4983 43.0997 56.0695
31.4665 40.3637 53.639
33.0873 41.9711 54.5018
31.8098 41.575 55.2139
31.8227 40.7366 53.4787
30.6246 39.992 53.418
31.1756 41.1234 55.2786
32.1497 41.8884 55.9676
31.1253 40.2669 53.7522
31.3198 41.5 56.141
31.5295 41.3122 55.1554
30.399 40.0723 54.3633
31.0572 41.3959 56.3831
30.854 40.6516 55.2627
30.5908 41.2015 56.6531
30.7228 41.0506 56.1557
30.3582 41.1958 57.2444
30.3348 41.8501 60.7459
36.3426 48.2706 63.5508
30.64 41.4658 57.7565
30.5929 41.0815 56.863
30.7167 41.794 57.7061
29.5562 40.5163 56.989
30.1448 41.3115 57.4414
29.0631 40.163 56.8998
29.3191 40.4809 57.5696
28.9748 40.032 57.3154
29.5759 40.3217 56.951
29.5084 41.0572 57.6582
28.8303 40.2328 57.4194
28.9222 40.3341 57.6182
28.2303 39.9553 57.8237
28.7345 40.0871 57.6842
28.5218 40.1644 57.6067
28.0279 40.4272 59.578
28.5934 40.2951 58.3688
27.8056 39.385 57.3498
27.4155 39.3088 58.0763
28.5851 40.7766 59.332
27.988 39.9445 58.5757
28.0512 40.3448 59.0051
26.832 38.6533 56.9547
26.8041 38.9385 57.8396
26.3477 38.1597 57.1851
27.658 40.1729 59.3548
26.785 39.188 59.1843
27.4975 39.9692 59.359
26.7521 39.5699 59.6277
26.4502 39.0907 59.2774
26.8678 39.5207 59.9313
26.7059 39.439 59.8479
26.6838 39.7992 60.7267
26.5429 39.3205 59.9213
26.5917 39.9669 61.0244
26.5483 39.7736 60.8726
25.8229 38.6861 60.3216
26.3604 38.9012 59.3638
26.2466 39.0449 59.6685
25.7521 39.0232 60.2588
25.6849 38.8569 60.2173
25.5271 38.7196 60.2256
25.5872 38.8613 60.2677
24.8907 38.3151 60.9801
25.9832 39.7139 61.4866
25.2988 39.1311 61.9224
25.4165 39.4658 62.2412
25.0465 38.7682 61.6209
25.2506 39.1068 61.7623
24.9771 39.0948 62.4433
24.4267 37.9765 60.9761
24.1032 37.6454 60.78
24.7494 38.8814 62.4874
24.738 38.6388 61.8175
24.5653 39.2085 63.4967
23.7133 37.1654 60.8757
24.8717 39.2662 62.9385
23.9619 38.2497 62.513
24.0784 38.2441 62.2504
24.5813 39.6332 65.3774
24.3679 38.2087 62.1102
24.4166 39.1034 63.0969
23.2667 38.0083 63.9127
23.7149 37.3952 61.2757
23.3875 38.3262 64.2568
23.973 38.3395 62.9976
23.6169 38.5453 63.5513
22.8438 37.229 62.4285
23.0694 37.8403 63.6884
23.2852 37.9092 63.0032
22.823 37.978 65.0299
23.1745 37.4325 62.0488
22.37 37.3008 63.475
22.5106 37.3528 63.7733
22.8811 37.6056 64.0983
23.1869 38.3564 64.5409
22.9858 38.3755 64.1608
22.0782 37.6868 65.4599
22.8643 38.0714 64.9083
22.482 38.3577 66.5242
22.1865 37.0774 63.9411
22.5007 38.1547 65.7054
22.2285 37.9272 66.0322
21.5423 36.2832 63.4719
22.0078 37.872 66.2511
22.0755 37.1968 64.7439
21.9989 37.2891 64.8247
21.3064 36.779 65.3456
21.8319 37.6548 66.2917
21.5374 37.3829 66.9371
22.3882 38.1284 66.4449
21.1878 36.5783 65.0874
21.4668 37.2049 65.7093
21.0991 36.6284 65.7303
20.9492 37.1026 71.051
25.6383 43.1399 71.2527
21.491 37.8861 67.2684
20.5681 36.7457 67.1419
21.2694 37.4686 67.4952
20.6627 36.5863 66.8221
20.6827 36.2469 66.1377
21.1639 37.2716 67.2173
20.6037 36.716 67.1962
20.5734 36.6335 66.8981
20.4806 36.1154 65.7551
20.5984 36.8672 67.4341
21.059 37.8444 69.1637
20.539 36.8103 68.1033
20.5728 36.7104 67.2496
20.1383 36.6944 68.4174
20.1996 36.3277 67.9438
20.2941 36.1847 66.2934
19.6361 35.9537 66.9478
19.778 36.5945 68.9229
19.5549 35.745 68.319
20.323 36.2254 67.0984
19.7304 36.3268 68.2131
19.4526 35.6599 67.4273
19.2814 35.482 67.4125
19.7343 36.2065 68.044
19.6271 36.6742 69.4252
19.4002 35.866 67.8051
19.1253 35.8512 69.2343
19.2843 35.4987 68.0111
19.1198 35.7174 68.8376
19.431 36.2496 69.3246
19.5283 36.7931 70.1908
18.8811 35.2872 68.8416
19.542 36.6983 70.0699
19.1147 36.2813 70.1281
18.6361 35.0222 68.8599
18.4731 34.5766 67.2079
18.7393 35.7574 69.2343
18.5861 35.4341 68.8366
18.0324 35.0564 70.7445
18.8307 35.2721 67.6385
18.2148 35.6785 70.5528
18.0051 34.509 69.5532
18.345 34.2616 67.145
18.1435 34.8138 67.6143
17.7177 34.9521 69.2658
17.7076 34.6889 69.6686
18.2502 36.0518 73.3872
18.9682 36.2361 70.5128
17.3533 33.8295 68.5213
17.8581 35.1053 70.8778
17.8745 34.3982 68.9895
17.8059 34.9165 69.395
17.3484 34.428 70.2363
18.0862 35.6908 71.6716
17.5164 34.8967 71.3503
17.3002 34.101 70.7002
17.7004 34.6722 70.3793
17.6852 35.2106 71.612
17.4291 34.105 68.7445
17.0051 34.589 71.1711
16.9772 34.0912 70.2482
16.8963 34.1663 71.6689
17.194 33.9 70.1071
17.4491 35.3443 73.0019
17.2835 34.4182 70.9587
16.7545 34.276 72.113
17.1579 34.2367 70.7734
16.9476 34.2555 71.0677
16.6542 33.5977 70.6915
16.6153 33.2335 69.0213
16.3088 33.7839 71.2014
16.3831 33.376 70.3245
16.4174 33.654 71.1819
16.9908 34.9405 73.6354
16.7603 34.0817 71.036
16.3602 33.7254 71.3911
16.1908 33.5238 71.7455
16.1866 33.1545 70.3349
16.048 33.5366 71.7332
16.0252 33.4224 71.8235
16.0453 33.3377 71.6124
16.0525 32.9412 70.5392
16.0973 33.5716 71.0528
15.6757 32.9764 70.6787
15.8934 34.3259 74.4769
15.3439 31.612 68.9217
15.6145 33.1536 72.1668
15.6736 33.3012 72.6358
15.4195 32.3444 70.1845
15.6561 33.5389 73.0916
15.4283 32.7458 71.146
15.0868 32.3764 72.2975
15.7167 33.8443 74.9548
15.4636 32.2784 71.8032
15.3997 33.5505 78.7933
18.7228 39.0744 78.8374
15.0576 32.6843 72.5709
14.9825 32.351 71.5911
14.9255 32.5715 73.2573
15.1343 31.9956 70.7193
15.0785 33.083 73.3299
14.9472 32.3866 72.1205
14.5658 31.6156 72.0369
15.2575 33.0961 74.0199
14.8607 31.96 72.4825
15.3342 33.1128 73.1495
14.6688 31.9488 71.4646
14.4755 32.0637 73.4107
14.9508 32.5608 72.8744
14.6039 32.2816 72.038
14.0581 31.2667 72.2098
14.379 31.9596 72.4779
14.0459 31.2805 72.0988
14.305 31.582 72.5774
14.404 32.1577 73.7061
14.3354 31.8982 73.5109
14.2065 30.9586 70.4164
13.7585 31.0165 71.2746
13.7127 30.6057 70.7628
13.7655 31.1863 72.3069
13.8729 30.7554 70.5618
13.6733 31.3703 73.594
14.1296 31.8167 73.3564
13.8558 31.3646 72.6084
13.5708 31.2118 74.4348
13.9526 31.0528 72.7621
13.6441 30.5939 71.8778
13.6087 30.8658 72.5331
13.6441 30.4958 71.382
13.4313 31.0204 73.4405
13.6646 30.904 71.9608
13.2224 30.8254 73.2485
13.4752 30.7221 72.7145
13.4849 30.6501 72.3232
13.4053 30.9323 72.9637
12.8916 29.472 71.3886
13.3318 30.9786 73.4194
12.9256 29.6877 70.4873
13.0087 30.3204 72.4496
12.7141 29.4779 71.2418
12.8759 29.9442 71.3905
13.0786 30.9141 73.7546
12.8019 30.3014 73.7685
13.1577 30.7621 73.9757
13.0906 30.8153 74.8985
12.8933 29.9266 72.5701
12.8275 30.7066 75.4171
13.1014 30.4201 73.4282
12.7772 30.1131 73.5876
12.7423 30.0343 74.2118
12.9076 30.2965 74.1351
12.951 30.5274 74.4508
12.827 29.814 71.7762
12.4799 30.1833 73.8375
12.6447 30.3456 74.0144
12.3034 29.7896 74.4096
12.3359 29.0535 72.5115
12.4594 29.9313 74.2068
12.6093 30.2953 74.0062
