# pn-170911/RbIIR-51-USN3-1280-1959.psd
# Power spectrum* (dif=0,1,2) (really just |FT|^2)
# NOTE: only the first half! (symmetric)
# weeks: 1280-1959
# 3535 clock-days, 59 excluded
# PSD: 1441
176.943 0.0856071 0.0216989
15978.8 0.363211 0.0119236
60171.1 1.2416 0.0120362
17100.4 0.685436 0.0122773
38464.5 2.95603 0.0122345
6267.53 0.666764 0.0123068
5234.76 0.809255 0.0117991
3435.88 0.723354 0.0121892
3790.35 1.07468 0.0123435
2345.36 0.813864 0.0123256
2122.8 0.910753 0.0124387
1722.25 0.914906 0.0127573
1606.76 1.03431 0.0128344
1400.1 1.01445 0.0130399
1290.98 1.13539 0.0133434
1181.88 1.17551 0.0133063
1158.44 1.33716 0.0136869
1082.51 1.39242 0.0140157
1026.13 1.51754 0.0145519
994.855 1.6277 0.0150463
984.605 1.7615 0.0157434
962.847 1.94034 0.0164466
926.933 2.0236 0.0164011
912.936 2.21862 0.0173879
898.266 2.37878 0.0189003
915.159 2.62261 0.0205046
860.704 2.6952 0.0205696
847.263 2.85218 0.02206
901.767 3.23476 0.0235421
881.758 3.432 0.0262608
859.909 3.61559 0.0283583
833.008 3.77805 0.0298157
851.077 4.04935 0.0324424
868.042 4.38718 0.0354272
844.543 4.53015 0.0373658
827.155 4.6905 0.0397155
836.579 5.09634 0.0439674
850.141 5.4215 0.0485505
849.376 5.7742 0.0524317
821.656 5.85759 0.0549916
820.804 6.15801 0.059654
828.342 6.5014 0.0633627
809.761 6.6925 0.0687222
829.995 7.19232 0.074764
819.865 7.5095 0.0810762
791.85 7.53062 0.0845375
808.915 8.06121 0.0929576
791.955 8.23219 0.100151
790.255 8.52848 0.106271
780.869 8.87426 0.114715
758.672 8.97159 0.118368
727.995 8.91113 0.125151
740.747 9.45401 0.134542
747.689 9.91853 0.145441
729.309 10.0066 0.1509
717.358 10.2418 0.161393
729.966 10.715 0.171983
720.509 11.0324 0.184021
703.738 11.0873 0.191649
673.754 11.0482 0.194704
687.901 11.6379 0.21064
658.814 11.4359 0.216072
672.849 12.1615 0.235066
639.915 11.9613 0.238715
634.919 12.2172 0.252838
626.786 12.426 0.263947
632.369 12.9127 0.278457
610.709 12.9051 0.288317
616.734 13.3642 0.302434
600.755 13.4435 0.315717
584.55 13.4916 0.326495
585.839 13.8266 0.342398
564.248 13.7698 0.351338
565.72 14.0996 0.371589
542.555 13.9569 0.378079
545.562 14.4639 0.399477
524.748 14.3367 0.40584
518.813 14.4564 0.420059
520.578 14.9511 0.44537
519.962 15.2663 0.467434
492.146 14.7948 0.461618
507.853 15.6985 0.501185
478.282 15.1211 0.494873
461.815 14.9639 0.504246
462.851 15.3847 0.525614
466.53 15.8779 0.555258
455.122 15.8083 0.56564
441.34 15.7024 0.581106
436.519 15.9227 0.593405
437.669 16.3269 0.626195
420.116 16.0233 0.633254
411.444 15.9996 0.641385
399.371 15.8763 0.654292
398.371 16.1964 0.673395
393.417 16.2317 0.693501
392.832 16.6816 0.725921
389.312 16.8404 0.749937
363.757 16.1301 0.733347
358.724 16.1746 0.751225
365.22 16.7789 0.791879
345.518 16.2744 0.785995
342.321 16.438 0.806568
344.616 16.8851 0.848185
337.112 16.7783 0.859048
334.617 17.0829 0.889457
330.629 17.109 0.907552
315.042 16.5606 0.896448
310.05 16.5736 0.909096
311.266 17.0018 0.948218
302.355 16.8569 0.966551
299.265 16.9185 0.98007
280.817 16.1973 0.959734
278.518 16.3913 0.983852
277.345 16.62 1.0224
280.535 17.0433 1.06537
275.06 17.0424 1.07828
268.191 16.9949 1.0964
264.805 16.9982 1.11475
263.547 17.2128 1.14142
257.686 17.2179 1.1698
242.629 16.3527 1.12176
247.174 16.8992 1.18375
250.516 17.5209 1.25358
235.525 16.6061 1.20306
236.872 17.0581 1.25249
232.105 17.0288 1.27569
232.974 17.2603 1.30341
220.523 16.6844 1.28619
221.756 17.0233 1.33226
216.11 16.9359 1.34579
214.88 17.0445 1.3689
208.795 16.773 1.37266
204.687 16.6435 1.38048
209.8 17.2864 1.45902
200.111 16.8821 1.44927
200.974 17.0419 1.47779
196.934 16.9703 1.49852
200.037 17.5143 1.57334
189.739 16.7531 1.51356
184.391 16.5866 1.52858
188.381 17.2284 1.60372
184.261 17.2017 1.62996
176.23 16.6237 1.59858
174.347 16.6222 1.62335
174.946 16.8134 1.65136
172.311 16.9453 1.69217
168.265 16.8298 1.71718
167.057 16.934 1.74103
163.62 16.6479 1.72623
160.637 16.706 1.7725
157.114 16.4941 1.76496
156.562 16.6779 1.81054
158.337 17.0547 1.86807
160.43 17.4766 1.93117
151.071 16.6197 1.87045
151.413 17.019 1.93801
149.194 16.9278 1.95014
146.037 16.8268 1.96952
148.072 17.2156 2.04367
146.105 17.1807 2.05923
139.867 16.6967 2.02538
137.593 16.6166 2.05183
136.31 16.7402 2.07726
137.958 16.9803 2.12904
136.293 17.0807 2.17434
131.717 16.7036 2.16119
132.678 16.942 2.19968
126.989 16.5219 2.19111
133.116 17.5605 2.35445
125.128 16.6554 2.26239
125.911 16.9328 2.30561
125.343 17.0658 2.35491
123.569 16.9201 2.37073
125.349 17.463 2.47199
121.698 17.1191 2.4469
123.841 17.6588 2.55828
117.165 16.8292 2.45085
115.925 16.8876 2.4989
115.116 16.8926 2.52086
112.646 16.6864 2.52601
116.371 17.5536 2.68871
114.001 17.3466 2.68543
111.175 17.0884 2.66662
111.865 17.4661 2.76631
109.208 17.2553 2.75358
107.61 17.1709 2.78274
113.099 18.1459 2.93814
109.299 17.8304 2.94514
104.542 17.1292 2.86513
103.897 17.1478 2.88659
102.573 17.1458 2.91487
102.076 17.3857 3.00684
110.194 18.8623 3.26467
102.683 17.6918 3.08659
99.3012 17.4029 3.08372
97.2503 17.2137 3.08385
101.204 18.0625 3.26886
99.6574 17.9958 3.28949
97.0623 17.6359 3.24364
95.3586 17.5076 3.26766
93.9493 17.3965 3.27815
91.3374 17.1665 3.25874
91.5467 17.3315 3.32474
92.0111 17.514 3.38001
86.9476 16.7355 3.27378
87.5983 17.0893 3.38276
86.0337 16.981 3.39412
87.111 17.3253 3.49476
88.4742 17.7128 3.58491
85.0421 17.1517 3.52657
85.7206 17.505 3.61144
85.2754 17.5299 3.66325
85.0731 17.7048 3.73117
84.1436 17.7957 3.80117
85.0497 18.0498 3.90172
85.228 18.241 3.94558
82.1936 17.6486 3.8534
82.4604 17.9587 3.96342
82.2265 18.0037 3.99951
78.2612 17.3714 3.91151
80.8073 18.0843 4.09909
78.0366 17.44 3.96019
78.9631 18.1238 4.20947
75.4668 17.2871 4.03459
78.9397 18.3026 4.28796
77.8863 18.0713 4.26013
76.3754 18.0943 4.35635
76.4663 18.08 4.34202
75.1928 17.9998 4.36408
77.3045 18.8188 4.61622
74.9422 18.2736 4.49798
72.8571 17.9684 4.48029
73.3975 18.2747 4.57424
70.784 17.7665 4.52483
74.7196 18.8399 4.8024
71.1581 18.1196 4.67143
71.6298 18.4343 4.78435
68.8346 17.8939 4.7009
71.7143 18.6688 4.91569
69.6864 18.2627 4.84606
70.329 18.7169 5.04596
69.1066 18.6354 5.06899
70.0353 18.8396 5.1321
67.4686 18.3612 5.07782
69.0097 18.9517 5.26867
66.5762 18.3781 5.12179
66.6707 18.5254 5.21801
68.1223 19.0765 5.41713
64.9596 18.3058 5.24582
66.8177 19.0024 5.48598
66.3172 19.0005 5.5038
65.6309 19.072 5.61917
64.9965 18.8768 5.56448
63.3405 18.5906 5.51281
62.1187 18.5867 5.60483
63.1591 18.9196 5.73188
63.1035 19.0673 5.80665
62.4628 18.955 5.85873
65.1407 19.8007 6.07804
61.7599 19.149 5.96972
62.6836 19.4308 6.08416
61.9753 19.3719 6.113
60.9278 19.1143 6.09283
60.8486 19.3044 6.19957
59.7895 19.108 6.17313
59.1143 19.0139 6.20713
60.7428 19.7047 6.46917
56.6457 18.4723 6.09965
57.5487 19.0021 6.31005
56.5146 18.8267 6.34098
57.3606 19.2483 6.53433
57.0032 18.9924 6.39729
55.6936 19.017 6.53791
55.6607 19.0339 6.60526
56.8374 19.551 6.80078
57.7486 20.0745 7.06973
55.2298 19.1409 6.7399
54.5848 19.089 6.7604
55.6692 19.7419 7.05727
54.7216 19.3139 6.92708
55.0805 19.7791 7.16689
53.9807 19.3859 7.07188
56.0123 20.295 7.42284
52.5887 19.3587 7.20688
51.8168 19.1018 7.14357
53.2738 19.8608 7.4883
52.4788 19.486 7.3596
54.0713 20.3761 7.72506
54.7961 20.6103 7.83983
51.457 19.4996 7.51165
51.4501 19.6952 7.62486
51.3288 19.7844 7.72221
50.6191 19.7339 7.75314
51.145 20.0566 7.94972
50.4069 19.9208 7.96048
50.9794 19.9947 7.9695
50.4099 20.0411 8.04279
49.734 20.1403 8.23755
49.2166 19.8643 8.11404
48.578 19.876 8.21489
47.5979 19.5572 8.10018
49.6837 20.4087 8.49935
49.1145 20.171 8.40051
47.3784 19.7241 8.31393
49.1689 20.6912 8.75477
48.5052 20.6089 8.83042
47.543 20.089 8.62502
47.8152 20.5962 8.95349
47.5884 20.5189 8.97645
46.5022 20.0415 8.78625
47.4368 20.5868 8.99331
46.6589 20.5025 9.09239
46.8099 20.6768 9.16916
46.0084 20.523 9.21446
45.6063 20.6332 9.41308
45.4372 20.4979 9.32103
44.1133 20.0022 9.1539
43.346 19.6741 9.06507
44.0171 20.268 9.41735
43.5916 20.0389 9.33422
43.6743 20.2473 9.50411
44.5544 20.8937 9.82933
43.3098 20.3556 9.622
42.1014 19.9949 9.63978
42.8461 20.2526 9.70891
44.4271 21.2065 10.2349
41.6531 19.9349 9.66165
43.1353 20.9095 10.2155
43.1423 21.2241 10.4922
42.2834 20.6548 10.2754
41.5644 20.299 10.0676
42.4705 21.1139 10.5931
42.7063 21.1768 10.5688
41.7804 20.9173 10.5612
42.886 21.6968 11.0538
40.9638 20.7181 10.5965
40.8841 20.8651 10.7333
41.1578 21.0642 10.8861
40.6318 20.953 10.881
41.5227 21.6342 11.3584
39.8283 20.7803 10.999
40.8329 21.4904 11.4384
40.9439 21.2204 11.1614
39.5069 20.9637 11.2172
38.9849 20.7062 11.1398
38.8224 20.6013 11.0671
38.1631 20.5947 11.2373
39.1721 21.2462 11.5853
37.3505 20.3411 11.2466
39.3397 21.5417 11.8821
39.1864 21.5372 11.9552
37.0016 20.3323 11.3108
36.2195 20.2145 11.3967
36.9783 20.6674 11.6614
37.0385 20.7528 11.7614
38.3155 21.7898 12.487
37.897 21.5406 12.3319
36.2838 20.8085 12.0897
35.9615 20.5542 11.9306
36.107 21.0064 12.3097
35.9105 20.7599 12.1786
36.5499 21.4301 12.6503
36.4083 21.5189 12.8911
36.3519 21.3497 12.6393
35.554 21.0814 12.6122
35.8095 21.3003 12.7586
35.719 21.432 13.0476
36.3424 21.8601 13.3249
35.4541 21.3739 13.0686
34.5953 20.7617 12.6011
35.225 21.642 13.3397
34.155 20.9653 13
33.6332 20.7945 13.0953
35.4465 21.8457 13.5677
33.1051 20.8236 13.2479
34.4177 21.4939 13.5995
33.2418 20.9033 13.3315
34.3548 21.6631 13.7654
33.2191 21.2012 13.645
33.2455 21.4374 13.8893
33.1288 21.3482 13.9392
33.916 21.9155 14.3095
33.3971 21.6614 14.2131
33.1979 21.5232 14.1611
34.1869 22.1489 14.4863
31.7723 21.0596 14.1312
32.3164 21.3452 14.3603
33.5681 22.0825 14.6244
31.0578 20.8876 14.1947
32.4297 21.8313 14.7784
31.2668 21.1442 14.4353
32.1755 21.8582 14.9956
31.6786 21.547 14.7507
30.7195 21.0261 14.5742
30.996 21.5811 15.1296
31.3056 21.5866 15.0337
30.2132 21.0151 14.8089
30.2983 20.9848 14.6974
30.5739 21.3838 15.0906
31.3829 22.1266 15.6027
29.2413 20.7603 14.8785
29.4899 21.1609 15.303
29.5804 21.1493 15.319
30.1602 21.7298 15.8308
29.587 21.3121 15.4539
30.1749 22.1961 16.4451
30.0525 21.6849 15.9108
29.3418 21.3413 15.5845
28.8975 21.4278 16.0845
28.3294 20.6305 15.2419
28.2297 21.125 15.9832
29.2039 21.7758 16.3722
28.0789 20.8569 15.7733
28.7302 21.73 16.5223
27.8852 21.2772 16.4206
29.8804 22.6403 17.2206
27.762 20.949 16.0876
27.42 20.7859 15.9549
27.1609 20.9903 16.3148
27.8776 21.6085 16.8721
27.8348 21.5895 16.8305
27.4043 21.4365 16.8848
26.6072 21.0093 16.9164
28.0788 21.7671 17.0595
27.2487 21.5082 17.2218
27.7537 21.8486 17.4305
27.836 22.232 17.7935
27.2177 21.8002 17.5788
26.649 21.6252 17.7407
27.1838 21.7919 17.7431
26.7846 21.8583 17.9624
25.9965 20.9549 17.0411
26.0801 21.4097 17.7082
26.0297 21.4029 17.7932
26.3253 21.8325 18.2327
25.953 21.3737 17.7474
25.6166 21.4512 18.0012
25.2013 21.1056 18.0103
25.9104 21.5951 18.1628
24.9378 20.8609 17.7406
25.5527 21.5112 18.3439
25.9362 21.9166 18.62
25.8237 22.1058 19.021
25.6115 21.9475 18.9355
24.286 20.7025 17.8457
23.4542 20.4527 17.9638
24.2481 20.9909 18.3672
24.3224 21.1233 18.527
24.2641 21.0413 18.5352
24.4522 21.5556 19.0615
24.2886 21.5145 19.1812
24.4775 21.6728 19.3155
24.1278 21.3376 19.0746
23.9769 21.6422 19.6857
24.0868 21.3103 19.228
24.4669 22.0653 20.0532
23.67 21.1049 19.0123
23.6883 21.6506 19.7457
23.2186 21.4202 19.9529
23.2172 21.0357 19.3337
23.2239 21.4054 19.9418
23.0674 21.1921 19.8001
23.3453 21.4128 19.7916
23.0262 21.4404 20.1184
23.3376 21.8055 20.4604
22.4421 21.0137 20.0211
22.6917 21.177 19.9724
22.3335 21.0565 20.0655
22.5473 21.2888 20.4084
22.9042 21.7452 20.7692
22.4684 21.5552 20.8366
22.1567 21.2323 20.7087
22.249 21.1355 20.3771
22.4443 21.6754 20.9735
21.4287 20.8703 20.4666
21.1758 20.7141 20.5159
21.9072 21.2657 20.9272
21.8255 21.3581 20.9573
21.2301 20.9 20.803
21.026 20.9035 21.1434
23.6023 23.3423 22.8228
20.804 20.9284 21.3966
21.5849 21.2901 21.1597
20.8947 21.068 21.3967
21.3806 21.6661 22.0811
21.413 21.5327 21.9585
21.2912 21.4303 21.7987
21.0029 21.4212 21.9221
20.5139 21.0602 21.7856
20.5511 21.2894 22.168
20.8281 21.6108 22.6091
20.5074 20.8246 21.7082
20.4118 20.7926 21.4854
20.594 21.4639 22.3872
20.4668 21.5416 22.8509
20.5436 21.4628 22.6179
19.8439 21.053 22.5775
20.1815 21.2361 22.7451
20.7177 21.8579 23.0774
19.4058 20.5964 22.0662
19.8042 21.4205 23.2557
20.4742 21.7547 23.4583
20.2517 21.6355 23.2858
19.403 21.1717 23.3021
19.7578 21.3036 23.1297
18.6899 20.2062 22.266
20.0744 22.2076 24.6206
19.7602 21.309 23.368
19.7733 21.6708 23.9266
19.567 21.6557 24.1511
18.8386 20.7695 23.3166
19.1744 20.9681 23.1073
18.4952 20.7936 23.4298
18.6937 20.764 23.3461
19.0185 21.497 24.3615
18.8162 20.8148 23.2817
18.3232 21.0231 24.2665
18.1864 20.3743 23.3486
18.6339 20.9977 23.5733
18.0091 21.084 24.6931
18.6263 21.2425 24.4351
17.9719 20.6393 24.0289
18.126 20.8233 24.1405
18.1839 20.9307 24.2057
17.6621 20.7737 24.6737
18.1451 20.8451 24.2415
17.6915 20.5623 23.9702
17.2338 20.4168 24.3065
17.0848 20.3414 24.6417
17.9555 20.9946 24.64
17.4689 20.9089 25.1012
17.4032 20.6108 24.7244
16.9733 20.1549 24.1435
16.9052 20.3009 24.6364
16.7294 20.1721 24.7679
17.6283 20.9799 25.3002
17.6304 21.6333 26.4329
16.4814 19.7635 24.3639
17.0387 20.708 25.5288
17.5941 21.3184 25.9714
16.8562 20.4612 25.2174
16.419 20.0408 24.5419
16.3973 20.6086 25.9171
16.1407 19.7885 24.6842
16.5611 20.7835 26.2274
16.6439 20.5094 25.7486
16.4136 20.1564 24.93
15.9078 20.4053 26.3529
16.6499 20.5918 25.8089
16.3696 20.9072 26.7312
16.2156 20.4545 26.1073
16.2383 20.596 26.3835
16.4727 20.8166 26.4306
15.731 20.2614 26.3332
15.6892 20.0459 25.99
16.1204 20.5595 26.3689
15.8322 20.5719 26.8255
15.8857 20.5495 26.9107
15.5745 19.9586 25.9803
15.2569 19.9259 26.3265
15.3283 19.8548 26.1391
15.4817 20.4837 27.2288
15.3319 20.0061 26.6594
15.6393 20.2863 26.6188
15.2724 20.3154 26.8398
14.886 20.048 27.2222
15.4647 20.535 27.6102
15.3015 20.2772 27.2645
15.3884 20.476 27.3674
14.686 19.5303 26.2726
14.9002 20.25 27.417
14.74 19.854 27.1381
15.3558 20.7978 28.1397
14.8137 20.2341 27.8137
14.8429 20.3363 27.9233
14.7661 20.3985 28.8066
15.8201 21.1939 28.6072
14.7961 20.4313 28.3197
14.5968 20.0906 27.9431
14.4486 20.2069 28.4845
14.7549 20.5074 28.9492
14.6284 20.1649 28.2663
14.3048 19.6795 27.5375
14.1363 19.7517 27.9707
14.0661 19.5846 27.6218
14.0517 19.7512 28.1224
14.1757 19.9134 28.5439
14.1817 19.7886 27.9871
14.1073 20.0084 28.4021
13.8704 19.8675 28.6549
13.6782 19.3133 27.7251
13.6777 19.6585 28.444
13.8808 19.8972 28.6736
13.8789 19.9921 28.9077
13.9306 20.051 28.8423
13.416 19.6126 28.7525
13.0872 18.9525 27.8778
13.4372 19.6666 28.82
13.1719 19.4631 29.0108
13.4349 19.7822 29.3498
13.4027 19.6106 29.0061
13.0176 19.1351 28.717
13.2791 19.2977 28.356
13.0958 19.8072 30.0966
13.2844 19.4763 29.0354
12.9601 19.35 29.1647
13.2428 19.7194 29.7518
13.1482 19.5632 29.1904
12.5315 18.9829 29.1183
12.7543 19.2324 29.5619
12.796 19.2249 29.1989
12.6697 19.3707 30.0427
13.0086 19.5838 29.8808
12.7065 19.3731 29.912
12.5404 19.0999 29.5616
12.9252 19.7861 30.6047
12.7688 19.3365 29.699
12.5886 19.3584 30.1369
12.7812 19.8389 31.046
13.0178 19.972 30.8211
12.34 19.0327 29.7587
12.3615 19.386 30.3451
11.896 18.5902 29.4633
12.073 18.9089 30.1414
12.0609 18.8546 29.6847
12.0097 18.8691 30.0261
11.997 18.9606 30.2178
12.1171 19.2993 31.0696
11.9747 18.7487 29.7857
11.9775 19.2688 31.0211
11.6444 18.5186 30.1578
12.0725 19.1738 30.6343
11.6244 18.6123 30.2489
12.0616 19.4156 31.4337
12.0636 19.449 31.4365
11.8006 18.9804 30.5993
11.3139 18.4903 30.8885
11.8321 18.7939 30.2109
11.4307 19.0385 31.4925
11.5535 19.1272 31.907
11.6442 19.0586 31.6588
11.6213 18.7482 30.9264
11.4807 19.0271 31.6612
11.4101 18.7827 31.523
11.4845 18.7594 31.2952
11.5756 18.9708 31.1022
10.9704 18.5305 31.422
11.3824 19.2819 32.8736
11.5127 19.0609 32.1805
11.2387 18.6707 31.3419
10.9317 18.4079 31.5506
11.1873 18.6366 31.4198
10.8071 18.4808 32.2649
11.5267 19.043 31.7087
10.8741 18.6482 32.0639
10.6984 17.9897 30.9107
10.7935 18.4276 32.0416
11.0446 18.7286 32.0265
11.0064 18.9081 32.6307
10.8575 18.667 32.3286
10.5192 17.8705 30.9054
10.5074 18.2194 32.1199
10.7932 18.4056 31.3687
10.3076 18.1798 32.2184
10.4883 18.5223 33.2347
10.8374 18.5395 32.1346
10.5865 18.6128 32.687
10.2899 17.8951 31.6513
10.3646 18.4443 32.9633
10.6339 18.7136 33.2727
10.2492 17.9844 32.3387
10.4298 18.4309 33.282
11.142 19.6855 34.1664
10.1362 18.1673 32.955
10.1562 18.028 32.5587
10.0806 17.8164 31.9367
10.0667 18.2991 33.4625
10.3457 18.4643 33.3385
10.0699 17.99 32.2538
9.54606 17.4684 32.613
10.2258 18.2362 32.9067
10.0239 18.2474 33.1802
10.0622 18.4772 33.6744
9.53455 17.5017 33.1635
10.151 18.1384 33.0493
9.93725 18.1368 32.8927
9.4346 17.4447 32.8793
9.80398 18.195 34.0609
9.80496 17.6573 32.5053
9.59386 17.8293 33.1902
9.53635 17.6248 32.8393
9.53971 17.9852 34.1849
9.54084 17.6018 33.3093
9.5588 17.4342 32.3591
9.3841 17.657 33.1049
9.48578 17.895 33.7696
9.37209 17.4716 33.165
9.24626 17.2787 33.0983
9.58946 18.0568 34.121
9.5109 18.0999 34.5313
9.4125 17.7774 33.9712
9.303 17.5794 33.3152
9.1199 17.6333 34.0405
8.95685 16.9684 33.0379
9.32274 17.8262 33.9702
9.04704 17.4384 33.7146
8.97343 17.4873 34.4277
8.93658 16.7205 32.327
8.92273 17.3775 34.0806
8.97989 17.2853 34.0172
8.94955 16.9689 33.1172
9.02917 17.4471 34.1059
9.02297 17.6565 34.5683
8.95053 17.3041 33.7482
8.89895 17.4262 34.1021
8.5041 16.8272 33.8556
8.67674 16.9562 33.8834
8.7719 17.1553 33.9905
8.79751 17.4352 35.0328
8.9117 17.1602 33.8434
8.79669 17.5724 35.1576
8.77597 17.1529 33.897
8.46192 16.8575 33.859
8.55386 17.0099 34.084
8.28236 16.5851 33.7134
8.3569 16.4343 33.2276
8.42343 16.9058 34.0294
8.53354 17.2506 34.6544
8.29314 16.7831 34.4321
8.24366 16.506 33.977
8.31173 16.4647 32.8699
8.24175 17.2212 35.5457
8.42464 17.1853 35.1828
8.09287 16.458 34.2039
8.15119 16.4491 33.6264
7.97407 16.6562 35.2511
8.34508 16.846 34.6653
8.11692 16.5503 34.7443
8.31307 16.8086 34.234
8.09541 16.8702 35.1953
8.0228 16.4278 33.9455
7.88361 16.376 34.2308
7.79101 16.3131 34.802
8.02131 16.3846 33.82
7.77671 16.2373 34.0597
7.82732 16.6868 35.85
8.02722 16.5336 34.551
7.76256 16.2049 34.6347
7.90141 16.6724 35.2462
7.9069 16.6771 35.3288
7.69269 16.1829 34.979
7.72765 15.7353 32.6482
7.4804 16.4902 36.2354
7.8414 16.3333 35.0618
7.91114 16.8543 35.8916
7.58935 15.8966 34.0862
7.50621 16.0253 34.5045
7.58778 16.2493 34.8986
7.40952 16.1418 35.7323
7.77384 16.5808 35.8586
7.58106 16.1089 34.7967
7.50978 16.4007 35.7754
7.45135 15.9547 35.2508
7.53757 16.1312 35.1998
7.44023 15.9933 34.7958
7.32629 15.7954 34.6831
7.44573 16.1774 35.3205
7.39608 16.3665 36.7984
7.93628 17.2411 36.8637
7.16313 15.6252 35.0488
7.37989 16.049 35.5753
7.42248 16.2356 35.528
7.13845 15.7894 35.7191
7.40582 16.1146 35.233
7.12666 15.8107 35.77
7.37214 16.0752 34.9453
6.90315 15.5081 35.1478
7.12177 15.9125 35.6395
7.14685 16.0979 36.0035
6.9022 15.4107 35.3248
7.07185 15.8293 35.863
7.10706 15.8226 35.8688
7.06302 15.7472 35.0503
6.80008 15.5835 35.6362
6.74284 15.2041 35.3383
6.96507 15.5841 35.814
6.93956 15.3948 34.9486
6.89709 15.6864 36.0297
6.90501 15.5595 35.5368
6.74732 15.1967 35.1669
6.7977 15.1966 34.6525
6.76581 15.5516 35.996
6.97683 15.9692 36.2426
6.7583 15.7566 36.7428
6.74131 15.1898 34.8434
6.58341 15.3727 36.1474
6.80784 15.5875 36.1858
6.65058 15.3193 35.8157
6.66002 15.4845 36.5456
6.75612 15.2878 35.3311
6.59705 15.301 35.4644
6.34204 14.8082 35.5441
6.63066 15.4066 35.9293
6.40607 14.768 34.6358
6.3891 15.1365 35.8548
6.47825 15.2706 35.892
6.47798 15.4661 36.6188
6.4122 15.3418 37.2523
6.61517 15.2058 35.6851
6.37045 15.0853 36.2385
6.42901 15.2414 36.9821
6.31774 14.4652 34.4826
6.31732 15.096 36.1088
6.3969 15.2646 36.7285
6.26541 14.6493 35.1987
6.2947 15.1463 35.9236
6.21511 14.9862 36.1921
6.24668 15.1693 37.0858
6.39915 15.2218 36.4262
6.24392 15.2871 37.6169
6.30519 15.2235 37.1973
6.3096 15.1353 36.676
6.11442 14.7225 36.2457
6.11538 14.8033 36.909
6.18188 14.5156 35.1178
6.00206 14.7027 36.5328
6.20599 15.1924 37.3083
6.12905 14.776 36.8181
6.23736 14.8105 35.2273
5.77272 14.2907 36.024
