# pn-170911/RbIIA-33-RbIIA-1280-1959.psd
# Power spectrum* (dif=0,1,2) (really just |FT|^2)
# NOTE: only the first half! (symmetric)
# weeks: 1280-1959
# 127 clock-days, 49 excluded
# PSD: 1441
18150.8 0.367516 0.0104922
1.33334e+06 32.934 0.0065796
4.04484e+06 61.8862 0.00736217
1.0362e+06 31.4265 0.00701147
753707 64.4933 0.00826152
598203 74.8436 0.0128806
374617 36.9004 0.011544
241675 32.3129 0.010491
103674 14.9379 0.0084265
58564.6 9.12765 0.00867234
42829.4 12.0348 0.0114098
34294.1 8.50935 0.0112649
30323.8 7.46046 0.0105084
37651.7 18.0281 0.0162062
25164.7 12.162 0.0131239
24378.8 10.3709 0.0162592
16290.2 7.72767 0.0166293
14147.5 6.43518 0.0141644
14234.6 8.76882 0.0187879
9334.51 7.51916 0.0176245
7902.88 6.25662 0.015911
7542.37 7.62588 0.0205341
7307.87 6.97997 0.0242394
6498.93 8.02158 0.027316
6920.34 6.23993 0.0205158
7076.53 6.80184 0.0265664
5996.23 6.76107 0.0261658
4734.46 7.40254 0.0284298
4033.53 7.25157 0.0332034
4038.72 5.4769 0.0258535
5503.79 8.89198 0.0434645
3508.31 4.90228 0.0270425
3735.5 6.14135 0.0346416
3111.24 6.26932 0.0368532
3281.6 6.61396 0.0400702
2798.54 5.5178 0.0332232
2858.52 6.92173 0.0442412
2842.45 6.05665 0.0430477
2579.76 5.77998 0.0434837
3011.5 6.20588 0.0513799
1875.93 5.30543 0.053881
2140.31 5.80809 0.0508752
2516.39 6.91086 0.064738
1912.75 6.91816 0.0641686
1747.39 6.0336 0.0601739
1329.37 5.82334 0.0605949
1566.57 5.88305 0.0656401
1814.39 6.66472 0.0745
1958.61 6.35829 0.0723635
1383.45 6.13973 0.0747112
1528.17 5.70439 0.0778026
1478.53 5.50734 0.0792693
1340.91 4.62496 0.068321
1332.37 6.73883 0.0945742
1293 6.28333 0.0941336
1167.75 5.8648 0.0857503
1070.51 6.16204 0.0918609
1086.45 5.76559 0.0937454
1139.19 5.06248 0.0805537
945.281 5.04309 0.0872938
757.218 5.56357 0.100128
884.712 5.2937 0.102845
1028.22 5.5903 0.112199
922.725 5.78736 0.116741
1047.12 5.97136 0.122588
1015.94 5.80063 0.12212
891.915 5.7044 0.121911
806.53 5.94272 0.137368
779.078 6.0649 0.13767
688.162 5.88203 0.140158
661.556 4.71324 0.112599
750.028 6.03022 0.148208
686.644 4.9267 0.127931
687.436 6.61968 0.176391
729.969 5.68537 0.153892
652.94 5.34267 0.154041
579.822 5.0566 0.139857
572.723 5.45936 0.170392
575.311 5.09896 0.160207
587.99 4.95729 0.152486
636.039 5.72792 0.184405
614.173 6.11758 0.193983
595.887 6.17178 0.198106
493.118 5.576 0.18306
493.122 6.60896 0.221543
492.207 5.82444 0.204384
441.637 5.48889 0.196666
449.88 5.5821 0.206478
519.564 5.40039 0.202285
559.464 5.71597 0.217928
536.009 5.8994 0.224299
434.809 5.9103 0.228116
399.824 5.16712 0.214047
355.644 5.24254 0.216715
388.234 4.9838 0.215368
368.28 5.64468 0.247128
432.116 5.63204 0.255664
407.191 5.452 0.247368
388.92 5.81709 0.272929
385.063 6.24418 0.31095
378.976 5.58714 0.262663
323.707 5.7007 0.282366
363.476 6.38246 0.318833
323.459 5.73793 0.284512
346.286 5.4491 0.282614
358.159 5.94153 0.305774
323.493 5.13092 0.278558
335.078 5.4431 0.307142
274.102 4.96837 0.287781
320.087 5.60602 0.322809
291.704 5.2399 0.304887
306.718 5.26177 0.318672
296.38 6.30338 0.379336
312.25 4.99801 0.290496
340.845 5.27947 0.328178
299.319 4.98578 0.326074
302.117 6.03227 0.398371
275.21 6.26543 0.405403
235.155 5.58828 0.371282
227.288 4.51079 0.306141
251.692 5.94984 0.420211
271.279 5.05869 0.362908
236.612 4.77774 0.333987
271.544 5.84464 0.422615
223.32 5.06693 0.379032
220.648 5.22531 0.388689
201.421 5.83382 0.43818
203.499 4.61967 0.347793
219.093 5.63681 0.452613
248.472 5.78731 0.46144
222.491 4.82663 0.380804
266.252 5.9555 0.481986
202.807 5.86312 0.494397
209.512 6.61886 0.552689
189.526 5.8398 0.504086
167.302 5.70657 0.491168
206.729 5.70853 0.501575
179.964 4.82503 0.43746
204.829 4.91261 0.444536
240.009 5.65577 0.509394
229.63 5.56413 0.517728
203.356 5.52615 0.528747
198.95 5.67207 0.549856
154.637 5.39365 0.540491
169.037 6.3382 0.620928
162.696 5.68531 0.565167
183.283 5.74925 0.607146
198.182 5.75592 0.599711
188.977 5.52582 0.579544
168.637 5.47058 0.576461
144.29 5.65812 0.604627
152.215 6.20527 0.667529
136.996 5.38268 0.598088
153.229 6.06847 0.677242
180.301 5.93959 0.656085
178.928 5.55499 0.651928
187.296 5.54051 0.634369
160.678 6.21407 0.729358
150.317 5.3605 0.639167
133.348 5.80298 0.713019
143.523 5.85925 0.726034
141.889 6.12913 0.77008
144.275 5.78988 0.701854
168.635 6.12731 0.768157
155.814 5.56048 0.716968
150.989 5.35905 0.680636
142.709 5.31066 0.677929
129.154 6.43893 0.843184
120.269 5.71979 0.771139
121.449 6.24422 0.827903
127.458 6.11718 0.839884
143.184 5.68434 0.797961
147.328 6.66803 0.937259
143.743 5.26725 0.722296
151.355 5.85251 0.844424
123.834 5.8146 0.843056
104.801 5.01363 0.724178
97.9109 5.41732 0.819121
111.318 5.68225 0.832054
126.352 5.50285 0.844742
126.935 5.46049 0.835384
133.769 5.90756 0.887937
143.761 6.58893 1.03371
111.315 6.12467 0.985841
99.6046 5.80638 0.931282
101.675 6.01988 0.991563
106.695 6.30562 1.0359
114.133 5.53899 0.891346
142.536 6.11014 1.00984
103.238 5.2849 0.88865
123.537 5.84372 0.992737
115.649 6.29095 1.08982
101.771 6.12625 1.06684
84.1956 5.50869 0.947509
79.0214 5.69114 1.03336
96.7006 5.66198 1.03163
100.912 5.57775 1.01868
111.419 5.39085 0.973224
112.892 5.92856 1.0868
104.708 6.19179 1.12246
91.9166 6.35278 1.17285
88.6494 5.81601 1.1624
87.7419 4.85325 0.896909
92.1371 6.10964 1.1798
101.425 5.7795 1.16694
98.4226 5.13374 1.01795
114.819 6.47554 1.2585
103.103 5.05042 1.04638
95.0866 5.9563 1.20778
82.3871 6.09217 1.20836
83.437 6.11115 1.26364
75.0522 5.52629 1.18259
97.4249 6.18336 1.30546
99.841 6.43019 1.3768
98.9122 5.20785 1.15544
106.471 6.03346 1.30248
87.3355 5.49378 1.17295
87.3967 5.43862 1.21515
70.7053 6.43829 1.43045
66.4474 5.41564 1.26469
86.9002 5.58429 1.27798
83.3949 5.44703 1.24096
96.6221 6.55014 1.48206
88.8282 5.99645 1.39126
81.177 5.12732 1.2094
73.249 5.32646 1.27149
68.8882 5.86713 1.40748
62.8518 5.17724 1.23383
70.2507 5.28973 1.31995
77.9264 6.45435 1.58995
93.0826 5.93684 1.46529
95.4994 5.26102 1.34992
86.7271 6.48601 1.6144
67.1122 4.90672 1.27489
64.4399 5.32949 1.39439
64.5311 5.35834 1.3858
61.5885 5.34626 1.35855
78.1961 5.97632 1.56734
71.7586 6.63435 1.75581
89.8289 5.54243 1.47799
83.5395 6.39002 1.66664
66.3171 6.37823 1.77003
63.9223 4.76023 1.28153
54.7475 5.36932 1.51746
59.3061 6.69767 1.83109
60.622 5.51362 1.52236
72.0315 6.21021 1.80355
76.6356 5.34084 1.48562
73.2713 6.34596 1.85723
65.5847 5.785 1.61221
66.9923 6.44464 1.8942
58.1634 6.37784 1.89672
55.6773 5.83039 1.72209
62.0888 5.75388 1.71676
63.1698 5.05703 1.53892
74.1493 5.09579 1.49844
69.0526 5.15649 1.55087
66.8204 5.23903 1.60148
57.258 4.85001 1.5253
48.7925 6.4354 2.03275
53.6432 5.47506 1.68689
49.1196 5.10011 1.58293
60.9673 6.71584 2.1583
67.4246 5.45601 1.70809
72.4243 6.46166 2.07061
60.7457 4.86522 1.59942
56.3678 5.72315 1.96197
49.9905 5.55856 1.85935
49.7528 5.61984 1.84376
51.3952 6.81268 2.39292
57.3158 5.62283 1.82754
66.5045 6.28947 2.07899
67.9906 5.37527 1.86593
65.9467 6.41676 2.19095
57.087 6.20205 2.17825
51.3537 5.56497 2.0697
44.3636 5.79283 1.99353
46.6604 6.6845 2.31298
46.792 5.31302 1.86558
56.8769 6.06622 2.22423
67.9492 6.01677 2.16808
68.661 6.08778 2.17838
56.9923 5.22942 1.90629
48.7905 5.51753 1.99953
43.7387 6.39002 2.39325
36.4378 5.25611 1.98086
47.1799 6.76123 2.55192
48.5782 6.54551 2.44852
62.5047 5.93607 2.35891
64.0728 6.49841 2.49966
54.8368 6.01841 2.37315
50.2717 7.17221 2.80172
43.1115 5.36792 2.14284
47.1338 6.62964 2.52207
39.303 5.83654 2.28426
47.5956 6.61508 2.76689
56.445 5.74969 2.28205
58.0096 5.59801 2.34757
61.2965 6.68444 2.78348
49.1259 5.22826 2.12816
43.6365 5.86012 2.586
37.2883 6.34744 2.5893
39.2123 5.96968 2.49027
52.4721 6.08956 2.58014
48.9067 5.80853 2.56002
56.0236 5.75529 2.34741
53.1515 5.30655 2.41582
47.5035 6.03339 2.60146
40.0778 5.497 2.32511
37.0899 5.58966 2.43884
35.6473 5.56856 2.45298
44.0467 6.55074 2.8355
42.9694 5.93132 2.65949
48.1581 6.08046 2.70132
52.6489 6.79171 3.17841
53.6372 7.11816 3.23072
37.7984 6.4914 2.88787
35.34 6.59026 3.10276
35.665 6.38369 2.91178
36.6843 6.4647 2.9508
44.3939 5.8312 2.76408
45.6746 5.48717 2.57446
45.4974 5.50255 2.82432
53.231 6.11458 2.8363
39.7124 6.23035 3.16846
39.8323 6.11367 2.79325
30.4536 5.25043 2.60702
37.2417 5.88083 2.88158
40.8912 5.56493 2.70874
45.1463 6.5789 3.19112
51.1589 6.346 3.23391
48.7587 6.13823 3.17849
48.0774 5.88298 2.95494
43.2851 6.60092 3.08551
32.9183 5.68584 3.08956
35.8996 6.21021 3.11841
31.5522 6.21484 3.2564
38.5523 5.65193 2.8444
43.9673 6.24 3.1241
42.4299 5.94921 3.25664
42.0717 5.59028 2.95901
34.4457 5.60576 2.77407
31.9108 4.90907 2.68165
33.2903 6.06047 3.27569
32.1352 6.52637 3.52017
39.0841 6.57393 3.4588
44.7994 7.44635 4.06248
48.3724 6.64976 3.64642
43.8672 6.20316 3.25223
34.3131 6.55688 3.71899
31.714 5.71414 3.19497
26.3831 5.81442 3.30995
32.0505 6.30816 3.67295
35.745 6.70779 3.61512
45.401 6.35835 3.50861
44.2565 6.02961 3.60698
43.6398 5.66963 3.26038
37.2585 6.12836 3.54783
29.8164 5.57034 3.28032
30.764 6.50666 3.7655
27.7907 6.35447 3.72017
28.1433 5.37533 3.24096
33.475 5.51959 3.22122
38.4482 5.7259 3.51312
41.6404 6.12367 3.63939
34.8298 6.53075 3.95975
31.7985 7.15781 4.48568
26.1238 6.60146 3.91349
25.1516 6.33644 3.99264
30.1304 6.82802 4.17714
30.0455 5.78851 3.4058
38.4741 6.53779 4.16128
36.1269 4.83392 3.12428
37.1242 5.62535 3.45153
30.5993 6.53624 4.22579
28.5189 6.40487 3.92259
22.4156 6.7789 4.43941
26.3472 6.17303 4.03901
31.6706 6.47258 4.1875
38.6882 6.55801 4.34206
40.4384 7.04767 4.31478
35.347 6.05374 3.98138
30.9475 6.87863 4.57385
26.8824 6.14212 4.20847
23.4591 6.2211 4.08203
23.6121 5.91558 3.82053
25.0419 5.92006 3.81083
32.3316 6.05855 4.12054
36.001 5.70664 3.81753
35.1474 5.88977 3.92521
31.6413 6.58062 4.53928
27.5355 6.17498 4.21878
24.8517 5.90893 4.1301
21.1901 5.34613 3.93734
27.0516 6.41637 4.24536
32.723 7.52601 5.10332
35.9286 6.64246 4.87588
37.9665 6.55471 4.36301
33.8842 6.79634 5.06571
28.6555 6.01862 4.15824
22.3937 5.54577 3.97639
20.7846 6.37658 4.49139
23.5427 6.50569 4.61618
29.6254 7.01951 5.22853
32.8434 6.30386 4.35749
32.8648 6.08344 4.76319
33.8414 5.95464 4.28724
29.6503 6.5 4.62752
27.4261 7.27093 5.52724
23.832 6.66563 4.92368
24.1587 7.50949 5.64449
24.5647 6.51529 4.67211
27.7749 7.15059 5.37253
33.2839 6.95609 5.4244
29.1504 6.0268 4.46902
28.6754 7.20825 5.66082
21.9015 6.09428 4.51655
19.9867 5.47629 4.54647
20.3214 7.29282 5.73298
22.6043 6.17091 5.12646
31.7867 6.0251 4.50663
32.6612 6.669 5.15477
31.9485 5.44063 4.10158
30.6779 6.49536 5.2989
27.2202 6.13824 5.01869
23.1127 6.00678 4.82828
20.2668 5.77134 4.36772
23.0075 6.18953 5.19835
26.9074 6.41202 5.10339
27.5401 5.88128 4.84453
32.4145 6.82942 5.33617
27.8532 6.24315 5.07914
27.8916 6.23828 5.07953
20.1078 6.00994 5.39613
16.8508 6.40507 5.50514
19.1961 6.03874 5.06411
23.4547 6.65978 5.31653
25.282 6.40968 5.65322
25.7044 6.21572 5.08117
25.436 6.06165 5.00852
24.3512 6.45936 5.27066
21.0659 6.12892 5.47333
20.5271 7.55203 6.40545
19.7805 6.36127 5.6135
21.0034 6.31267 5.66387
23.7252 6.5115 5.63724
29.8648 5.73646 5.1641
29.6731 7.12467 6.10743
28.1267 6.37626 5.50736
23.3225 6.23432 5.54368
19.0365 5.51238 4.89017
17.9257 6.65458 5.94293
20.729 6.9659 6.15622
22.7356 7.01587 6.3817
24.5469 6.51545 6.08258
28.0715 5.94006 5.44753
26.1186 6.51751 6.09108
23.4766 6.63728 5.92206
20.343 7.14638 6.33327
18.6112 7.02668 6.51938
15.9703 5.60145 5.60471
21.1767 6.97495 6.53566
23.5239 6.41173 5.90274
27.5426 6.46853 5.896
24.8283 6.26372 5.663
22.0367 5.74465 5.47613
19.9962 7.11796 6.87581
18.1609 6.6158 6.62443
18.3116 5.17409 5.03705
17.2497 6.84955 6.20604
23.1144 6.43833 6.54735
26.115 6.32129 5.75161
27.1333 7.16493 7.04065
26.2721 6.30063 6.21557
20.9544 7.13001 6.88887
17.747 6.032 5.92468
16.0936 6.37659 6.63541
19.1352 6.86394 6.39748
22.3923 7.52778 7.86601
24.6073 7.53408 6.94318
24.3362 6.70199 7.29106
24.6742 6.44824 6.66674
21.4388 6.8026 6.4181
16.9312 6.10266 6.45961
17.4979 7.80546 8.07255
18.2521 6.63153 7.0162
20.2581 7.029 7.656
24.9068 6.91215 7.14423
26.052 7.11406 6.77551
22.8975 6.89852 7.15362
21.8503 5.6787 5.99214
19.7161 7.20638 7.66171
16.8491 6.94704 6.97491
16.122 7.07837 7.37239
21.0473 7.27429 7.55369
24.6826 7.99411 8.41273
26.3274 5.81626 6.4791
26.5456 6.52855 6.51558
23.9728 5.97977 6.29525
19.2728 6.95182 7.57206
18.5491 6.57356 6.97425
15.6116 6.81231 7.42417
16.4249 6.36851 7.01003
20.2012 6.94311 7.35587
27.6776 7.38915 8.16198
24.9812 7.65003 7.86752
22.9821 7.78671 8.81789
17.3019 6.01401 6.64493
16.3946 6.94231 7.94908
15.202 7.09771 7.73683
14.2259 5.74887 6.80923
19.1401 7.16055 7.82103
22.0007 5.52789 6.35738
22.2299 6.95924 8.00067
20.2602 6.04444 6.91357
18.763 6.20431 6.86323
16.9888 6.9784 8.0285
14.6206 6.448 7.68056
14.4846 6.73762 7.61975
19.5647 6.19042 7.56933
20.9253 8.16862 8.9365
20.6973 6.62754 7.38656
24.4839 7.82606 9.25942
23.8577 6.62012 7.66548
16.1062 6.86537 8.00915
14.5126 6.70286 7.93952
11.9345 7.1458 8.3145
15.0271 6.03764 7.0571
19.6549 7.82174 9.5104
20.0602 5.88633 7.27637
20.3898 6.77305 8.41642
19.0096 7.02765 8.25903
17.1433 6.41922 6.88649
14.8249 8.91057 11.1509
13.4166 6.84223 8.19513
15.7914 7.99451 9.40034
17.4695 7.26805 9.01983
17.5038 6.60249 7.95196
19.3496 7.15649 8.86784
18.6656 6.63131 7.98164
16.5284 7.08661 9.00695
14.7371 7.14688 8.99608
13.3951 6.50928 8.41033
16.0094 6.80515 8.19911
15.4593 7.91861 9.38409
19.2405 6.98999 9.2784
21.2328 6.02284 7.91278
20.9461 7.08304 8.66429
19.7733 6.93461 8.97778
17.6131 6.99941 8.4282
15.1089 8.12743 10.4864
14.063 6.51427 8.09906
13.7512 5.63686 7.28328
18.2426 6.67309 8.45882
18.2546 7.17072 9.75086
21.1453 7.74192 9.55635
17.6914 6.62121 8.88665
16.5744 6.62579 9.42023
14.8103 8.20519 10.202
12.9734 7.37146 9.98626
14.7523 7.59175 9.71559
15.8574 7.28775 9.57631
16.3082 6.14387 8.30562
19.415 7.59407 9.78276
19.7725 8.26294 11.7856
17.1503 7.52157 9.37487
14.1456 7.66179 10.6966
13.7042 6.66696 8.92263
13.425 7.15239 9.77992
14.9272 6.23721 8.43544
17.9705 6.85988 9.08812
19.2977 6.28474 8.68473
17.6225 5.89293 8.06298
15.733 6.74397 9.86382
16.5554 7.46019 10.6967
13.3468 7.76186 10.2813
12.9305 7.54355 9.96107
13.0722 6.91027 9.74841
17.6988 8.00106 10.6096
15.5045 6.43419 9.30394
16.5455 7.01284 10.0007
16.3547 7.34781 10.2171
14.829 7.08448 9.79561
12.9295 7.01277 10.0577
12.2473 6.9385 8.83481
13.8255 8.4278 11.8367
13.1435 6.60151 9.70676
17.0531 7.26206 10.5017
18.7026 7.34585 10.5186
18.009 8.1079 11.744
15.0928 7.6445 10.6687
12.5316 6.01754 9.32028
12.4028 7.11791 10.4022
14.0958 8.28242 12.6715
14.6031 6.59523 9.66128
16.8938 6.99548 9.85457
19.6981 6.74051 10.1226
16.5636 6.18613 9.02859
15.8872 7.15528 10.3936
12.8454 6.62318 9.77553
12.4533 8.01483 11.4062
12.3268 7.31122 11.0432
13.6176 7.19503 10.2444
13.9013 6.14707 9.73764
16.1257 6.82391 10.1558
16.8663 7.4817 11.0439
15.4863 7.35717 11.0357
12.0862 6.65496 10.6141
10.3754 8.5001 13.5123
11.6625 6.93541 10.6129
12.8393 8.07915 12.2355
14.1512 6.37402 10.2995
14.5397 7.97566 11.2316
16.8192 7.44536 11.7215
14.0876 7.14863 11.845
15.1491 6.99118 10.2945
12.4656 8.26906 13.0569
9.43868 6.63043 10.6828
11.1466 6.83213 9.84439
14.1447 6.65582 10.369
15.0561 7.2106 11.3855
16.2344 7.13402 11.1391
16.0131 7.07992 11.8869
15.4156 7.72704 11.8588
13.6526 7.4996 11.4002
12.1578 7.87795 12.0259
11.9635 6.88475 10.3824
11.8408 7.09018 11.3303
14.0364 6.92066 11.0307
15.3608 6.73348 10.7966
15.0642 7.45547 12.7006
13.8534 6.48754 10.8648
11.8073 7.22559 10.5706
10.1028 6.14123 10.4663
10.0936 6.95018 11.9954
12.9046 7.14793 12.1829
12.498 8.4879 12.9602
15.2097 7.34205 11.6925
16.1595 7.56555 12.4714
15.185 7.76687 12.6612
13.2372 7.03187 12.2721
11.2756 6.99929 11.9282
10.964 7.46651 11.9466
9.56225 6.598 10.4646
12.3148 7.5611 12.9644
14.0116 6.42795 10.4177
16.5157 8.81428 14.5778
13.2061 6.86707 11.7581
13.9423 7.81872 13.3433
11.8545 8.73627 15.7363
12.0847 7.51728 12.927
10.0207 6.72941 10.8281
10.8469 8.08141 13.8459
11.6927 7.15365 12.0334
14.6695 7.67156 12.9022
14.165 6.58394 11.0617
10.9594 6.32171 12.4573
11.0809 6.84828 11.4409
8.90074 7.22706 13.1955
10.2782 8.07672 14.502
12.7237 7.29731 13.0718
13.0741 7.35073 11.7067
15.301 8.26588 13.8205
14.1087 7.74095 14.6478
12.5991 7.25451 12.7025
12.1778 7.46252 13.5011
11.154 8.91597 15.577
10.4752 8.32876 13.8677
11.7151 7.65595 13.5645
11.3763 6.79691 11.3758
13.79 8.27823 14.2681
12.7289 6.37011 12.1686
13.2965 6.89775 13.2344
12.5642 7.23453 12.6484
11.461 7.60778 12.5572
9.41765 6.92403 13.0301
8.96869 7.74951 13.8279
10.2876 6.77636 12.9257
13.5311 9.12306 16.1438
12.1297 8.12774 14.8764
12.5248 7.3524 13.993
12.9572 8.58206 15.3959
11.2877 7.03964 12.317
8.64745 7.47649 14.0123
10.0698 7.76458 13.5653
11.4374 7.9145 14.521
11.5311 6.98109 13.1638
14.1079 6.2916 12.3805
13.9787 8.00383 15.3101
11.3876 7.14259 13.9104
11.6141 7.88446 13.7238
10.8045 8.44179 16.889
11.0919 9.16854 17.1143
11.8707 9.316 17.371
11.438 7.15183 13.1941
11.6874 7.26908 13.8322
13.4941 7.57309 14.2512
12.5625 7.58026 13.8115
11.376 7.40161 14.7536
10.7946 7.77109 13.6038
8.4501 6.30295 12.7706
9.32438 6.97532 13.0209
9.83601 7.81495 15.7531
12.4074 7.90887 13.9632
13.1728 8.42762 16.5927
11.2724 7.11347 13.95
9.31374 7.28885 13.7049
9.18189 7.10979 14.7147
7.69884 7.42534 14.4615
8.95977 7.39333 14.5177
10.8588 7.35359 13.3374
11.7963 7.89727 14.5567
12.9044 7.76886 15.6666
13.2108 7.6105 15.3344
11.2247 7.69333 15.8121
10.2099 8.21541 16.2966
10.2138 7.37299 15.0883
9.39915 9.04154 16.6036
8.44327 8.48675 18.7684
11.7422 8.68212 16.1882
12.2744 6.02771 11.8801
10.7262 7.48348 14.6534
9.59002 7.48113 15.051
10.8553 7.79854 16.9062
10.6809 8.25251 16.3316
9.65641 7.45294 14.7029
10.3532 9.00667 17.3271
8.44031 6.78667 17.3187
10.779 8.01188 14.7795
11.5081 9.0834 18.4548
11.4294 8.08156 16.8865
10.7507 7.6861 16.3315
9.38546 8.32602 15.4045
8.75645 8.32217 16.5294
6.99536 6.89587 16.0961
9.84607 8.56435 16.7688
12.0759 7.63958 16.291
12.8033 8.17561 16.823
12.4334 7.76149 15.7824
10.5455 7.1536 14.9023
8.55429 6.96624 13.6937
8.24784 7.26884 16.6447
8.49874 9.72494 19.838
8.49745 8.34685 18.8391
9.86592 8.50623 17.7773
9.99976 7.9693 15.8325
11.1819 8.98899 18.6755
10.5951 8.21107 18.6629
10.5122 9.66077 18.6587
10.1437 7.72633 18.8389
9.37727 9.23511 18.5473
9.44208 8.91646 19.9924
10.6769 9.42987 18.3571
10.48 8.40284 17.1396
10.4829 8.03122 18.4763
11.7933 8.06018 16.8811
10.3078 8.7553 18.3159
8.36509 8.58577 19.0035
7.66313 7.698 16.8197
7.91912 8.0223 18.7878
9.45722 8.88069 18.7855
10.3184 7.04429 14.9709
11.116 7.49581 16.9892
11.3508 7.55392 16.2128
11.5568 9.44969 20.7017
9.32957 7.76337 19.561
8.85766 8.12878 15.5754
7.19318 7.03828 16.1267
9.19293 8.72402 19.7173
9.11481 8.42344 17.5629
10.2001 8.36199 19.0624
8.73901 7.10544 15.6977
10.0324 8.8116 19.8848
8.75181 6.6494 15.9583
8.23399 7.72698 16.0087
6.60951 8.05587 18.3898
8.1806 7.4385 16.8269
9.64543 8.69105 18.3405
11.2196 8.14876 16.636
9.36544 7.19061 18.3031
9.74017 9.58031 22.2318
8.15203 7.22474 17.2635
8.46806 6.88387 15.4346
7.21056 7.77654 19.6822
8.76195 9.65479 19.0589
7.58507 8.38469 20.5901
10.5494 8.86191 19.9521
10.3059 8.32477 18.6023
10.3451 8.21807 18.2878
10.3471 8.19434 17.5976
10.1502 9.6928 21.8233
7.86702 9.66008 22.6393
7.82533 9.0142 20.4186
7.81154 7.6175 16.9364
8.08532 8.18822 20.9973
10.4354 9.26168 20.9994
9.11466 7.48357 18.7761
10.5203 8.50682 20.1507
7.78243 8.4974 18.5411
8.47253 8.9709 19.6842
7.85141 8.18584 20.9353
8.54258 7.03223 18.2007
8.93139 9.23487 21.1621
8.68461 7.7163 18.0578
9.93884 8.55696 20.0193
10.5421 8.28117 18.7726
8.38469 8.1427 20.5977
7.99343 9.42955 22.2752
8.08969 9.17486 21.9284
7.67234 8.02928 19.1215
9.25477 8.03069 19.8559
9.41393 8.7344 20.2669
9.97371 7.97653 18.316
9.86764 8.5953 23.2614
11.1604 9.80434 21.7703
8.83108 7.98681 18.6066
7.38843 8.87402 21.6884
7.69691 8.5134 21.1742
8.26533 9.22376 22.5011
9.23399 9.35359 23.62
9.41716 8.39774 18.5556
8.37964 7.52651 19.7811
8.62264 7.92141 18.808
7.93853 9.01999 20.2724
6.81353 7.23685 17.9276
6.51347 8.1581 20.89
