# pn-170911/RbIIR-48-RbIIR-1280-1959.psd
# Power spectrum* (dif=0,1,2) (really just |FT|^2)
# NOTE: only the first half! (symmetric)
# weeks: 1280-1959
# 3292 clock-days, 108 excluded
# PSD: 1441
337.53 0.10457 0.0446486
36734.1 0.864222 0.0495657
135949 2.80367 0.0492006
33750.9 1.2953 0.0477602
77964.8 5.984 0.0484514
12286.2 1.17605 0.0487404
9990.16 1.44052 0.0470408
6157.68 1.13958 0.0476826
5466.72 1.38411 0.048078
3851.46 1.1506 0.04685
3315.61 1.24107 0.0479267
2652.63 1.20205 0.0481949
2315.44 1.24905 0.0510383
1933.66 1.23102 0.0495129
1728.43 1.31281 0.0479493
1470.26 1.26984 0.0509131
1384.69 1.40062 0.0506719
1221.24 1.40979 0.0510239
1127.66 1.46086 0.0500735
1023.03 1.46242 0.0512337
979.826 1.55723 0.0519492
895.169 1.56467 0.0504803
852.815 1.6608 0.0523799
810.232 1.74393 0.0519506
755.722 1.74955 0.0523284
719.802 1.81259 0.0539904
667.725 1.86648 0.0544896
653.069 1.95001 0.0525527
641.156 2.07498 0.0563143
605.212 2.10054 0.0566309
599.64 2.28844 0.0590113
572.188 2.29592 0.0603777
563.282 2.43267 0.0609369
546.139 2.53467 0.0608685
550.907 2.70691 0.0649436
529.941 2.7871 0.0649815
506.592 2.81159 0.0684706
499.577 2.93256 0.0677515
491.661 3.08639 0.0703625
494.648 3.23114 0.0707973
474.523 3.29815 0.075517
461.512 3.41869 0.075499
464.323 3.56268 0.0780671
468.14 3.76019 0.08292
467.949 3.94957 0.0852983
436.693 3.91114 0.0839734
436.894 4.09175 0.0913245
436.862 4.24914 0.0912442
444.773 4.5509 0.0990384
415.71 4.51628 0.100381
433.54 4.85287 0.110086
415.353 4.84576 0.108974
420.086 5.07525 0.114532
406.388 5.16794 0.121118
420.737 5.46698 0.126186
409.885 5.59238 0.12706
390.528 5.53591 0.132456
398.922 5.83474 0.13858
401.752 6.14166 0.146775
384.585 6.08454 0.146507
395.857 6.45844 0.152163
386.857 6.5426 0.164871
389.526 6.80129 0.176129
380.558 6.83757 0.179152
376.246 6.99128 0.186146
378.594 7.3031 0.195251
384.455 7.61971 0.208253
381.892 7.82688 0.217474
363.75 7.54385 0.219125
361.683 7.85564 0.227104
355.263 7.96622 0.232938
345.628 7.9601 0.233836
361.019 8.64816 0.263368
351.057 8.67949 0.273061
342.197 8.65364 0.277129
348.037 8.99206 0.290176
347.913 9.30624 0.306895
345.672 9.3889 0.312214
348.935 9.77035 0.33324
326.235 9.31049 0.321199
325.549 9.60995 0.343734
332.554 10.0344 0.363395
338.089 10.4039 0.383959
327.387 10.3535 0.388415
321.099 10.4535 0.399255
325.535 10.8799 0.424014
321.352 11.0092 0.436435
316.109 11.0327 0.441651
303.341 10.8729 0.446754
313.646 11.4128 0.480556
314.086 11.7069 0.496502
307.659 11.7686 0.507699
310.692 12.1695 0.537553
292.222 11.7302 0.522102
297.554 12.0971 0.555695
298.725 12.452 0.575315
346.256 14.8962 0.697485
302.969 12.9988 0.626614
280.835 12.447 0.619837
279.358 12.6463 0.634179
293.161 13.6269 0.700203
285.5 13.434 0.690302
291.053 13.9499 0.737978
280.018 13.7863 0.735578
281.225 14.1009 0.775334
285.063 14.4169 0.795812
269.999 14.0868 0.807406
272.019 14.4982 0.830179
271.901 14.6344 0.85362
270.566 14.795 0.890037
260.986 14.6551 0.887439
263.32 15.0873 0.933674
258.983 15.1903 0.948799
262.818 15.6544 0.987861
278.104 16.7902 1.0864
252.642 15.5298 1.02339
257.15 16.0777 1.06695
257.014 16.3499 1.09944
253.163 16.3076 1.12982
252.988 16.7685 1.18816
253.815 16.8731 1.1952
254.403 17.329 1.24853
239.116 16.4617 1.20672
246.573 17.3858 1.28341
258.145 18.4044 1.37211
249.737 18.2808 1.40443
242.128 17.8793 1.39829
240.289 17.9267 1.4024
233.989 17.7056 1.42096
235.001 18.0661 1.45592
231.259 18.0057 1.49067
239.219 19.1575 1.61999
228.697 18.6199 1.57961
235.065 19.2303 1.63506
232.229 19.3465 1.68262
227.108 19.1765 1.69743
228.496 19.6201 1.76296
219.618 19.0647 1.72883
228.082 20.1686 1.86463
222.069 19.8621 1.85978
229.654 20.8014 1.97281
217.601 20.0631 1.92667
215.37 20.0809 1.94897
218.712 20.8832 2.0693
220.728 21.2103 2.12491
217.868 21.3405 2.1601
210.477 20.8667 2.14481
215.163 21.628 2.24808
213.008 21.6384 2.29314
217.471 22.3734 2.37663
212.65 22.3609 2.39698
213.364 22.4906 2.45089
197.212 21.0692 2.32844
206.934 22.53 2.54845
203.393 22.453 2.54052
211.105 23.5126 2.70228
200.152 22.5015 2.61506
202.107 23.1228 2.71714
199.438 22.9739 2.72188
199.684 23.3984 2.82665
198.209 23.6607 2.89493
200.019 24.1062 3.01291
193.181 23.4656 2.93904
196.585 24.2027 3.0722
199.29 24.7219 3.16324
192.771 24.4357 3.17021
183.072 23.4595 3.08795
189.359 24.7288 3.27998
186.242 24.318 3.2713
189.028 24.8694 3.35525
187.318 25.0269 3.43998
186.083 25.1446 3.51477
190.421 26.0572 3.66048
182.881 25.3545 3.59303
181.874 25.5741 3.68112
185.574 26.628 3.8753
180.262 25.7824 3.79279
181.922 26.2634 3.90348
180.633 26.4238 3.97354
180.05 26.5429 4.00461
176.018 26.2474 4.00962
177.089 26.75 4.12143
169.858 26.2842 4.12547
177.969 27.6344 4.39832
174.125 27.1433 4.35732
171.803 27.4578 4.47852
173.903 27.8306 4.53905
169.289 27.1806 4.46856
168.179 27.6187 4.65676
173.108 28.4965 4.78981
170.909 28.5719 4.87487
168.104 28.5885 4.97625
193.38 33.0118 5.71149
162.578 27.8782 4.89524
168.838 29.6095 5.29614
165.92 29.1538 5.21869
163.808 28.8625 5.21221
161.617 28.9768 5.30242
161.925 29.6168 5.4673
159.996 29.3321 5.50122
151.634 28.1195 5.36601
156.153 29.0401 5.54963
157.241 29.5632 5.68765
159.041 30.2775 5.86802
161.59 31.2446 6.09707
153.17 29.7716 5.87132
158.997 31.17 6.20823
153.729 30.3014 6.10043
154.516 30.8236 6.25797
151.814 30.8433 6.37055
154.208 31.2185 6.47435
154.991 31.767 6.5904
144.017 30.0836 6.37278
148.767 31.2497 6.69299
146.457 31.1582 6.74157
149.651 32.1068 7.00723
148.629 31.7478 6.92254
145.68 31.5788 6.96595
144.666 31.9383 7.11397
143.051 31.779 7.1739
141.826 31.7264 7.25627
141.473 31.8465 7.24594
144.84 33.0549 7.63468
140.316 32.002 7.44595
138.298 32.2386 7.57627
139.74 32.322 7.61756
137.414 32.4727 7.79889
139.448 33.1858 8.06328
142.528 34.0395 8.2589
140.812 33.8824 8.29393
134.163 32.6019 8.03521
137.248 33.7685 8.4439
135.108 33.5894 8.46897
137.067 34.2015 8.68799
132.359 33.4204 8.53597
137.261 34.9195 9.02933
132.06 33.7374 8.77455
131.845 33.7617 8.8137
128.732 33.6559 8.90752
131.15 34.7855 9.34167
132.377 34.9195 9.34412
126.918 33.8112 9.13476
127.564 34.3146 9.34203
127.659 34.9678 9.69358
127.362 34.7211 9.60921
129.656 35.7098 9.99632
125.016 35.1216 9.97357
125.026 34.7684 9.84823
124.813 35.3931 10.1354
122.424 34.7889 10.0604
125.147 35.949 10.4628
126.49 36.7891 10.7824
121.882 35.5114 10.472
125.373 36.6511 10.8993
123.883 36.5496 10.8893
121.303 36.4207 11.024
120.973 36.2303 11.0406
120.499 36.4446 11.1681
118.009 36.1186 11.1552
119.031 36.8314 11.523
117.097 36.4092 11.4926
119.26 37.2337 11.7475
118.932 37.2766 11.8948
117.662 37.4723 12.0771
114.348 36.449 11.8017
117.244 37.669 12.2089
113.811 36.8631 12.0611
115.061 37.7006 12.4595
110.434 36.3616 12.1509
115.398 38.0302 12.7034
111.29 37.2322 12.6598
114.972 38.1193 12.7701
109.735 37.3693 12.9291
111.545 38.1572 13.2216
113.707 38.7766 13.4372
108.457 37.5598 13.2023
114.454 39.8096 13.9027
105.143 36.7828 13.094
109.501 38.5654 13.7243
108.036 38.3101 13.6934
104.708 37.8714 13.8334
106.572 38.0836 13.8459
106.745 39.0358 14.3961
106.939 39.0287 14.455
105.37 38.6955 14.3427
107.661 39.5873 14.7469
105.767 39.9643 15.2565
104.443 39.46 15.1908
127.959 47.8154 17.8317
102.143 39.1077 15.1925
101.002 38.749 15.1689
102.079 39.1088 15.1869
100.509 39.1891 15.474
101.817 39.6274 15.5979
100.939 40.0032 16.0588
97.1538 38.4735 15.439
97.302 38.4797 15.4118
97.6269 39.1034 15.8277
96.6451 39.1191 15.9951
95.3003 39.0025 16.1677
97.5607 39.7018 16.4572
99.1198 40.9387 17.0103
96.849 40.2981 16.9184
97.3602 40.5166 17.0299
97.2783 41.1605 17.4715
93.2599 39.5471 17.0244
98.4624 41.6609 17.7853
92.587 39.9481 17.5179
93.7046 40.3523 17.67
93.4072 40.3243 17.7127
95.8338 41.4848 18.2001
93.6125 41.195 18.2626
93.5765 41.2662 18.4545
93.1964 41.5431 18.6021
90.3475 40.3062 18.153
93.4863 41.8508 18.9576
87.94 39.8357 18.2889
90.7661 41.2636 18.8535
88.2202 40.5563 18.9031
88.4014 40.5543 18.7085
83.8342 39.2929 18.705
89.178 41.3614 19.43
85.8098 40.1525 19.1134
87.4196 41.2101 19.6797
87.9256 41.7275 19.9461
85.7544 41.0607 19.8795
85.1909 41.0424 19.9739
86.3566 41.757 20.4111
86.3434 41.8993 20.5453
86.2789 42.2502 20.8784
82.9636 40.8984 20.3794
85.4195 42.2006 21.0322
87.3538 42.829 21.234
81.7648 41.156 20.9717
81.7993 40.8394 20.7243
82.5112 41.9727 21.54
77.6221 39.5857 20.4452
80.6913 41.0197 21.1522
80.8042 41.7229 21.7382
81.1164 41.8493 21.958
80.3005 41.5715 21.6098
78.6035 41.1404 21.8206
82.4086 43.3786 23.0415
79.2944 42.0316 22.6081
78.5777 41.5326 22.3485
78.4078 41.745 22.5451
79.5203 42.5785 22.9501
76.5731 41.8513 23.0457
77.817 43.1444 24.0591
79.0365 42.7907 23.552
76.9812 42.078 23.3374
76.7024 42.3963 23.7465
78.5244 43.6224 24.4549
76.321 42.2072 23.6433
73.0485 40.7485 23.0525
74.287 42.2981 24.2942
75.6453 43.1312 24.7818
74.403 42.9851 25.1828
76.4732 43.2852 24.8031
70.8293 40.8828 23.9021
73.7152 42.7949 25.0234
73.5646 42.6611 25.0967
73.0602 42.8556 25.4489
73.7149 43.0856 25.5237
74.5468 44.5507 26.7149
73.1251 42.9005 25.5594
70.3892 42.3799 25.6467
70.6657 42.9363 26.3105
71.2255 42.496 25.804
71.4966 43.3392 26.3539
69.6044 42.8621 26.5276
70.9401 43.9597 27.3419
67.1122 41.4705 26.0095
68.4385 42.4288 26.6433
69.614 43.8966 27.8953
70.7469 44.1753 27.9208
70.6282 44.3179 28.1649
67.2592 42.6787 27.4393
68.0084 43.0216 27.5606
66.7107 42.9903 27.9465
67.2164 42.8954 27.6961
64.8176 41.7832 27.4152
64.5604 41.9286 27.7548
68.0858 44.4905 29.7165
80.2983 52.2871 33.5267
65.7707 43.4744 29.0124
64.4243 42.9613 29.0027
65.899 43.3203 28.9318
64.5792 43.1932 29.2822
65.0189 43.6814 29.7392
64.6984 43.9478 30.1407
66.2866 44.8591 30.7236
62.3598 42.1095 28.9905
64.3447 43.9651 30.2841
62.1268 42.7515 29.9921
65.2784 44.3693 30.5079
61.3647 42.935 30.342
62.4504 43.4832 30.644
61.5496 43.0197 30.3537
60.195 42.3121 30.1646
61.8982 44.0149 31.5356
60.8858 43.0347 30.8736
61.3348 43.5616 31.1767
58.5788 42.2845 31.1782
60.8008 43.9199 32.083
60.724 43.8405 32.0308
59.4729 43.1397 31.8669
60.9862 44.386 32.5444
60.1368 44.1747 32.746
58.7476 43.0275 31.9845
58.8759 43.22 32.0273
58.6401 43.8264 32.9586
57.4192 43.0678 32.5853
58.0981 43.6782 33.0763
57.0028 42.9742 32.89
57.4106 43.4438 33.1323
56.7066 43.3584 33.6492
56.4679 42.4203 32.3821
56.0367 42.6662 32.7229
55.528 43.355 34.1015
57.9553 44.7511 34.8702
57.6658 44.9632 35.393
56.7734 44.2482 34.5722
53.9823 43.2105 34.8975
55.928 44.1528 35.3338
53.978 42.9526 34.874
56.7979 44.5216 35.2113
54.5982 43.836 35.5621
53.9515 42.9599 34.7891
53.5661 42.8834 34.7962
51.759 42.0363 34.6409
52.1775 42.4363 34.9834
54.6796 44.6749 36.7226
51.795 42.0993 34.7757
53.1289 43.8802 36.4094
52.0175 43.1446 36.3663
52.5731 43.2152 35.9743
50.7071 42.3637 35.6666
51.2029 42.9213 36.4711
50.1163 41.9764 35.6066
50.7011 43.3023 37.291
51.4347 43.0264 36.7047
52.1782 44.4479 38.1279
51.3577 43.6146 37.5672
50.6347 43.4553 37.7249
50.4866 43.5352 37.9332
51.3207 44.3085 38.5068
49.8712 43.8142 38.8632
49.6651 43.1446 37.8957
49.0977 43.2367 38.3878
46.7561 40.7501 36.1854
49.3756 43.9175 39.3031
49.98 44.9381 40.6514
49.3308 44.1627 40.4155
51.1212 46.8325 43.758
48.3444 45.5203 48.7973
117.769 101.217 80.0502
48.3969 44.3508 41.9103
52.4119 47.9178 43.8977
47.2764 42.9073 39.8043
48.5442 44.6185 41.3491
48.9972 45.1426 42.1946
46.9082 43.0405 40.1484
45.9605 42.4607 39.653
46.0695 43.1325 40.8678
44.4994 41.2322 39.0266
46.6124 43.9379 41.7362
46.479 43.8951 41.8662
45.7589 42.874 40.9139
47.4956 45.2299 43.0942
45.3809 43.2299 41.9996
46.4011 44.146 42.2447
44.7143 42.8633 41.2903
43.1466 42.1072 41.5365
44.4177 43.2448 42.9866
45.2556 43.3852 42.2943
43.5422 41.9565 41.0594
42.9924 42.0638 41.6607
44.2488 43.5425 43.2796
42.7758 42.9069 44.7543
55.4935 54.3014 51.7545
43.7988 43.5435 43.6568
42.3667 42.2972 42.9725
43.8283 43.9838 44.3118
41.7782 42.2632 43.6034
43.693 43.6774 44.4294
43.0822 43.7357 44.9339
42.9023 43.1397 43.7776
42.3709 43.588 45.2672
42.2318 42.8767 44.0722
41.9206 43.0449 44.5079
39.3787 40.6903 42.8318
41.685 43.1598 45.2742
41.706 42.5779 43.9146
40.9746 42.8272 45.1296
40.7921 43.5416 46.8085
41.5736 43.2752 45.6647
39.2829 41.8271 45.3946
39.9685 41.8716 44.8888
40.543 42.5035 45.0198
39.4817 41.8536 45.2565
40.0102 42.5554 45.911
38.9627 41.8041 45.7322
39.6956 41.8693 45.1659
40.1236 43.2821 47.081
39.5722 42.9189 47.0088
38.7205 42.0664 46.2994
39.0337 42.7892 47.1917
38.8205 42.5932 47.2541
39.5586 43.2487 47.752
38.7346 43.0083 48.183
38.6204 42.3709 47.1616
37.453 41.8978 47.5966
38.0825 41.5346 46.1714
37.623 42.4778 48.126
37.3875 42.0242 47.7106
37.5798 42.3365 47.9551
37.0666 42.3826 49.1115
37.2696 41.872 47.7881
36.8987 41.7844 47.6969
36.8792 42.764 50.0389
36.8775 41.532 47.6256
37.07 42.6064 49.1989
36.142 41.7007 48.3989
35.3734 41.1233 48.2153
36.0412 42.0848 49.8277
36.3048 41.8558 49.3662
36.0044 41.7877 49.1033
35.5085 42.2873 50.818
35.4813 41.4383 49.2434
34.3982 40.4057 48.4446
35.8133 42.5353 51.1465
36.7986 43.8905 52.3687
35.3468 42.1554 50.8606
35.3035 42.1453 50.7519
35.4486 42.9313 52.3385
35.1121 42.4382 51.9543
34.6812 41.3456 49.5951
34.1906 42.5299 52.8891
33.4337 40.7252 50.9726
34.2359 41.6279 51.8601
34.4004 41.7206 51.2714
33.3344 40.8494 51.377
34.5094 41.9757 51.5666
33.9217 41.7541 51.6422
33.5917 41.932 52.317
33.8212 42.2474 53.0908
32.8079 40.9202 51.6351
32.2331 40.3221 51.2876
32.7944 40.9341 51.8429
32.0217 40.2018 51.1494
32.1657 40.7158 52.1229
31.5038 39.9362 51.344
32.0076 40.672 52.1828
32.0408 41.0594 53.067
31.5181 40.5487 52.9353
32.0381 41.1395 53.64
31.6457 40.312 52.4469
31.9765 41.3491 53.7228
31.4376 41.4797 55.1879
32.1642 41.3751 54.0078
31.9479 41.6476 54.7406
31.4855 41.039 53.8531
31.1117 41.3088 54.6361
30.4199 40.5442 54.9868
31.562 41.9406 56.2418
30.6795 40.7696 55.0365
29.9375 39.3292 53.0588
30.8057 41.2067 55.8833
30.4391 40.0239 53.825
30.777 41.5132 55.817
29.3097 40.0446 55.5627
29.9222 39.7842 54.3461
30.0814 40.5793 54.9443
29.1599 40.0502 56.3643
30.0211 41.6944 60.8394
38.1607 50.51 65.2016
30.3389 40.9193 56.0167
29.2618 40.8135 57.2255
29.9454 41.5062 57.6644
29.3211 40.526 57.0947
29.6309 40.7212 56.6498
28.4283 39.6973 56.2912
28.0376 39.3097 56.6748
29.4072 40.905 58.0905
29.0248 39.9895 56.3224
29.0472 40.2666 56.4307
28.7785 40.6028 57.6059
28.7061 41.2798 59.7543
28.2137 39.5779 56.5396
26.7716 38.2828 55.8174
27.8632 39.723 57.2789
27.1307 39.1038 57.7338
28.2255 39.7435 57.0791
28.1114 40.4843 58.6873
27.8988 40.4276 58.7016
26.932 39.0774 57.7945
27.7959 40.2463 58.7416
26.7268 39.0129 57.8098
26.8849 39.0315 57.4407
26.3577 38.3474 57.3317
27.6455 40.6438 59.4136
26.3422 39.3432 59.5014
26.5591 39.1589 59.382
26.9273 39.2539 58.7411
26.7299 39.6834 59.8519
26.7896 39.5067 59.351
26.5712 39.2269 58.5201
25.7287 38.2984 58.2707
25.9325 38.8176 58.8941
25.77 38.5232 58.9313
26.053 38.9192 58.5794
25.4049 38.7521 59.9668
26.2314 39.8521 61.1861
25.5076 38.8811 60.3595
25.4982 38.1443 58.0803
25.2628 38.8707 59.9048
25.1956 39.0769 61.042
24.5788 37.776 59.4961
25.4128 38.9788 60.4791
24.3509 37.5649 58.9734
24.433 38.2025 60.4654
24.4531 38.2989 61.6203
25.2919 38.4457 60.1321
25.1846 39.53 61.9799
24.1415 38.1268 60.9129
24.119 38.0464 61.2165
24.3707 38.0734 60.6705
23.6871 37.1295 59.3523
23.6408 37.26 59.9096
24.0301 38.0187 61.0122
23.982 38.082 61.5502
23.6533 37.5629 60.7702
23.4221 37.774 61.7367
23.5176 37.1992 59.8587
22.7135 36.346 59.125
23.6142 38.7482 63.5539
23.3099 37.0675 60.1617
23.4144 38.3002 62.4383
22.527 36.7521 61.2553
22.671 36.3108 59.8772
22.9601 38.0373 63.3858
23.5482 38.5355 63.3205
22.8985 37.7436 62.9758
23.0157 37.8412 63.2377
22.9636 38.3138 64.4372
23.0225 38.2452 64.2115
22.5551 37.0078 61.6438
22.1193 36.9148 62.7708
22.2038 37.2484 62.9772
21.3339 35.6198 61.0687
22.3511 37.2791 63.6779
22.8754 38.4272 64.8419
22.162 37.308 63.5747
21.7662 37.0449 64.3514
22.6263 37.7789 64.2259
22.3507 38.0261 65.4835
21.5175 35.5931 60.9871
22.2478 38.2767 65.1522
21.3866 36.9979 64.5466
21.2898 36.5753 63.8365
21.3947 36.6743 64.3108
21.6936 37.0233 64.6014
21.723 37.4563 65.0023
20.9125 36.5431 64.7386
21.2769 36.3478 62.8417
20.7357 36.7244 64.743
20.8166 37.0434 66.9114
21.3189 36.89 65.6677
21.6319 38.4198 67.8236
20.8676 36.8077 66.5665
20.7666 37.717 73.7688
27.8884 47.0381 75.7197
21.1089 37.4363 67.0075
20.7329 36.96 66.4576
20.5074 36.7215 66.6171
20.7277 37.4416 67.8313
20.3104 36.072 65.2965
20.0766 36.2556 66.2031
20.0024 36.0433 67.0453
20.8348 36.8552 66.125
19.5377 35.2457 64.6838
20.1002 36.3081 66.1413
19.9947 36.3265 66.1206
19.4044 35.2462 65.1235
19.284 35.361 66.4765
19.9398 35.8894 65.5868
19.5795 35.8925 65.8593
18.5266 34.364 65.3247
19.603 35.7626 66.7899
19.3907 35.3152 65.7669
19.4551 35.9536 66.6491
19.2426 36.1885 67.8844
19.0619 35.4069 66.5916
18.873 35.6034 68.3845
19.0504 35.3604 67.7616
19.4062 35.5121 66.6793
18.6652 34.7343 65.9907
18.8738 35.0937 66.0999
19.0187 36.0113 68.0856
18.5987 35.4095 67.9571
18.325 34.0597 65.3936
18.603 35.4575 67.7623
18.5533 35.6061 69.3453
18.8679 35.5184 67.7314
18.5118 35.7577 69.2781
18.2388 34.1477 65.3105
17.4133 34.0621 68.2551
18.484 34.83 66.7261
17.5299 33.9868 67.5945
18.5438 35.5278 69.2762
18.3678 35.5756 69.6773
18.2448 34.8024 67.2803
17.8659 35.3166 69.4207
17.4448 33.9561 68.1891
17.5671 33.7625 66.8182
17.6746 34.6177 68.5237
17.1075 32.76 65.2822
17.3343 33.9683 67.9101
17.7757 35.2254 71.4076
18.3518 35.525 69.4157
17.4291 34.3418 69.0043
17.4097 34.6271 69.9464
17.594 34.7173 70.2489
17.3164 33.7624 67.1967
16.9831 33.952 68.5537
17.2265 34.5777 70.0283
17.1256 33.9251 68.0789
16.6391 33.8285 69.6057
17.2841 34.5391 69.2708
16.5514 33.6672 69.0636
16.503 33.1458 68.6351
16.7292 33.7155 68.9663
16.4825 33.4252 69.0962
16.5281 33.6425 69.2817
16.5843 34.0427 71.5426
16.8735 34.1783 70.5721
16.5428 33.3278 68.8147
16.2318 33.1363 69.726
16.7484 33.9927 69.5272
16.4275 34.1004 70.9987
16.5161 34.1221 71.2165
16.1536 33.4355 71.3123
16.47 33.4559 69.7206
16.3136 33.835 70.6596
15.6667 32.2935 68.815
16.0185 33.4231 70.9349
16.1016 32.5254 67.1153
15.9223 34.2045 71.4749
15.362 32.798 70.678
15.6881 32.9342 70.7925
15.5304 32.0838 68.4772
15.5916 32.8762 68.7526
14.9021 31.9264 69.9927
15.7427 32.7962 70.6097
15.8729 33.3213 70.0272
15.0945 32.1976 69.7527
15.5893 33.5227 71.3702
14.9727 32.3593 71.5407
15.133 31.4258 67.99
15.1221 32.2671 69.2434
14.606 31.8204 70.5932
15.2359 32.1167 68.9959
14.6021 31.8394 69.8612
14.8721 32.4701 71.7997
15.158 32.7214 71.3113
14.7312 32.1684 72.1683
14.8182 32.9121 81.5886
20.0749 41.3579 80.6081
15.1799 33.1632 71.113
14.2227 31.6078 70.8455
14.3081 31.023 69.8085
14.773 32.2535 71.1351
14.8126 32.6858 71.3625
14.3646 31.9333 70.7422
14.172 32.0937 73.358
14.6078 32.3191 72.7589
14.6087 32.3875 74.0815
15.1368 33.3324 73.8205
14.2898 31.3116 70.9016
14.3167 32.2247 73.9852
14.9501 32.7927 71.915
13.9391 31.6328 71.9444
13.9655 31.4047 72.4271
14.045 31.1825 71.4898
13.8618 30.825 70.9513
14.089 31.6647 71.3105
13.7611 31.4377 73.5475
14.3738 32.3844 74.2152
14.1797 31.803 73.0479
14.0064 31.2579 71.6883
14.1295 31.7594 70.8195
13.4926 31.5506 73.1833
13.7908 30.7769 70.5908
13.7456 32.4389 75.0215
13.591 31.2141 72.716
13.5668 31.5641 73.7966
13.234 30.2736 72.2982
13.667 30.9672 72.4433
14.0557 33.4926 79.4487
13.6761 29.9668 69.4352
13.0187 29.9408 71.3757
13.2489 30.4479 70.979
13.3555 30.3938 68.8626
12.5557 30.7903 74.1007
12.9863 30.2125 73.7566
13.2599 30.036 70.4754
13.0003 30.3974 72.3338
12.7737 30.0692 72.59
12.8097 29.1491 69.6541
12.8087 30.1116 71.4405
12.6656 29.9715 72.4328
13.1415 30.8206 72.8976
12.5281 29.2182 70.5727
12.6768 30.3078 74.5318
13.3217 30.9345 72.8354
12.821 31.018 74.7816
12.8413 30.2877 72.2509
12.2531 29.0749 71.3874
12.9717 31.3123 74.4217
12.1932 29.2627 72.5693
12.4758 29.8677 74.0561
12.6172 29.5033 71.2699
12.4139 30.1654 74.4941
12.4621 29.3044 71.4866
12.2037 29.2566 71.5384
12.5643 30.9907 75.7929
12.575 30.266 73.2786
12.1181 29.7039 74.9311
