# pn-170911/RbIIR-av-AMC2-1280-1959.psd
# Power spectrum* (dif=0,1,2) (really just |FT|^2)
# NOTE: only the first half! (symmetric)
# weeks: 1280-1959
# 8265 clock-days, 1796 excluded
# PSD: 1441
840.143 0.0914235 0.0457504
30056.1 0.64446 0.0883571
141690 2.948 0.0889039
18998.3 0.661581 0.0892883
44064 3.27168 0.089992
6206.1 0.560653 0.0898059
5573.63 0.761638 0.0866904
3260.55 0.557433 0.0891347
3614.47 0.908836 0.0874911
2029.59 0.571716 0.0879691
2048.02 0.767174 0.0857022
1399.62 0.599891 0.0865161
1476.31 0.80528 0.0886357
1068.19 0.651864 0.0902475
1163.34 0.879006 0.0914269
857.993 0.71288 0.0863352
974.147 0.992878 0.0873476
727.479 0.803606 0.0883866
850.464 1.12768 0.088558
646.46 0.907328 0.0862602
735.874 1.22199 0.0928102
590.897 1.0327 0.0905963
705.179 1.42668 0.0932443
542.549 1.15365 0.0912369
650.593 1.56927 0.0946648
508.594 1.31211 0.0929743
602.305 1.7501 0.0948575
477.353 1.4601 0.0940221
570.737 1.90917 0.0963212
478.901 1.71982 0.0970277
548.225 2.14899 0.0992225
459.934 1.87177 0.097184
516.543 2.31223 0.101735
442.064 2.0928 0.100844
501.156 2.54641 0.101575
430.444 2.31049 0.102773
500.585 2.85596 0.107001
423.89 2.52032 0.105214
458.492 2.93247 0.107658
412.993 2.78269 0.109621
452.536 3.22605 0.113744
407.96 3.0429 0.111116
460.106 3.6524 0.11881
406.41 3.35417 0.119968
417.157 3.62262 0.119391
389.961 3.55745 0.123999
419.54 3.98589 0.129429
385.406 3.83172 0.12825
432.673 4.49949 0.138053
376.99 4.09345 0.134356
389.14 4.4076 0.138574
372.458 4.39708 0.144632
402.305 4.95348 0.152169
371.484 4.74638 0.153118
381.977 5.11464 0.161031
350.275 4.80824 0.160286
377.399 5.41299 0.171316
351.244 5.23819 0.166499
375.92 5.78741 0.181672
344.42 5.48062 0.179263
358.865 5.93189 0.187146
336.078 5.73065 0.187136
352.953 6.23805 0.201028
330.421 6.02532 0.203091
335.541 6.3107 0.207514
329.815 6.40491 0.216318
340.672 6.83172 0.227702
317.504 6.56197 0.22611
314.076 6.68901 0.23335
313.528 6.81829 0.241382
316.988 7.16217 0.256487
295.003 6.8723 0.246192
323.414 7.74945 0.274214
294.891 7.244 0.266823
299.726 7.60052 0.286439
280.795 7.28111 0.279556
296.708 7.86384 0.298252
276.414 7.57714 0.299946
296.075 8.30413 0.321636
275.119 7.90238 0.316361
276.987 8.25113 0.336524
258.952 7.86236 0.327899
262.728 8.17174 0.345857
262.584 8.31776 0.350166
272.36 8.84497 0.371828
251.138 8.35451 0.368922
252.664 8.63734 0.387751
245.332 8.58317 0.388395
248.069 8.90415 0.403635
244.243 8.96605 0.423209
243.775 9.09359 0.428784
246.796 9.39379 0.446937
242.344 9.53384 0.465108
228.722 9.10299 0.451061
229.765 9.30279 0.47248
219.875 9.15283 0.474613
295.382 12.7488 0.625762
221.249 9.61436 0.504815
220.558 9.82676 0.530742
216.75 9.81096 0.535114
223.897 10.3288 0.567471
212.541 10.0573 0.56855
230.193 11.1228 0.623761
207.268 10.1964 0.588209
200.751 10.0363 0.586157
200.334 10.208 0.612758
206.533 10.7762 0.641657
195.706 10.4234 0.639288
200.644 10.8219 0.671855
188.588 10.4124 0.662489
199.12 11.1247 0.713523
185.886 10.5864 0.691165
181.716 10.6262 0.70519
186.615 10.9999 0.72889
201.585 12.1556 0.816738
184.517 11.2863 0.767995
175.957 11.012 0.778082
173.275 10.9611 0.772119
177.08 11.4109 0.820542
175.226 11.4914 0.843394
188.861 12.5616 0.923389
178.934 12.0811 0.907425
163.6 11.3374 0.866803
168.175 11.8235 0.915455
167.43 11.8975 0.937267
167.46 12.2236 0.971565
179.943 13.2655 1.05472
164.939 12.2243 0.988491
161.728 12.3544 1.02322
158.275 12.1616 1.02019
160.707 12.5731 1.0789
163.167 13.0254 1.11943
170.589 13.7142 1.18192
153.178 12.4791 1.10221
152.674 12.6917 1.13988
150.511 12.7163 1.15408
148.625 12.681 1.16756
151.056 13.1601 1.22862
148.81 13.052 1.23451
144.25 12.9513 1.2416
147.355 13.4392 1.30539
141.482 12.9259 1.27111
139.951 13.0059 1.28505
142.432 13.4983 1.35718
150.762 14.6587 1.49923
142.476 13.6573 1.39929
134.269 13.1903 1.37801
141.253 14.1223 1.49985
134.615 13.7829 1.48485
133.231 13.6555 1.4842
146.495 15.2213 1.6642
135.653 14.2863 1.58593
132.849 14.1145 1.57652
124.08 13.4304 1.53756
129.488 14.1838 1.63982
128.686 14.4224 1.70144
138.064 15.5222 1.81812
127.338 14.4714 1.71619
125.405 14.4651 1.74019
119.523 13.9754 1.72038
122.504 14.5043 1.79199
131.67 15.8377 1.98685
121.96 14.7041 1.84677
120.261 14.8097 1.89534
119.692 14.917 1.93497
120.186 15.1089 1.97793
116.805 14.8906 1.96848
120.24 15.5464 2.09084
123.254 16.2008 2.19308
118.885 15.5616 2.12384
114.088 15.1693 2.09716
114.861 15.5184 2.16489
113.755 15.6341 2.2176
112.351 15.5652 2.24071
117.344 16.351 2.34522
113.132 16.0557 2.34691
111.717 15.8969 2.34421
106.883 15.4664 2.3261
108.152 15.8956 2.40753
104.007 15.4433 2.36968
113.775 17.06 2.61098
106.019 15.9957 2.47359
105.585 16.2314 2.56421
104.852 16.1845 2.57672
103.304 16.1511 2.61263
107.893 17.1515 2.79973
108.393 17.2417 2.82671
101.732 16.4211 2.70726
103.19 16.8513 2.8305
103.101 17.0386 2.88353
102.134 17.0032 2.91931
99.8345 16.9545 2.95661
136.708 23.3079 3.96676
100.517 17.127 3.01601
94.4772 16.4419 2.93043
97.7101 17.1915 3.09001
96.1954 17.0103 3.07631
95.6214 17.0192 3.0938
100.469 18.2871 3.40072
94.7793 17.2936 3.24581
92.7026 17.0611 3.21934
96.5806 18.0392 3.43965
93.8716 17.6607 3.38865
92.5378 17.7493 3.48607
101.544 19.3561 3.7582
92.2975 17.824 3.51402
92.6316 18.0879 3.59825
87.8982 17.2744 3.4855
90.6956 17.9778 3.64096
90.391 18.3411 3.78062
92.2351 18.6914 3.85086
86.9474 17.8796 3.76282
86.669 17.9702 3.78827
88.4091 18.5986 3.97954
85.6964 17.9602 3.88806
88.4178 18.9776 4.11818
89.8688 19.2523 4.19967
88.9903 19.2057 4.19775
84.1033 18.4117 4.11956
85.4699 18.8673 4.23419
84.7498 18.9936 4.32969
83.727 18.7851 4.2754
88.7078 20.2214 4.67035
85.7599 19.4461 4.48698
79.734 18.4916 4.38122
81.991 18.8298 4.41572
82.4455 19.218 4.56331
81.0984 19.3168 4.67363
84.7366 20.3251 4.94654
81.8328 19.4603 4.71325
80.0778 19.4439 4.76594
77.5715 19.0903 4.77433
77.5959 19.1539 4.79865
80.2898 20.2134 5.15268
82.0504 20.4979 5.20958
76.3248 19.425 5.0198
78.1248 19.9913 5.17807
75.7502 19.4938 5.10314
75.8953 19.6207 5.18982
76.7407 20.3373 5.45112
79.9554 20.9388 5.58381
75.985 20.178 5.45245
76.2107 20.3974 5.55782
73.6073 20.1059 5.56688
74.5269 20.2222 5.57583
72.6456 19.9558 5.57243
76.6367 21.1873 5.91835
72.6506 20.4442 5.85409
74.3445 20.9005 5.97212
72.6515 20.5577 5.89821
72.0546 20.6612 5.98247
69.2851 20.1453 5.95111
73.6721 21.416 6.31909
71.605 21.0374 6.27028
70.4475 20.5496 6.11559
70.2484 20.9272 6.33467
68.7237 20.5607 6.21555
71.3186 21.8277 6.75126
71.5354 21.5751 6.62292
69.1128 21.0733 6.51887
67.9344 21.019 6.56073
67.9995 21.038 6.61394
67.4556 21.1128 6.72484
68.1061 21.6336 6.9675
70.8178 22.4289 7.19511
66.2987 21.1165 6.82408
66.2149 21.4766 7.03278
65.6091 21.4019 7.04313
63.2533 20.8302 6.96689
66.476 21.8894 7.29309
66.4896 22.2788 7.54665
65.3991 21.7362 7.30958
62.8887 21.3166 7.32918
62.9298 21.4034 7.36667
62.9549 21.5213 7.45274
61.1325 21.1604 7.45558
64.6352 22.3378 7.80225
62.2132 21.6129 7.66487
63.3521 22.198 7.88034
62.2061 21.9252 7.83109
61.4625 22.1247 8.03222
62.2556 22.3751 8.16683
62.1476 22.5162 8.27597
59.8606 21.8282 8.0839
61.8644 22.7358 8.42885
58.4471 21.4419 8.05485
59.0344 21.9077 8.36057
59.3984 22.5303 8.84134
88.7693 33.0484 12.1816
59.0985 22.3783 8.61827
57.5702 21.9414 8.53623
57.9728 22.4053 8.81837
58.7124 22.466 8.79284
59.7068 23.3127 9.19717
58.5001 22.8853 9.08704
57.2282 22.5748 8.99288
55.9623 22.2756 8.989
58.0469 23.056 9.24978
55.7217 22.4682 9.18846
56.1683 22.838 9.4197
57.3233 23.2882 9.57621
55.7928 22.8496 9.50568
55.2635 22.7753 9.53344
54.7038 22.7263 9.56545
55.2615 23.1419 9.76708
54.1747 22.8399 9.80682
54.9257 23.1792 9.92532
53.3022 22.6023 9.74432
53.9201 23.1714 10.0709
52.2246 22.481 9.83424
51.8294 22.5881 10.0262
52.0602 22.6451 10.0311
53.9344 23.6301 10.4796
52.8331 23.3216 10.4929
51.5924 22.9417 10.3203
51.7957 23.1798 10.5252
51.0627 22.9003 10.4235
51.7323 23.3533 10.6755
51.6908 23.7297 11.0395
51.4185 23.4666 10.8645
50.0092 23.1008 10.8016
49.6019 23.0885 10.8911
50.4068 23.5303 11.1282
49.548 23.1212 11.0106
50.2393 23.7367 11.3317
48.1646 22.9857 11.1108
48.3222 23.0205 11.1931
49.2796 23.5991 11.3696
48.5111 23.5833 11.6289
48.022 23.3317 11.5064
48.8883 23.9825 11.8744
49.0668 24.2068 12.0384
48.1158 24.0049 12.1186
47.8371 23.6951 11.9023
47.4038 23.7694 12.1026
47.7443 23.9814 12.2214
48.2159 24.3951 12.4432
46.528 23.8158 12.3822
46.4475 23.7714 12.3125
45.8951 23.6132 12.3482
46.1101 23.9043 12.6115
45.607 23.8523 12.6273
46.5841 24.4039 12.917
45.5969 23.8993 12.7426
45.3582 23.8511 12.7458
44.6551 23.8493 12.9262
43.8406 23.4059 12.724
44.3427 23.8155 12.9426
44.1097 23.973 13.1371
44.3352 24.1251 13.3154
43.9062 24.0613 13.395
44.2072 24.3547 13.644
44.5702 24.6496 13.8273
43.6733 24.1722 13.6232
43.3283 24.1032 13.5997
43.053 24.1819 13.7567
43.334 24.5036 14.0348
42.7942 24.3253 14.026
42.7142 24.5811 14.2678
41.5865 23.8138 13.9176
42.0609 24.1253 14.013
40.5291 23.4822 13.8385
41.5046 24.3582 14.4809
41.2256 24.1805 14.4055
41.6645 24.6354 14.8251
40.9805 24.3114 14.6364
41.746 24.6915 14.8509
40.1442 23.8999 14.4676
41.0199 24.7805 15.1197
40.7501 24.7077 15.1618
40.1973 24.4526 15.1007
39.8606 24.2491 15.0009
40.5504 24.9209 15.4845
39.2879 24.3348 15.2749
39.8567 24.9612 15.8071
39.5983 24.6376 15.5748
40.5473 25.4349 16.136
39.0943 24.5667 15.6496
37.8111 24.1466 15.6621
39.1478 24.8962 16.0529
37.9503 24.2267 15.7508
38.1173 24.3138 15.7878
37.659 24.4519 16.1257
38.0831 25.0301 17.145
53.6833 34.6003 21.7155
38.2776 25.2348 16.8874
37.5352 24.7457 16.5805
37.6823 24.9737 16.7906
37.4434 24.8101 16.7759
37.3745 24.8183 16.7432
37.25 25.0807 17.1325
36.984 24.9266 17.0823
36.3177 24.4939 16.7431
36.523 25.0246 17.3508
36.2397 24.6821 17.0457
35.9664 24.8999 17.4288
36.4644 25.2281 17.6811
36.0317 25.1156 17.7448
35.4199 24.6226 17.4997
35.651 24.988 17.7947
35.9628 25.1295 17.8339
35.0454 24.7266 17.7186
34.6972 24.8737 18.0504
35.2325 25.0473 18.0496
34.6394 24.763 18.0202
34.0682 24.7421 18.2649
34.8278 25.1277 18.4279
33.8715 24.4035 17.9873
34.339 24.982 18.4951
34.9923 25.4882 18.8564
33.096 24.4925 18.4364
34.0413 25.12 18.8284
33.4071 24.8095 18.6587
33.7037 25.2323 19.1286
32.5865 24.5142 18.7864
33.2813 25.0827 19.162
32.6203 24.7082 19.0457
33.7848 25.6283 19.7522
32.9076 25.0296 19.3351
31.801 24.41 19.165
32.9093 25.2543 19.7393
32.474 25.0552 19.6792
32.8732 25.5421 20.1981
33.0997 25.6257 20.0992
32.5855 25.5509 20.2632
31.823 25.0947 20.1374
32.6262 25.6882 20.4676
31.5471 25.0702 20.1748
31.3999 25.0306 20.2739
31.316 25.2033 20.5322
30.7165 24.7251 20.2729
30.659 24.8246 20.4632
31.3279 25.4142 20.9178
31.0117 25.0104 20.6061
30.7431 25.1808 20.9306
30.3256 24.9054 20.8444
30.3067 24.9099 20.7466
30.1147 24.9802 21.0288
30.1715 25.2479 21.3655
29.4956 24.5548 20.8174
28.981 24.2731 20.7553
30.1701 25.2875 21.5607
29.8229 25.279 21.7053
28.9322 24.4542 21.0572
29.7293 25.4668 21.9636
28.4028 24.5528 21.6018
28.5873 24.4633 21.3563
29.0779 25.1026 21.9998
28.8541 24.972 21.9913
28.1951 24.6924 22.1331
28.8405 25.0732 22.1736
27.9507 24.4007 21.6925
28.4122 25.1014 22.4639
28.4504 25.1654 22.7447
27.6206 24.3514 21.9792
27.9239 24.9567 22.7935
29.4345 26.1603 23.5899
28.4981 25.6359 23.2935
27.7952 25.313 23.3603
26.8655 24.3299 22.5379
27.5502 24.832 22.8479
27.4754 25.0788 23.2577
27.5978 25.1892 23.3422
26.9972 24.8447 23.2901
27.7772 25.496 23.6888
26.3834 24.5551 23.2847
26.6644 24.8386 23.5561
26.6895 25.0173 23.924
26.9425 25.2887 24.1634
26.3536 24.7174 23.6364
26.1513 24.6932 23.7753
26.346 24.8896 23.9434
26.2636 25.02 24.2042
26.2705 25.4252 24.9623
25.8915 24.5349 23.9415
25.3602 24.2969 23.7813
25.5437 24.6736 24.2392
25.8228 25.1495 24.8113
25.3543 24.7644 24.9231
25.8843 25.7119 27.1028
36.3493 34.7884 32.2214
25.7562 25.7315 26.1673
25.4176 25.002 25.108
24.9057 24.7576 25.1263
24.9643 24.9371 25.4533
25.5181 25.157 25.3788
25.1054 25.2207 25.6873
24.5071 24.7218 25.4548
24.5084 24.7206 25.4786
24.7007 24.9441 25.5066
23.9998 24.7416 25.7995
24.1172 24.7657 25.9662
24.0822 24.8235 26.0988
24.1682 24.636 25.6607
24.1349 25.0873 26.474
24.0246 24.7873 26.1999
24.0155 25.04 26.6396
24.2388 25.2775 26.8466
23.7716 24.7677 26.3554
23.6998 25.1488 26.9851
23.7652 25.1412 27.0132
23.3736 24.7557 26.6313
23.1893 24.7069 26.8339
22.9126 24.4794 26.6524
23.1846 24.7875 27.0544
23.2592 25.1051 27.5705
23.1962 24.9444 27.3409
22.9542 24.8052 27.1558
22.7782 24.8995 27.7203
22.7423 24.7371 27.4288
22.4524 24.6837 27.5028
22.7008 25.0514 28.1412
22.4556 24.5519 27.4662
22.2704 24.6257 27.7295
22.1297 24.5147 27.6165
21.826 24.3075 27.4713
22.1339 24.9178 28.6236
21.9679 24.5297 28.2024
22.199 24.6969 28.1005
21.6879 24.3092 27.8167
21.7491 24.6476 28.425
21.6404 24.6406 28.5368
21.6326 24.8 28.9624
21.8083 24.8961 28.8265
21.4538 24.6511 28.8077
21.2026 24.5022 28.906
21.5448 24.9756 29.34
20.8934 24.1475 28.5998
21.2105 24.6377 29.0711
20.7332 24.0588 28.4883
20.8744 24.3456 29.0358
20.6293 24.2035 28.8627
20.6603 24.5608 29.5708
20.7326 24.4133 29.3487
20.6135 24.5912 29.8758
20.8351 24.7689 29.9684
20.3359 24.2407 29.6048
20.3584 24.1973 29.3642
20.2366 24.6522 30.349
19.6419 23.8051 29.8162
20.0879 24.1225 29.7811
20.6889 25.0477 30.8603
19.6534 23.7136 29.5232
19.4341 23.6089 29.2839
19.8174 24.2084 30.0895
19.6186 24.3682 30.5718
19.502 24.1342 30.4587
19.3986 23.8205 30.1264
19.5499 24.1192 30.3153
19.1933 23.7049 30.1267
19.3949 24.1627 30.4343
18.8574 23.7951 30.7114
18.852 23.7634 30.6526
19.0562 23.8678 30.623
18.8814 23.9147 30.7258
18.6061 23.5986 30.7752
18.8175 24.0136 31.4036
18.7955 23.7909 30.8084
18.8794 24.3112 31.6667
18.7258 24.2659 32.0255
18.6129 23.5958 30.92
18.7583 24.2385 32.0471
18.658 24.1103 31.6759
18.2296 23.7935 31.6403
18.2444 23.8946 31.9622
18.0545 23.3702 31.2315
17.9986 23.7205 31.9396
18.1237 23.7565 31.8891
17.8466 23.3379 31.2039
17.8576 23.8142 32.5586
18.2639 24.3316 32.9343
18.1344 24.21 32.925
17.8853 23.7495 32.438
17.5989 23.4832 32.3387
17.6335 23.9564 33.3209
17.6318 24.6272 37.2323
25.4743 32.9351 40.7041
17.7909 24.3737 33.8557
17.377 23.6504 33.057
17.2449 23.5547 32.941
17.3343 23.8397 33.6965
17.3139 23.49 32.9469
17.5785 24.1023 33.4318
16.492 22.8185 32.3189
16.8959 23.5237 33.5044
17.0182 23.3825 33.0971
16.9616 23.7098 33.7588
16.7739 23.3117 33.2055
16.7794 23.3071 33.1819
16.8465 23.7778 34.1078
16.4977 23.329 33.879
16.4629 23.0349 33.1444
16.3807 23.1229 33.3011
16.0738 22.9659 33.8016
16.2503 22.8881 33.2081
16.1419 23.1866 34.0207
16.3241 23.4251 34.3449
16.1734 23.1505 34.0129
16.0475 23.0016 33.8997
15.789 22.878 33.983
16.0637 23.1575 34.1282
16.1159 23.6138 35.1822
15.8858 23.0079 34.5369
15.8079 22.9709 34.3987
16.2182 23.4935 34.8446
15.7551 23.1848 34.9914
15.7153 23.1269 34.8595
15.7548 23.1061 34.6193
15.4661 22.9835 34.6817
15.2338 22.705 34.6102
15.1734 22.6278 34.7902
15.5872 23.2657 35.547
15.4267 22.9853 35.1966
15.5105 23.269 35.4728
15.149 22.6948 34.9982
15.3912 23.3436 35.8875
15.0259 22.7808 35.4945
15.0866 22.8162 35.7351
15.0974 22.8281 35.211
14.5443 22.3165 35.0257
14.7654 22.422 35.0662
14.6356 22.2917 34.9804
14.7291 22.6075 35.6491
14.794 22.7895 36.031
15.2272 23.4898 36.6169
14.5626 22.7823 36.2226
14.2222 22.0119 35.45
14.6279 22.7495 36.1738
14.5382 22.581 35.6261
14.2784 22.5068 36.3105
14.5373 23.059 37.488
14.6532 22.7926 36.3431
14.134 22.4699 36.49
14.1819 22.1687 35.9195
13.9934 22.1685 36.0106
13.9472 22.2918 36.4534
14.4458 23.231 38.0101
14.197 22.4549 36.6058
14.088 22.4716 36.9293
13.844 22.2049 36.5573
13.8236 22.3464 36.842
13.6673 22.0497 36.5479
13.9936 22.8414 37.7209
13.2532 21.5063 36.0798
13.6071 22.0325 36.3742
13.0541 21.2994 35.9134
13.3626 22.0528 37.1846
13.5481 22.4074 38.0665
13.5469 22.0532 37.0061
13.3921 22.0606 37.2729
13.2304 21.7127 36.9793
13.2709 21.9336 37.4073
13.1748 21.817 37.4469
13.4598 22.0702 36.9582
13.0058 21.8533 37.5967
13.2516 22.1956 37.9684
13.0966 22.0364 37.9742
13.0262 21.7141 37.5316
13.2641 22.5447 39.0093
12.8654 21.7107 37.9615
13.0478 21.8376 37.8425
13.0165 21.9903 38.2337
12.9448 21.944 38.1369
12.9005 21.8835 38.0397
12.6203 21.7562 38.4458
12.684 21.5922 37.7255
12.4981 21.8155 38.7885
12.4104 21.3202 37.9548
12.4973 21.6178 38.3625
12.399 21.3475 37.9118
12.305 21.6403 39.4179
12.3276 22.0972 45.1672
18.4529 30.5667 47.4283
12.3554 21.6818 38.4176
12.0066 21.314 38.4845
12.056 21.2885 38.5523
12.0762 21.3346 38.6614
12.0756 21.3468 38.8575
12.2114 21.5075 38.8156
12.1102 21.6013 39.6098
12.1163 21.3339 38.9201
12.0136 21.1819 38.5008
12.0186 21.545 39.3867
11.923 21.3547 39.264
12.0095 21.6393 39.9785
11.8635 21.1831 39.5029
12.1125 21.633 39.3611
11.6023 20.9331 39.1217
11.7574 21.0688 38.6877
11.435 20.992 39.8056
11.9196 21.3191 39.3488
11.5126 20.6689 38.3279
11.3553 20.791 38.6886
11.3098 21.0863 39.9287
11.4056 20.9752 39.6478
11.5255 21.2186 40.3511
11.58 21.0945 39.6584
11.2163 20.7037 39.2764
11.2257 20.914 40.0436
11.3679 20.9482 40.0602
11.2372 20.5945 39.3042
11.4544 21.3139 40.4541
11.3826 21.3891 40.778
11.0412 20.4266 38.9082
10.9997 20.8164 40.481
11.1839 21.1337 40.5673
10.8206 20.3635 39.6504
11.0087 20.9118 40.6093
11.0262 20.7891 40.246
10.8365 20.4109 39.7463
10.8139 20.5251 40.0748
10.9973 21.6315 43.7386
11.3153 20.866 40.1033
10.6229 20.2417 40.0144
10.7621 20.5807 40.4743
10.7609 20.4097 39.947
10.5153 20.2992 40.3136
10.5841 20.3467 40.1667
10.4292 20.2797 40.615
10.696 20.8884 42.4345
10.9762 20.7211 40.4524
10.2974 19.9541 39.8404
10.4891 20.5012 40.8831
10.2534 20.0314 40.3569
10.374 20.3817 40.9231
10.389 20.4038 41.2008
10.3603 20.4176 41.028
10.0318 19.6672 40.1882
10.1741 20.0876 41.0787
10.1946 20.0102 40.412
10.0219 20.1314 41.4033
10.0243 19.5064 39.5955
9.85806 19.8775 40.9857
9.92859 19.8258 41.1762
10.0122 19.7154 40.6244
9.9692 19.7424 40.6074
9.75712 19.5268 40.5589
9.94467 20.0766 41.4468
9.72932 19.5287 40.9133
9.75255 19.4929 40.5064
9.85754 19.6442 40.5504
9.58185 19.4367 40.8549
9.67517 19.4076 40.5121
9.6548 19.8468 41.9037
9.79544 19.6336 40.8748
9.53443 19.4222 40.7654
9.52565 19.3629 40.4387
9.40488 19.4077 40.969
9.17978 18.8607 40.7187
9.39653 19.4527 41.6959
9.49684 19.3415 40.7614
9.41916 19.602 41.8288
9.2796 19.0106 40.5647
9.24421 19.1255 40.9068
9.33162 19.4742 41.6318
9.1174 18.92 40.9457
9.28478 19.2766 41.1052
9.0811 19.1939 41.3274
9.05415 19.1537 41.526
9.01223 18.7975 40.6383
8.87741 18.8963 41.4048
9.01139 18.9755 41.2689
9.14003 19.5365 42.5265
9.03895 19.0672 41.0621
8.73577 18.8737 42.5037
9.10083 19.1976 41.9654
8.7571 18.8893 42.5367
8.79938 19.7077 51.4735
13.3537 26.5489 48.8953
8.72179 19.1896 42.8912
8.81648 18.657 40.9396
8.53934 18.4965 41.3058
8.86122 19.0689 42.18
8.76868 19.0426 42.2495
8.70017 18.6818 41.5296
8.55063 18.62 42.0096
8.65193 18.6625 41.5643
8.55403 18.7133 42.5021
8.68548 18.758 41.7109
8.45282 18.4215 41.8023
8.5338 18.5507 41.9599
8.52024 18.4262 41.6115
8.37651 18.4559 42.2835
8.4647 18.3512 41.5267
8.55717 18.7276 42.0325
8.3105 18.3952 42.3403
8.44734 18.6339 42.4345
8.3087 18.1365 41.6352
8.32713 18.4869 42.0921
8.23751 18.3433 42.1756
8.23123 18.193 41.5991
8.12356 18.1133 41.4448
8.00023 18.0846 42.1851
8.04991 17.8162 41.2889
8.08592 18.1547 42.3458
8.09586 18.0542 42.0311
8.19123 18.458 42.9401
8.2056 18.253 42.5146
8.05827 18.1623 42.0722
7.94765 18.0268 42.4391
8.03659 18.1001 42.3986
7.95537 18.0214 42.106
7.89138 18.0495 42.5742
7.88078 17.6917 41.9108
7.89099 17.9685 42.0423
7.77401 17.7805 42.1105
7.81414 17.8761 42.5437
7.77946 17.5827 42.4367
8.00535 18.1319 42.6514
7.79454 17.8039 42.1484
7.69888 17.645 42.091
7.62211 17.4575 41.89
7.71052 17.9994 42.9021
7.5699 17.4514 42.4181
7.74108 17.8461 42.5648
7.58811 17.6184 42.0124
7.5025 17.7223 43.2116
7.60887 17.5555 42.4674
7.61442 17.7747 42.477
7.37074 17.4588 43.4822
7.60963 17.5712 42.4203
7.52216 17.6167 42.8337
7.42348 17.3952 42.5162
7.49321 17.7895 43.3576
7.46 17.5238 42.4958
7.44391 17.7259 43.1644
7.27362 17.0427 41.9795
7.29543 17.3872 43.0882
7.45568 17.5472 42.7101
