# pn-170911/RbIIR-58-AMC2-1280-1959.psd
# Power spectrum* (dif=0,1,2) (really just |FT|^2)
# NOTE: only the first half! (symmetric)
# weeks: 1280-1959
# 298 clock-days, 220 excluded
# PSD: 1441
976.499 0.0966577 0.0820726
30534.2 0.34133 0.156517
287935 6.28415 0.168914
10046.5 0.431968 0.178369
80999.6 6.26332 0.16879
4953.97 0.521417 0.151841
6181.35 0.968519 0.184749
2159.25 0.468648 0.171205
2824.28 0.822559 0.177923
1636.41 0.542579 0.164909
1377.04 0.633972 0.168084
1175.7 0.637354 0.159339
972.964 0.635935 0.17426
971.582 0.699766 0.166745
787.807 0.708294 0.174727
691.943 0.731596 0.169547
702.462 0.755229 0.176163
643.264 0.764475 0.173366
588.805 0.896745 0.188635
576.13 0.918335 0.167502
522.548 0.959289 0.193686
501.657 0.950616 0.161955
521.187 1.0778 0.172601
439.249 1.04526 0.16516
463.846 1.22255 0.188747
459.823 1.31222 0.174831
429.453 1.33776 0.168848
357.971 1.23096 0.193379
418.003 1.40904 0.166807
418.596 1.51153 0.18958
370.023 1.47681 0.169134
395.632 1.7421 0.190089
343.037 1.52886 0.163896
340.692 1.64849 0.18315
312.25 1.7408 0.172341
379.749 2.08637 0.163667
324.756 1.94569 0.184159
340.143 2.11706 0.1793
283.709 1.84836 0.182579
338.217 2.35955 0.200651
301.04 2.24146 0.184424
314.896 2.45241 0.19076
291.146 2.39354 0.187355
273.823 2.40594 0.209638
276.296 2.43809 0.185164
316.397 2.97095 0.215035
289.61 2.7773 0.199303
276.969 2.86575 0.206771
289.797 3.09184 0.186527
296.978 3.24052 0.220678
261.051 3.06031 0.213266
277.61 3.36555 0.228691
297.296 3.74881 0.217392
277.075 3.55909 0.230308
271.243 3.60412 0.210034
289.872 4.05195 0.244889
268.249 3.90756 0.244729
272.079 4.20686 0.216639
297.524 4.58713 0.245123
232.572 3.90429 0.252331
258.253 4.17026 0.241285
264.829 4.56123 0.243043
247.849 4.59151 0.2771
233.477 4.3335 0.261276
213.24 3.97785 0.275552
215.435 4.17592 0.245199
238.381 4.75792 0.266514
242.777 5.25519 0.25474
222.365 4.82151 0.244489
220.908 4.92426 0.312925
246.157 5.56891 0.309238
214.012 4.94449 0.281838
206.449 4.99343 0.324797
257.361 6.40239 0.333197
230.876 6.03737 0.333018
226.986 5.84328 0.326259
240.173 6.33589 0.319201
207.992 5.81604 0.365082
231.607 6.64138 0.365341
181.551 5.24725 0.31915
228.55 6.64491 0.378895
215.732 6.6131 0.373709
214.273 6.596 0.37539
224.611 7.22389 0.419246
221.894 7.30569 0.374203
211.421 7.23079 0.433364
208.653 7.15193 0.442671
195.131 6.98914 0.422787
200.212 6.93722 0.412436
197.273 7.31115 0.478655
189.761 7.0222 0.436188
174.606 6.82465 0.439919
176.79 6.98728 0.465873
170.92 7.11626 0.437246
187.99 7.71372 0.479474
175.706 7.66555 0.487895
218.335 9.5389 0.578425
196.219 8.36584 0.543604
214.825 9.8139 0.606759
172.618 7.80631 0.544125
180.92 8.2632 0.535154
176.782 8.29808 0.572085
178.019 8.86415 0.599464
164.976 8.0821 0.590807
158.651 7.64173 0.557485
154.75 7.96951 0.588657
167.952 8.87136 0.616707
160.971 8.61445 0.613435
150.808 7.97347 0.574024
156.002 8.76882 0.664435
150.52 8.33313 0.676376
155.454 9.19603 0.654595
147.173 8.45467 0.66768
160.377 9.57678 0.677708
153.335 9.30184 0.770226
159.324 9.83045 0.740275
149.157 9.50761 0.796434
164.637 10.706 0.776883
153.13 9.86643 0.794438
146.947 9.34811 0.755186
155.206 10.6526 0.866969
166.131 11.5425 0.930391
137.711 9.57664 0.807773
136.852 9.72738 0.856669
134.238 9.46377 0.827842
152.683 10.8689 0.952832
171.472 12.9199 1.11321
127.776 9.60449 0.821822
136.047 10.6829 1.00731
147.083 11.6868 1.10733
140.664 11.0505 1.07998
134.373 10.7436 1.05487
140.669 11.2407 1.06136
124.253 10.215 1.01472
123.192 10.1283 1.00349
128.049 10.5333 1.02618
125.288 10.468 1.02601
125.994 11.1415 1.12098
124.916 11.0411 1.11184
112.576 10.3038 1.06145
134.33 12.15 1.28771
121.814 11.2409 1.20454
119.394 11.2903 1.18955
120.565 11.6351 1.28609
121.213 11.9093 1.32774
134.961 13.3308 1.46367
122.409 11.9638 1.34697
128.706 12.6069 1.46896
130.731 13.6077 1.49842
131.183 13.5561 1.56187
130.388 13.5609 1.54279
128.075 13.4331 1.59669
139.293 14.4472 1.70217
106.773 11.5228 1.38273
98.9095 11.0915 1.37309
110.03 12.2736 1.59441
124.373 13.8335 1.71174
107.035 12.3517 1.5525
111.666 12.6885 1.55607
106.656 12.2801 1.6083
100.256 11.8172 1.50426
125.349 15.1789 1.97558
112.384 13.4014 1.73307
118.483 14.4357 1.83669
107.383 13.4411 1.79867
112.861 14.7432 2.12302
117.149 15.1291 2.11374
117.965 15.098 2.11408
117.75 15.1355 2.1641
106.751 14.4344 2.05302
102.689 13.6496 1.94394
99.9829 13.3276 1.84742
105.194 14.3377 2.06367
103.123 14.4834 2.13151
105.146 14.4902 2.11235
105.004 14.7269 2.19023
122.861 17.8325 2.66871
98.6236 14.1832 2.17607
112.426 16.8355 2.59911
96.1542 14.3852 2.25606
118.808 17.941 2.82298
102.19 15.1496 2.38901
100.883 15.2182 2.4184
106.702 16.5884 2.73729
101.036 15.8097 2.69388
93.8781 14.9981 2.52414
97.7895 15.2721 2.66254
97.7564 15.6857 2.58309
96.0397 15.8021 2.68128
103.23 17.0443 2.95611
98.7798 16.5914 2.96364
95.7054 16.3338 2.95647
96.9476 16.6267 2.92747
90.8812 15.7638 2.84053
91.2778 15.6331 2.85777
98.3015 17.8511 3.3573
91.4217 15.7283 2.91903
86.2669 15.3293 2.85347
97.5057 17.4021 3.26941
91.8131 17.5194 3.45978
91.09 16.636 3.14132
98.3292 18.6502 3.65868
96.1465 17.9459 3.51194
94.6175 17.7813 3.47185
102.748 19.3295 3.83901
89.4312 17.6696 3.59463
92.3961 17.9857 3.65149
91.9079 18.042 3.85312
107.137 20.9129 4.09068
98.4143 20.4384 4.2121
88.5453 18.1159 3.77496
80.1375 16.8505 3.73048
94.1858 18.7293 3.95546
93.4395 19.7 4.34138
87.4651 17.9635 3.8391
92.2391 20.1706 4.5309
95.6251 20.0969 4.31286
95.1483 21.1271 4.74156
76.1032 16.7057 3.81664
88.5895 19.6313 4.53613
87.0027 19.0653 4.28755
81.2637 18.4835 4.31945
80.5521 18.5461 4.3166
81.6985 18.6668 4.3649
75.7435 17.2915 4.06933
88.4332 20.5799 4.89189
84.092 19.7696 4.69682
85.1468 20.4268 4.8499
82.2545 19.0452 4.48111
76.4126 18.0491 4.33921
81.1764 20.1874 5.17757
84.1673 20.6721 5.07103
75.0798 18.8289 4.80586
77.3123 19.8548 5.18117
80.0456 19.6919 4.93962
74.5378 18.8722 4.92366
73.6714 19.1007 5.03048
81.2936 21.1307 5.60086
85.377 21.648 5.63135
83.0655 21.5069 5.86956
81.9277 21.0662 5.64964
84.5658 22.2117 6.14579
79.3803 21.1952 5.6973
76.8155 21.1891 5.88435
77.1732 21.4909 5.97971
84.6628 23.4436 6.54694
73.976 20.6408 5.7171
74.2856 21.3465 6.32264
91.9382 25.3304 7.08261
81.2632 23.2333 6.74911
78.5068 21.8047 6.34068
77.3083 22.5074 6.7083
75.0382 21.6961 6.53092
80.3778 23.5921 7.14928
76.7976 21.7809 6.38882
73.7436 22.177 6.7688
72.3089 21.4935 6.46638
69.4832 21.8118 6.81604
80.2908 24.2415 7.54111
75.613 23.7263 7.40272
80.245 24.3548 7.51534
74.6206 22.9896 7.10432
81.5961 25.1197 8.09163
85.6444 26.9928 8.4997
94.7877 31.501 10.3251
64.6961 20.0254 6.44891
73.0173 23.8529 7.96966
68.3272 22.1028 7.10851
75.6695 25.6364 8.57482
68.0745 20.901 6.76802
71.4796 23.4005 8.00473
71.4146 23.637 7.96189
72.6138 24.6648 8.31171
62.7237 21.4011 7.56561
73.2441 24.9645 8.66196
70.4199 24.71 8.84163
72.8354 24.282 8.48723
76.8468 26.6122 9.308
76.8587 27.5465 9.71082
70.3438 24.9514 8.94239
67.4235 24.4279 8.94932
74.292 27.3034 10.2384
77.6219 27.108 9.64137
59.8126 21.9269 8.39678
69.3498 24.8009 9.32171
62.8861 22.7006 8.36895
64.516 24.4102 9.40902
65.1944 24.7492 9.90429
90.5367 33.382 12.4299
63.7314 24.69 9.78656
74.4282 27.527 10.4026
70.8942 27.4321 10.8856
76.7251 29.4788 11.7009
74.486 28.3922 11.0231
78.8962 30.5691 11.9943
78.3829 31.1824 11.9813
74.7511 30.6482 12.7545
81.45 30.2146 11.2199
71.7969 29.3212 12.371
74.7151 30.1264 11.7063
70.0439 29.7052 12.6696
76.0279 31.4293 12.9935
69.0326 29.2775 12.5376
70.4304 28.589 11.9012
76.5153 31.0794 12.9262
71.1171 29.7602 12.7161
68.7419 28.6492 11.981
63.1346 27.1621 11.6708
70.335 30.6947 13.5039
60.5291 25.6045 11.0932
60.5979 26.5047 11.9176
64.0707 26.9906 11.6939
67.4549 30.0492 13.4255
58.9425 25.8867 11.6051
62.0044 28.4192 13.0748
66.0553 28.2563 12.4508
68.074 31.5171 14.8677
69.3998 29.9487 13.2627
70.7869 32.9352 15.6336
64.3363 28.9144 13.12
62.5906 30.0404 14.2412
55.9721 25.487 11.9333
53.5808 24.9361 11.9358
56.0178 25.7136 12.0469
65.5247 31.5213 15.2867
58.819 26.9103 12.9421
60.6421 30.2766 15.0013
56.1131 26.1412 12.3268
63.5438 32.2633 16.2033
58.9352 27.3926 12.988
61.6716 31.0522 15.5777
65.5459 31.9667 15.6174
69.3064 35.5012 18.542
58.2619 27.6736 13.2926
61.6281 30.9965 15.412
57.5277 29.2147 14.8566
64.4449 32.6997 16.3936
53.9638 27.5939 14.5336
51.0992 26.35 13.8301
53.2219 26.9672 14.3488
60.8559 31.9946 16.8883
53.5984 28.0578 15.0648
60.059 31.2307 16.3923
54.8377 28.5128 15.2106
47.6101 24.1497 12.8748
52.6478 28.7002 15.9155
53.1025 27.7365 15.0164
57.3153 31.1932 17.1137
55.4928 29.5168 15.6491
56.7933 31.93 17.9389
57.1222 30.8084 17.185
61.3582 34.326 19.8473
60.9411 32.7165 18.156
62.7146 34.4434 18.8898
53.1697 30.5396 17.7527
58.8056 32.7969 18.4938
57.2113 32.4224 18.7219
61.0129 34.0105 19.6832
60.3741 34.7578 19.4846
50.5355 30.7421 18.6764
51.9167 29.2282 16.9276
49.6978 29.6689 18.1557
54.4091 30.9961 18.0612
55.4049 31.6575 18.5247
54.7536 33.0589 20.6242
52.4266 30.6224 18.9235
69.1328 38.5369 21.0755
57.0634 34.8286 21.6644
62.4321 38.9532 24.1286
55.1467 34.1694 21.501
52.745 31.8312 20.3085
56.1634 32.5736 19.5596
61.942 37.8388 23.4932
51.3994 31.0639 18.9367
58.5961 37.1095 23.5702
52.8453 33.7209 22.0187
56.4915 34.8042 21.4391
49.726 29.8352 18.3937
51.6394 32.8916 20.7782
47.2073 30.1698 19.5863
44.6869 28.5881 18.5783
48.5241 30.5707 19.8115
46.8734 30.1996 20.0952
48.528 31.4493 20.8197
53.3381 34.8364 23.2543
46.5678 29.4631 19.0807
45.1441 29.319 19.5537
46.534 30.5239 20.1238
47.9439 32.6171 22.2771
50.9455 33.5493 22.5038
44.3345 28.8783 19.2746
49.3431 34.625 23.8292
47.7603 31.7985 21.4968
46.5329 32.8156 23.0156
47.2387 30.8766 20.9026
49.4781 34.3091 24.4141
44.4825 30.496 21.3506
51.7698 35.6881 24.7615
45.5337 31.0142 22.2159
47.4483 33.375 23.9631
46.194 30.6564 20.8558
37.8283 27.3488 20.1594
40.039 28.5963 20.365
40.322 28.7285 20.8482
40.5986 29.1691 21.3476
41.2942 29.7782 21.9932
37.8547 27.0386 20.0451
42.7109 29.3116 20.9699
45.3823 33.0754 24.2898
47.3155 34.4533 25.0467
40.4228 30.3353 22.8163
42.7287 31.2495 23.4922
40.0201 30.6558 24.0875
43.1208 31.5703 23.4084
41.4926 31.8357 24.3149
40.2207 30.4531 23.4664
43.961 32.4953 25.3752
46.4988 34.0737 25.1463
41.3014 31.3914 24.2107
37.5673 30.7357 25.0753
42.4154 31.6741 24.7369
42.0913 31.7946 24.0838
38.038 29.6072 23.6914
42.6223 32.7008 24.9661
45.2369 35.1255 27.2245
44.2675 35.0222 27.9403
43.2995 34.6194 28.0232
41.7625 32.1988 25.6201
36.837 31.2623 26.5573
39.2672 31.347 25.6751
39.3454 30.9254 25.4474
37.8401 31.4412 26.3537
40.8013 32.0945 26.7399
38.0076 30.3424 25.736
42.7007 33.3224 26.5759
39.9321 31.7832 25.4513
36.4842 30.1396 25.7137
36.8261 29.414 24.2801
37.9927 32.5416 27.9069
35.7122 29.1805 25.0802
40.1911 33.8435 28.5892
42.2608 34.9529 29.3376
35.259 29.8433 25.7479
35.1338 30.5895 27.3265
38.8128 31.9421 27.2576
37.1876 32.3278 28.8595
35.674 28.9797 24.8468
40.772 35.7892 30.6082
38.8587 33.1861 28.9559
34.3926 30.2032 27.9222
38.9249 33.5284 29.8763
40.5255 34.0112 29.0622
33.8615 30.6951 28.6586
41.3062 35.8727 30.9266
36.9026 32.0932 28.9917
39.7497 35.4862 30.8349
38.7561 35.117 32.4612
39.1862 35.8063 33.0463
33.4647 29.8704 28.0862
31.955 28.4187 26.7346
38.4495 33.8537 30.5839
39.0504 37.3579 35.1745
34.5416 30.7276 28.655
34.6308 31.6172 29.2576
38.372 34.8856 32.739
33.8938 30.6134 28.5316
38.042 35.2783 33.5176
39.2583 36.6565 34.3418
39.452 37.9453 36.5396
37.942 35.3475 32.84
33.6164 32.8186 33.425
38.6935 36.3153 34.1248
37.0958 35.8542 34.7256
34.4506 33.6088 33.4263
35.7856 34.334 33.6069
35.9914 34.0159 32.8691
31.8462 30.6826 30.4009
37.0027 36.3092 36.3424
34.1919 32.0039 31.2137
29.2184 29.5709 31.8084
38.6175 35.1469 33.136
35.9424 36.3062 36.549
33.5468 32.2159 31.7298
34.7953 35.2404 36.0746
32.2616 32.7323 34.8841
33.1152 31.6667 32.6502
35.4584 34.2756 34.6423
36.2134 37.1018 38.012
35.9723 35.7818 37.0939
34.1221 33.9843 35.0283
32.9578 32.2041 31.8814
30.947 33.1055 35.4037
30.2825 31.4252 34.8345
33.4324 32.3965 33.2543
35.0374 36.3089 37.9091
30.5525 31.0013 33.6351
32.1424 32.9289 34.9061
37.7729 40.1276 42.2016
32.1531 33.1064 35.5555
35.0788 36.5813 39.499
37.6508 40.3395 42.8339
35.2914 35.8981 37.7086
33.5715 37.0525 40.8504
32.7355 34.5427 37.1381
31.5505 32.6538 34.5975
30.4011 34.2748 39.8954
33.0675 33.4992 36.0685
32.01 34.4819 36.168
29.9988 32.7503 36.1202
30.2997 34.4814 38.9129
29.6224 32.7171 36.9889
32.5121 35.6625 38.6597
27.177 29.8108 33.557
27.3458 30.0573 34.0288
30.7004 35.0499 40.9247
29.0727 31.2005 35.3545
29.8802 33.3079 37.7267
30.4181 34.2853 39.5349
26.3875 28.0307 32.0334
29.9963 33.6434 38.385
28.56 31.3883 36.6241
33.2147 37.3796 41.6282
26.4591 29.03 34.3936
29.2379 34.1602 39.6397
29.5639 32.8682 38.4676
29.0273 33.1536 38.6596
30.2226 34.9671 40.2567
29.5674 34.7797 41.826
31.8239 34.3413 37.7954
26.478 33.1888 40.6233
28.3691 33.1269 40.4689
28.5283 33.4957 40.6466
31.0436 35.9331 42.307
31.5081 37.7087 44.1747
28.2499 33.9765 41.2999
27.6729 32.8332 40.3307
30.0514 35.7928 43.6198
31.1782 36.918 44.5657
28.8436 34.821 43.0157
28.6489 34.9568 43.6565
24.5785 29.1965 37.6471
28.0097 34.4696 43.2248
27.9298 32.6422 39.948
25.1766 29.7194 36.8233
29.4157 36.162 44.6905
26.0807 32.6801 42.3124
29.0199 36.1956 45.7847
25.5978 29.3865 36.1782
26.8594 33.6165 41.1939
24.873 31.0467 40.6851
27.233 32.8809 40.2968
25.1283 30.658 39.3032
26.0572 32.7826 41.0544
24.5063 31.7987 43.2101
27.1134 32.9806 42.4792
30.6342 37.765 47.1896
30.8949 40.9248 51.996
24.9328 32.9009 44.3656
26.5222 33.8507 43.9893
28.1829 37.2694 50.517
28.1801 33.8573 42.5935
26.9481 35.6028 47.7546
28.6149 36.8403 47.9515
26.6213 33.8039 43.4928
24.4688 33.2414 45.1311
22.4588 28.5293 39.1056
23.5808 31.0799 42.3575
24.9328 31.611 41.5107
24.9503 32.8945 44.4018
22.8506 30.6475 42.3523
23.5405 32.0675 44.415
25.0282 34.6589 48.405
25.0932 33.2078 45.4281
25.3125 32.1259 43.2571
24.6877 33.5056 46.5374
25.0981 34.4567 49.6842
27.8977 34.6594 44.0644
24.9743 35.2842 49.0607
24.5475 33.3622 46.2398
25.0829 34.0528 45.447
22.6126 31.3332 44.2323
21.749 29.9287 44.3681
27.161 35.8874 46.8852
22.1418 31.6045 45.6902
22.841 31.2445 43.9699
22.5294 32.6102 47.4848
23.3878 34.255 51.6019
25.1716 33.6386 46.8126
23.5279 31.3539 43.8211
26.5674 37.5737 52.4237
25.3583 36.3382 52.8942
25.7443 36.8322 56.0141
26.4865 36.7991 52.191
25.1212 34.8566 49.5984
22.4145 30.0009 44.0935
24.6374 34.5009 48.0643
20.9155 31.3711 48.9637
23.3877 30.8543 43.0203
20.1127 29.1616 44.4695
22.2324 31.6047 47.4093
22.5437 32.8688 50.0673
23.1146 31.6857 45.1695
21.2261 30.4618 46.1437
21.6417 31.1153 47.194
22.6971 30.9874 45.1286
22.3214 31.1708 43.1472
21.2306 33.4035 52.5793
23.7764 34.8463 54.5257
25.2435 35.264 48.8114
22.7191 37.3428 59.9484
25.7369 38.819 61.603
25.9315 37.2526 56.7447
27.0838 39.4269 57.3398
25.4086 38.2006 59.2175
26.644 39.2741 61.1503
26.9688 40.0663 60.4726
25.5957 38.6039 59.5862
25.1298 35.5957 54.5637
23.4537 33.9318 48.0768
19.8839 33.7135 53.2401
21.7088 35.808 58.4066
22.8313 32.3932 49.8888
20.7988 32.4032 51.6097
21.7755 32.6433 50.5783
22.3811 35.6926 54.7737
19.95 32.1376 54.3241
21.5295 31.9534 50.9172
22.1117 33.9926 51.8675
19.2132 29.787 46.5911
19.0695 31.051 52.4061
20.3775 30.5217 50.1858
21.6461 34.1184 54.6103
19.9565 31.415 52.542
21.8706 34.0274 53.6926
20.4709 31.6319 51.7205
19.4587 30.7697 50.1703
19.5129 29.7243 49.03
23.3324 36.6391 56.1921
19.7362 32.7173 55.2237
20.2426 32.16 52.7902
18.8163 29.7395 48.7619
17.4726 28.2888 48.9845
20.3394 32.9693 55.953
19.6363 30.469 48.465
18.2196 30.4395 51.5594
18.636 29.7285 50.267
19.3301 30.3603 49.4545
18.4765 31.614 53.0152
18.0404 30.853 53.5781
19.6017 32.9166 56.8215
19.0561 31.5525 54.7683
19.2965 31.9274 56.1586
19.2952 30.8088 54.0831
21.1612 33.8152 54.8933
18.9365 30.8297 50.8193
17.3112 28.738 49.5659
17.6548 28.2445 46.9774
17.7474 30.4243 51.5357
18.6634 29.889 50.4264
17.7701 30.7934 53.354
17.0909 27.3051 47.3535
18.4777 33.4787 61.8353
18.7045 29.9769 52.3957
19.6621 33.5142 59.2867
19.1393 31.5188 54.8213
19.664 32.9775 54.9654
16.3856 28.348 51.7213
19.3157 33.8081 59.291
18.0805 30.751 55.8595
18.5329 30.9954 53.659
16.6158 28.7764 52.8714
18.6539 32.6109 58.882
18.9413 33.1729 58.1239
18.409 31.0112 52.4621
15.4156 27.9196 54.7422
18.453 31.3602 55.3808
16.7713 29.1966 55.1761
18.4727 31.0647 54.0552
16.7201 28.8553 53.1589
18.0522 31.9706 58.1452
18.2575 31.9159 59.5109
18.0561 30.7075 54.5335
16.5668 28.1419 47.8089
13.8104 27.1398 53.7677
15.9456 29.0986 53.3059
15.3698 25.749 47.8505
15.9666 29.4547 54.4414
15.7526 27.4378 49.9278
14.813 27.2615 51.005
13.9453 26.7803 53.6202
16.8163 29.8899 54.2964
14.2469 25.2402 48.8825
16.0553 29.3275 54.5414
15.8094 29.4389 58.8944
18.64 30.6317 53.7346
15.7942 29.765 57.0736
16.1616 28.5895 51.8968
14.9228 28.4029 54.8846
16.6749 31.2859 59.4303
16.1813 29.4984 58.2215
16.9734 30.4665 57.2733
16.083 29.5494 55.4808
16.2949 31.4707 59.234
14.9585 27.6089 53.2638
15.1278 28.1904 54.4203
16.2874 31.6387 58.76
15.8914 32.3271 64.2123
16.0556 30.8668 61.7205
16.461 29.9985 57.9967
15.2653 28.6583 57.5701
16.616 31.9798 65.0843
16.7807 30.0319 59.1413
15.8885 30.0089 59.4757
17.1381 29.0923 53.4397
15.46 30.4765 61.3426
16.948 30.029 54.904
14.7508 29.1885 56.5136
14.6653 29.3621 59.3906
14.8925 27.77 54.7353
14.432 28.7852 59.9847
16.6133 30.9559 60.8032
14.3814 24.8652 47.6732
14.6047 31.2371 65.6667
15.3532 27.9255 54.1713
14.3515 28.1182 55.4462
14.7434 29.1061 59.0897
13.7402 26.027 53.9145
14.3393 26.0964 51.7255
13.4105 26.8796 59.0998
15.2169 27.8269 53.864
13.8538 28.5843 60.267
15.0785 29.2855 59.6368
14.62 29.8319 63.7734
16.0539 29.7432 58.3543
14.8171 28.9799 59.5836
16.3398 31.253 60.288
13.1639 27.1995 56.8502
14.2044 30.8217 65.5031
13.9792 28.8987 66.5962
16.0837 28.4754 55.4592
14.1646 28.8284 61.4111
15.0575 29.7596 58.8056
13.4916 27.1981 54.4104
12.432 27.0704 60.0225
13.5686 26.6066 55.8879
13.4801 28.257 58.7277
13.8838 29.0747 61.5932
14.0355 28.6847 58.4996
12.2456 24.7861 53.7055
11.9402 25.3963 56.4094
13.8249 27.6556 59.7457
14.6018 29.6277 61.597
14.0911 28.5326 60.6776
13.6477 27.3668 59.504
15.1412 29.6786 57.0927
11.9454 26.6137 59.9809
13.9913 27.6914 57.0608
13.204 29.2767 62.1754
12.6669 28.111 63.3474
13.7192 28.9889 62.8252
13.3272 28.7315 62.23
12.8906 27.8777 59.5528
11.9468 25.6385 60.4702
13.022 24.8694 53.4809
12.1703 26.8463 59.7421
12.4685 25.654 59.5573
13.1142 27.5466 62.2831
13.8478 28.4568 64.441
15.1322 30.4877 61.5948
12.4335 26.4166 56.8783
12.2593 25.124 53.488
10.8573 25.208 59.181
14.0578 29.5471 64.632
13.6185 29.8001 66.4564
12.3099 23.5946 53.0786
12.4613 26.622 59.7575
12.7716 26.2862 57.5459
12.3176 27.8909 64.3033
12.4965 25.8294 57.8395
13.0422 26.5567 58.6039
12.1199 25.6431 56.0186
12.8338 29.0272 66.4572
13.171 29.5882 68.3767
13.0012 26.5251 57.3384
12.0641 26.9264 61.677
11.6961 25.5527 59.8814
11.6769 24.0435 59.0659
13.4076 28.4326 64.4898
13.1724 28.9168 65.6259
11.8904 25.1772 57.6788
12.2015 25.5607 54.896
11.1744 26.0901 62.4902
12.1258 27.2684 65.0094
12.8663 27.1082 62.9163
13.025 28.4557 66.3444
11.8691 25.6786 60.7481
12.1023 26.9836 60.3797
11.8212 28.2397 66.3925
12.1896 26.4734 60.314
11.5049 26.4332 63.6413
12.4497 27.6254 64.7064
11.3076 24.8482 60.2636
11.8981 27.2082 60.492
11.2983 26.2093 62.5859
11.2734 25.2405 59.3911
11.4618 26.5313 62.8052
11.8171 26.5242 63.1917
11.3709 24.8491 60.3845
11.8628 26.1816 58.7062
11.0245 25.9656 61.6738
10.5522 24.1186 59.9981
10.8912 25.0924 60.6855
10.8702 24.3055 58.7997
11.1026 25.1718 63.0578
11.7289 26.6985 58.9793
10.4522 24.6161 59.5043
10.2491 23.4641 60.926
11.8227 27.6009 66.5478
11.466 27.087 62.1663
10.673 25.131 65.5554
12.1416 28.8029 69.3023
11.7738 26.3104 63.28
10.7894 24.3899 57.7868
10.5058 26.49 68.0107
12.381 28.3369 64.8386
10.6957 25.1382 61.7699
10.1858 24.1686 59.2019
10.6334 24.288 59.205
10.1867 23.9143 56.9382
10.3295 25.5377 63.5362
10.0982 23.2699 62.3844
