# pn-170911/RbIIR-52-USNO-1280-1959.psd
# Power spectrum* (dif=0,1,2) (really just |FT|^2)
# NOTE: only the first half! (symmetric)
# weeks: 1280-1959
# 10 clock-days, 0 excluded
# PSD: 1441
607.27 0.128567 0.0172909
20408 0.307625 0.0362751
121316 2.30239 0.00938007
13538.5 0.590068 0.0275318
44103.9 3.12682 0.0232392
3718.27 0.462501 0.0243251
3295.89 0.323159 0.0282077
2598.14 0.534061 0.0143664
5256 1.30428 0.0317451
962.472 0.381871 0.0128073
2101.03 0.88574 0.0298882
1440.56 0.818343 0.015751
775.349 0.71437 0.0299821
847.835 0.531104 0.0228383
625.241 0.680231 0.0287758
893.503 0.742175 0.0164661
831.154 0.922972 0.0213856
477.051 0.659815 0.0241798
488.658 0.560547 0.0255407
404.007 0.571497 0.0248364
368.629 0.582462 0.0221968
358.934 0.722783 0.0301334
196.478 0.495929 0.0176278
198.672 0.565996 0.0305811
401.091 0.959286 0.0154149
354.183 0.964065 0.03398
176.669 0.63175 0.0169294
266.729 0.940792 0.0346358
205.455 0.523044 0.0176742
375.156 1.19142 0.0254953
205.488 0.927828 0.0357829
247.524 1.30769 0.0231891
191.541 1.06838 0.0340239
302.744 1.32725 0.0139012
224.158 0.808542 0.0409263
215.083 0.880437 0.0123326
214.716 1.00315 0.0319679
159.604 1.15578 0.0171067
282.857 1.87218 0.0423246
523.254 3.56049 0.0433022
260.943 2.03978 0.0368116
155.295 1.6199 0.0434784
183.309 1.51221 0.0250282
177.601 1.0253 0.0504588
203.258 1.80246 0.0331106
150.231 1.31311 0.0350258
143.695 1.48345 0.0331075
275.315 2.83012 0.0549636
133.196 1.62505 0.0571107
189.614 1.89513 0.0503958
239.242 2.77225 0.0533232
348.6 4.04894 0.0943839
111.412 1.44712 0.0279656
244.596 3.24679 0.0529465
115.476 1.57796 0.0559586
150.388 1.87778 0.0387759
263.518 3.7368 0.117113
158.862 1.89872 0.0383391
150.09 2.44445 0.0361532
132.887 2.06893 0.0503519
111.313 1.95564 0.0594464
94.5549 1.86384 0.0513773
161.89 3.60053 0.113543
174.665 2.8995 0.0716236
129.217 2.27306 0.0787656
86.5122 1.3828 0.0726319
139.89 3.28359 0.0936076
164.736 3.09653 0.108894
73.8879 1.64943 0.050229
156.793 3.46945 0.114627
151.459 3.45978 0.0780805
185.757 4.19722 0.117952
296.334 7.16531 0.192036
119.923 2.89548 0.100319
148.852 3.82924 0.159249
123.828 3.16082 0.107325
86.8025 2.46562 0.0645583
108.231 3.26416 0.104438
117.245 2.92479 0.129533
174.891 4.27945 0.161015
142.096 4.2812 0.134864
122.64 3.83836 0.137899
239.342 7.51084 0.281764
138.222 4.53683 0.14983
139.241 4.89749 0.215425
213.047 7.28915 0.240978
160.427 5.93529 0.234228
79.9951 3.72995 0.122468
152.177 4.64755 0.157901
95.9618 3.67774 0.151345
209.662 7.76479 0.268688
168.375 5.47909 0.250943
83.6991 3.37072 0.128862
125.963 5.48519 0.299875
107.225 4.65099 0.22904
101.946 4.70616 0.207
339.293 13.8576 0.599607
94.8536 3.98234 0.240336
122.765 5.31412 0.274487
139.286 6.0621 0.310777
186.561 8.3464 0.471586
245.027 11.5453 0.548639
148.39 8.18643 0.460506
151.082 7.21488 0.334343
46.6142 1.96878 0.129724
96.8106 5.04681 0.317275
154.82 7.51915 0.454268
171.57 9.53951 0.619535
96.6379 6.03162 0.321311
193.361 10.2964 0.757393
71.7281 3.80452 0.216079
110.794 6.73332 0.488329
168.662 8.41454 0.518221
116.548 7.36095 0.513306
151.715 9.34839 0.597226
171.032 10.5536 0.74514
149.133 9.20646 0.625938
180.381 10.9314 0.830319
139.254 8.60926 0.511324
119.885 7.63474 0.536137
119.417 7.69385 0.585296
176.575 12.1968 0.864914
144.927 10.9796 0.830719
126.331 8.12145 0.543642
91.5375 6.4768 0.606296
161.206 11.4453 0.853143
112.128 8.09707 0.55416
197.329 15.1479 1.14428
108.442 8.41336 0.747747
90.5471 7.58357 0.58586
112.654 9.71423 0.947428
112.278 8.68256 0.78277
84.2118 6.85161 0.509531
154.878 13.7316 1.2391
88.0002 7.58039 0.602606
149.995 13.7959 1.08881
143.686 13.3729 1.1945
114.271 10.1672 0.97307
40.8745 3.88005 0.389752
68.2271 6.3983 0.627093
110.551 10.0207 0.972586
91.2915 8.31548 0.75329
204.983 18.288 1.77743
105.018 10.6183 1.10278
139.102 12.619 1.29238
75.5447 7.30546 0.739448
102.455 9.18424 0.89974
136.004 14.0571 1.51393
150.645 14.6265 1.63
172.125 17.134 1.69805
63.6188 6.31456 0.72759
105.929 10.7671 0.944602
110.304 11.6573 1.28049
81.5487 8.77005 1.03555
100.129 10.9239 1.17555
211.341 22.751 2.90083
88.2834 10.9934 1.30684
96.914 9.36594 0.917076
71.9607 8.6522 1.06738
113.651 13.4188 1.54854
65.5453 7.31587 0.918969
129.025 16.7878 2.28841
84.7854 8.89035 0.914924
111.851 12.2755 1.54066
125.403 16.6647 2.23611
99.941 12.6453 1.64445
99.0047 12.9781 1.77935
158.491 21.388 2.93186
49.8864 6.24389 0.942851
81.0796 11.4962 1.59787
56.5514 8.31242 1.41669
93.0518 12.0698 1.66879
79.2419 12.4002 1.8282
80.2169 10.7859 1.47596
165.026 24.1245 3.55437
119.576 16.4084 2.28114
52.3167 7.14619 1.22501
84.5073 12.3548 1.79576
109.329 16.2931 2.51316
100.388 14.9726 2.28752
72.2463 12.0336 1.93283
75.7626 12.0507 1.88576
92.2663 15.105 2.58415
73.2309 9.71449 1.42147
82.0075 13.411 2.38162
64.6169 10.5484 1.56246
103.631 17.137 2.74134
57.6383 11.6118 2.23142
108.587 15.1718 2.49043
116.31 19.7883 3.46963
73.3779 13.9436 2.55041
95.2788 16.312 2.86587
103.63 15.7617 2.89846
98.4277 15.9371 2.54546
92.1972 16.6184 3.18545
78.1423 14.1313 2.56895
83.617 13.3322 2.21638
91.0452 17.1224 3.06953
92.1095 17.1535 3.19897
53.6357 8.35308 1.76559
60.8162 11.4903 2.00535
98.6102 19.9393 4.10073
115.975 21.533 3.96581
63.4014 11.98 2.19709
80.8218 14.346 2.69577
82.8325 16.1515 3.33443
82.8757 18.9216 4.0441
101.976 18.9503 3.58124
69.2429 14.0065 2.86124
92.4367 18.2967 3.80926
107.404 22.4485 4.65483
83.4092 16.0823 3.1955
59.3912 13.1894 3.0234
109.892 27.7152 6.2354
52.2131 10.3917 2.31429
54.6811 10.7181 2.19817
69.428 15.3674 3.42428
109.525 24.5395 5.68306
145.664 28.106 5.32643
141.173 32.8009 7.44846
77.1111 16.8578 3.88235
101.492 23.609 5.64078
68.7753 13.3848 2.84386
88.7537 21.4778 5.24726
69.4185 15.1638 3.40669
81.1002 19.2188 4.8321
63.2327 14.8728 3.59154
69.9436 17.0606 4.16171
38.0287 9.26794 2.30889
48.8733 11.2947 3.1093
78.1921 17.4013 3.66658
47.8095 13.0086 3.61555
44.1477 11.7084 2.94446
85.2675 20.4628 5.13549
41.5147 10.0521 2.55362
40.5059 11.7082 3.50761
77.7488 18.0486 4.18132
67.5211 18.8979 5.14922
45.909 13.3635 3.70187
59.8156 17.3982 4.93877
47.416 12.461 3.19118
64.7335 18.3674 4.64723
68.4033 21.132 5.8007
70.9981 18.5193 5.14746
37.2628 10.5266 2.81753
54.2498 15.7201 4.72194
117.368 32.4132 8.90516
70.2408 18.3898 4.97121
70.2838 18.8067 5.49649
46.0003 12.086 3.88271
71.5613 20.3363 5.84667
96.8432 30.4973 8.78463
62.4882 16.4533 4.2636
48.6697 15.6844 5.19456
65.397 17.8486 4.71038
55.0899 16.7529 5.07709
41.9019 14.5961 4.59773
39.8112 12.2538 3.89708
85.6358 30.4844 10.1864
67.398 19.1045 5.49422
35.6374 11.1842 3.90805
33.5914 9.06026 2.78152
52.2153 16.1755 5.01712
33.5762 13.8748 5.07362
36.1838 10.2632 3.0305
59.1093 17.1337 4.92905
53.1123 19.1519 6.85371
47.6911 15.4143 5.65516
24.8985 7.4803 2.54021
83.8149 25.7131 7.59355
50.177 18.8573 6.73459
54.8731 17.6795 6.00886
48.9568 17.7851 6.39599
41.9089 15.2821 5.81997
90.3801 32.0889 11.3082
40.9307 16.6656 7.23488
58.9166 16.8746 5.18375
65.2885 21.159 7.20852
55.541 19.623 7.04161
41.6252 16.2693 6.08461
57.2763 20.1855 6.72517
47.1089 16.1963 5.77122
105.224 39.355 14.5116
52.1562 18.232 6.55976
26.1735 11.5892 4.96963
75.321 26.6199 9.49183
18.538 7.59208 3.67288
45.2682 18.7753 7.81831
66.5773 22.9886 7.82687
36.1387 14.6399 6.39147
73.8389 23.7054 7.44367
72.1483 29.3055 10.8504
46.8274 22.4774 9.8573
55.2997 20.0404 7.68692
51.8514 21.2093 8.55943
27.2495 9.88467 3.80832
33.8231 13.5921 5.36722
47.2432 18.6182 7.49919
82.9414 37.6619 16.4469
81.4457 31.8963 12.6524
41.112 17.8073 7.67831
63.1972 25.6809 10.3292
47.0511 21.3888 9.87148
56.2093 21.8666 9.26992
46.5477 20.5642 8.79784
43.4746 16.8074 6.33324
56.6369 25.5706 11.5785
58.8998 26.13 11.2525
47.5279 19.357 8.25628
32.7557 14.1849 6.55383
40.0717 18.0068 7.52948
32.1892 16.5293 7.70392
37.9267 17.8331 8.26685
82.8133 43.8244 22.6323
90.8896 36.6869 15.386
52.7598 20.1306 7.59253
28.4847 15.3717 8.72249
38.8065 14.3686 6.46289
28.735 10.1136 3.93934
36.2812 17.8445 8.27979
46.9319 19.1362 7.93984
61.6966 30.3453 15.2777
33.4792 14.7207 6.80578
49.9215 24.9782 12.0852
27.3675 11.495 5.35751
26.345 10.7405 4.76209
46.2686 24.8111 12.4594
34.1467 16.9012 8.27618
40.3394 18.2325 8.28317
31.0828 15.2324 7.30211
28.6353 17.4141 10.3386
57.5948 23.9306 10.0224
31.8392 15.942 9.11559
37.9647 15.3387 5.77194
53.9494 29.5613 15.3151
37.4421 15.4262 6.61237
27.7298 15.128 8.82733
46.5871 19.3074 8.05579
74.4339 37.9256 19.6659
39.2627 20.7425 10.6716
40.8498 25.2764 14.6035
35.6069 19.8525 12.287
49.7806 22.8471 11.1643
26.2642 15.0532 8.64699
57.1616 30.1087 15.6201
51.9349 27.0521 15.1407
76.2764 38.6861 19.1141
41.2675 22.3287 11.6559
30.3846 18.9909 11.4022
31.2155 16.0568 8.22124
48.718 29.2021 16.0713
41.7176 23.5417 12.6046
19.7725 10.7283 6.75892
40.6934 23.3015 13.7134
44.4481 25.1192 14.7665
30.8583 15.6568 7.79915
31.9908 19.6849 11.6168
13.4111 7.795 5.67857
51.1303 25.392 12.9281
31.3928 19.255 11.5672
38.7975 21.4696 11.5271
39.6724 24.2214 14.5957
57.2146 33.0908 19.7843
34.5586 19.5722 10.7267
24.7149 17.3679 11.1592
36.4071 21.994 13.6467
29.0564 20.4741 13.4824
32.9753 23.2832 16.5811
24.7583 9.9328 5.18667
60.8339 37.2569 21.3793
30.9951 21.497 14.593
28.0408 16.8174 11.0644
39.0854 28.5101 21.0343
61.763 32.2986 17.0644
36.2624 22.9853 14.7465
44.0919 28.0873 17.963
29.7443 16.7004 9.81371
47.1014 29.5264 18.5972
31.7771 19.6557 12.3086
29.7743 18.7307 12.1468
44.1446 29.8584 19.1674
24.2676 18.2842 13.2218
30.3261 16.6292 9.52847
28.7433 22.4288 16.5967
39.4414 25.0992 15.9624
46.2164 31.2798 19.3003
28.2206 19.7628 14.0077
27.5914 16.1006 10.5407
37.3074 23.8516 14.6261
25.065 16.4518 11.2551
32.4828 24.4959 17.2555
21.8462 15.5926 12.0608
18.2588 11.6486 7.73992
24.2274 17.0652 12.4564
28.1292 19.1304 13.3135
42.496 27.9393 18.0781
22.1101 14.2189 9.05557
36.8204 26.6753 18.2239
37.8336 29.0557 20.9994
27.9897 19.6557 14.0703
21.6765 15.2396 10.6164
17.9338 14.3532 12.5395
49.3905 32.3122 20.9093
48.0652 40.4124 30.3395
18.3551 11.8117 10.8931
30.3068 17.0219 10.8468
35.8884 27.4018 20.0945
18.2436 11.0333 6.9066
29.2582 23.9377 18.7144
19.4013 15.9732 13.6086
48.4855 34.2027 24.5358
33.4801 23.3885 14.6216
10.821 8.79388 8.203
25.6075 18.4128 11.8004
19.7741 17.7095 14.4086
18.3625 16.7984 14.8726
18.9346 12.529 10.3692
44.2476 32.5434 21.5928
19.2571 14.361 10.2237
17.1573 15.3399 11.8005
35.5112 31.7455 26.4048
24.5308 22.9611 22.5849
43.7389 30.4952 22.0873
26.7781 23.8278 22.0918
40.5146 26.3137 16.5802
23.7304 20.7778 17.0064
27.2262 22.8724 20.1411
39.0018 26.9505 18.686
15.4499 10.1896 6.95104
27.4246 23.2028 18.1582
22.6244 19.4948 16.9431
38.2976 34.9062 28.6246
26.1826 21.9198 16.8534
10.9232 9.36568 8.57193
17.3333 14.3725 12.4096
25.9072 22.9371 19.2268
22.7004 17.087 14.9176
20.6837 18.8153 15.8454
19.7518 14.5724 11.838
23.2492 18.2108 13.7454
27.1494 27.4806 25.1094
18.4324 13.7814 10.9757
20.9164 18.8417 17.4752
27.7476 23.5625 20.0547
25.0174 20.7312 16.7143
11.1865 10.0601 10.9589
35.8189 32.1943 27.3453
35.5931 30.3096 24.6604
25.3314 23.7023 22.7841
22.2173 19.3448 17.5463
25.2539 21.5476 18.8154
24.6474 23.3375 21.5349
19.6359 16.8812 15.7605
31.1525 29.7316 24.9414
19.0503 19.4603 19.6975
15.1602 15.5354 17.9423
33.0869 24.4093 18.0574
33.6768 32.5712 30.2304
29.984 25.0323 20.3636
16.308 16.4467 17.1685
28.5191 21.9781 16.7066
26.5369 25.8422 22.3518
15.5631 15.9677 15.3252
24.6769 23.1896 21.9419
23.1406 24.7418 25.5742
32.8514 31.5062 27.762
21.5962 29.1077 34.1494
24.1686 28.3722 35.4883
31.0214 23.1609 22.5852
19.8687 15.8385 15.9996
33.6074 29.2804 24.9116
15.3158 14.3402 16.2426
25.7765 23.8434 23.4155
28.3767 24.2317 20.0567
14.0641 11.4283 10.2657
14.6291 13.4937 12.9209
16.3368 15.5565 13.9201
16.4328 19.9027 21.5459
27.7965 27.5023 24.9124
19.241 24.6428 29.3826
29.5744 28.0057 29.8832
35.9179 30.0161 25.9733
27.1128 28.4568 29.1162
20.57 19.5937 19.5574
20.0571 18.0321 19.1266
31.7093 31.2554 27.4698
16.9246 21.2176 24.2378
21.139 20.6201 23.9109
30.0133 26.718 23.838
24.3861 31.7592 39.6252
34.0312 28.1402 24.8264
26.5627 23.8274 19.3816
7.80689 8.28814 9.12677
13.3845 15.1124 16.7775
15.9092 16.1559 17.5059
31.1151 37.5468 41.2358
21.3971 21.6686 22.883
20.0061 22.1282 24.0678
14.346 15.0199 16.5627
16.1489 25.3202 39.8599
41.6362 34.9093 30.2119
35.2355 34.1729 32.2016
29.9097 31.4721 27.9317
19.8721 30.451 38.2894
22.0383 24.3935 29.2485
19.4019 21.8236 26.2022
19.9284 18.6142 18.6187
20.4993 25.6177 32.875
20.6829 17.4999 16.3952
21.3093 20.496 17.4328
19.9155 27.1528 31.403
12.6802 12.9707 14.5906
17.5523 20.3256 22.1495
11.9675 15.189 21.0391
19.2396 23.5372 32.3756
27.3005 23.2512 21.3632
15.4343 17.507 18.8663
16.6516 17.0065 16.182
9.74987 12.4485 14.2469
16.8095 23.4344 31.1144
23.6577 24.4154 27.3463
16.2614 18.7769 20.9018
14.03 17.3226 21.6406
18.275 17.2644 19.0689
15.8501 19.1604 22.4683
14.2278 18.0984 22.6914
17.6146 23.7225 33.9685
26.9903 27.139 29.25
16.7503 17.0447 17.1752
21.9331 29.3464 34.0267
11.7289 11.7015 13.9038
12.7444 14.4703 19.783
26.0789 31.3313 32.6237
22.7133 30.9478 39.1629
21.851 24.9465 29.1131
17.1011 18.4606 20.3633
13.4723 15.3068 18.8594
19.39 23.9249 28.8705
18.5881 22.913 26.794
17.4681 21.9966 27.2499
20.0379 23.7998 28.1841
15.9359 19.56 22.2397
12.1993 22.1753 34.9087
21.2756 23.501 30.8098
18.4073 18.8096 18.5954
12.2485 14.9436 18.0997
13.6921 18.5776 22.3023
16.3092 26.5768 43.0453
20.1497 21.325 23.567
18.197 25.0484 36.313
29.3589 30.1678 28.6192
19.5925 33.7708 46.4513
16.1433 15.477 16.8468
10.4692 12.7798 15.9843
14.1096 21.6203 32.5505
19.9635 22.8696 25.0687
9.82011 15.3619 25.2832
21.5627 27.0194 33.9122
16.9532 19.7028 22.2455
13.741 21.5446 31.6842
19.7071 25.2877 28.8874
12.9633 17.8378 23.8672
11.0191 14.5925 23.8481
20.6551 25.1826 26.3544
9.64607 17.2449 27.2714
9.50629 13.4939 22.719
11.8589 12.5539 15.9693
14.8311 19.5577 25.5637
12.5772 18.0104 24.6414
19.5949 25.2507 30.5351
11.3529 13.8095 16.7422
10.7797 17.4553 26.5671
10.7282 9.85467 10.5765
13.4609 20.8785 32.1876
23.807 37.426 55.7584
29.1788 34.3139 37.2901
16.2892 28.4428 44.0148
8.77862 10.0872 19.6956
16.4546 21.4825 27.7335
19.652 27.9689 34.9898
13.3969 20.1293 32.1024
25.3254 34.9507 42.6965
15.0903 21.5716 25.1085
13.8916 29.4465 48.6421
10.7375 9.74198 12.6802
15.7733 26.0901 41.0501
20.0868 23.633 28.7211
10.7192 13.254 17.6228
11.3296 19.7809 31.6304
9.25345 13.0258 18.8649
9.11133 15.4967 28.9311
10.1469 11.3234 18.9171
18.5709 24.4677 29.1393
13.2276 21.5405 30.1567
14.4455 24.2449 39.4961
21.1755 33.4 53.6209
18.099 19.6752 23.2681
10.4242 13.1963 17.8933
12.0751 19.3195 28.138
14.3095 22.6873 37.0312
16.8464 22.6418 29.4737
6.63871 8.91542 15.7078
11.3995 17.6319 28.4662
13.7223 19.8043 28.9376
10.4573 14.555 20.987
5.5776 6.70111 12.2739
12.8279 20.3849 33.1596
15.7269 21.4143 29.1711
12.2399 18.2485 25.8717
8.92748 13.4948 20.2309
8.17995 11.5072 21.7906
19.3118 29.3219 41.8228
11.7226 17.0325 29.2537
9.68973 11.6846 14.8345
11.0247 17.9352 23.7385
8.64724 14.5116 21.7411
10.2805 15.4148 20.0323
7.76209 13.8615 18.1014
8.00154 18.1204 33.1244
14.3168 25.9279 42.0133
11.4059 15.6545 25.1264
9.36584 16.5986 28.5075
10.9402 17.0052 27.8211
11.9303 18.4558 28.3466
10.8608 22.0059 43.2026
14.8923 21.3942 33.1806
7.05907 11 29.929
22.5594 24.6629 22.2491
10.7113 20.2536 34.5
13.558 18.3552 22.9431
9.46017 15.36 24.4573
12.0325 20.7407 31.7134
8.87883 19.4588 36.7089
6.88496 9.29046 22.2646
10.6948 16.2926 27.3917
13.7507 18.6761 25.3617
9.64164 13.9231 22.0672
12.9819 18.0314 20.2929
9.60701 17.2546 24.7002
11.3317 21.3131 29.9911
10.9632 29.2385 55.0751
6.98782 8.7501 23.4589
13.6991 20.8156 29.7197
13.0425 26.6841 47.8976
12.3431 16.4835 26.1859
11.7823 20.011 31.312
7.7434 13.1725 25.1002
7.57297 15.4929 31.8666
10.3792 12.7335 21.3181
13.6781 25.6691 43.3024
15.6796 25.4038 39.9271
10.3698 19.1068 37.4847
9.43143 12.3541 26.2435
16.4103 29.002 49.4314
16.0399 23.6897 42.3109
19.1193 27.1028 34.0394
11.1098 20.8643 35.116
9.05767 13.0581 19.343
10.5589 21.6402 36.3132
5.88832 7.9302 16.4562
13.3574 24.0764 42.4848
13.3262 24.7904 48.3797
12.8547 15.5707 19.1669
7.07497 13.5396 27.853
14.0224 25.1484 40.6669
10.9147 19.6781 26.8084
7.1691 15.6931 29.2428
9.47187 19.4975 35.389
8.29554 14.7413 26.805
6.45618 13.916 30.2853
8.58267 21.4625 51.2478
12.7549 17.619 39.7583
19.481 23.5938 28.2178
12.6419 23.7179 41.2981
11.5379 20.2748 35.6275
12.0722 21.5838 37.784
7.96677 14.3076 27.5229
9.43568 15.9607 28.9665
10.1855 20.705 38.4455
11.105 17.1778 30.4424
8.79629 17.5672 35.6272
9.36142 11.7315 18.2216
11.3381 21.7873 39.6333
13.4638 24.4681 42.0097
9.68838 16.1483 29.9051
10.2047 18.1342 31.1737
11.6438 21.6216 40.0115
10 15.7017 23.2895
6.61249 14.6435 29.0595
7.97927 14.9931 24.9429
5.72 11.7746 29.1913
8.83038 15.8393 31.8023
15.3417 29.8412 51.9807
11.5379 19.9393 34.3416
9.74639 17.5911 27.3977
8.5501 17.7939 29.8208
4.40277 9.21506 27.4257
10.1932 16.9756 22.5159
4.09326 11.0618 26.0386
4.14354 7.36041 21.1275
9.55674 17.0531 29.5634
9.41924 19.0373 36.9472
9.37981 16.6524 36.0938
15.954 28.7838 47.2908
8.59446 14.8015 29.3348
11.7953 26.5441 51.3045
8.37621 14.4096 29.9367
9.32783 16.876 31.8492
7.95279 12.4303 20.5369
5.51717 11.329 24.7348
13.2587 28.1955 58.6905
14.3725 23.9591 39.4511
12.4941 22.8604 32.5832
4.58708 13.5618 33.968
8.15146 16.4095 35.0566
11.0629 22.0796 41.205
11.9715 24.2766 39.8196
4.2124 12.762 38.0192
10.657 16.3488 24.6996
4.93622 12.8652 31.1453
7.72987 16.4188 35.8824
7.39818 14.7159 30.4718
6.62717 13.2382 33.1607
8.68154 11.5299 19.0214
7.58292 16.0075 28.2899
5.37769 10.5276 21.9241
5.75431 11.9267 31.6918
12.3397 21.1308 29.3969
6.99038 17.1737 33.5941
4.82964 14.0389 42.1479
10.8411 18.2921 35.9479
10.6515 23.065 38.6602
4.83288 13.6338 34.9889
6.45764 13.7889 36.3827
7.43675 14.1426 34.6305
8.54076 16.5007 35.0233
10.0385 21.689 54.0875
11.6803 16.6783 24.9699
7.97953 19.9609 43.93
6.37885 12.2194 35.6763
14.0348 23.5377 30.4676
3.89164 9.62453 24.2424
7.09671 18.2844 42.3671
7.63735 14.4119 32.6573
7.6685 14.689 28.8677
8.35545 19.275 45.2522
12.7839 21.1754 33.9545
7.14514 17.9306 44.2866
8.83162 16.1892 28.8168
6.85995 19.3679 45.2249
6.64413 12.5437 35.8237
8.55632 16.0405 32.2653
8.17148 14.418 33.2666
9.72785 18.7822 30.4162
5.16494 11.4707 23.5091
5.98818 14.5079 27.9508
4.45164 10.4186 30.2661
5.59715 6.41668 11.0753
6.32384 14.9681 31.5877
7.17633 16.5544 33.3015
4.92921 8.21859 18.0568
6.52267 14.1095 30.3213
10.9152 25.3478 46.5259
7.31489 16.3706 38.7434
7.69101 16.7852 35.2528
6.56793 7.81014 10.7864
8.74485 27.4266 62.934
9.03164 18.0808 48.2556
14.0865 30.7355 53.3514
8.3382 17.7516 34.835
5.72488 14.534 37.7869
9.49536 19.9251 28.3738
6.3126 21.8219 47.2865
4.43711 9.81906 27.6736
4.65413 8.79305 17.874
7.61851 27.0367 62.7031
4.50254 7.64798 26.0525
5.0934 12.0093 41.0366
9.43611 15.8831 26.5895
5.08878 12.0604 27.2997
4.6646 12.2066 37.2958
8.22619 15.5644 33.3657
7.15483 18.9681 52.1369
9.12117 16.9287 39.2212
10.3213 19.822 33.4483
6.07614 13.0796 22.2111
4.45201 11.582 24.757
4.66284 9.83879 18.8961
2.33501 6.80345 19.8658
5.2486 11.0327 25.3742
5.29985 13.535 28.7922
4.33106 11.2238 26.7678
3.38588 5.74555 16.069
5.0504 12.8138 27.6586
2.81565 5.30216 21.0167
7.07931 16.3065 31.544
4.76478 11.2769 30.184
7.27897 16.6631 36.7115
6.53424 16.7535 42.2197
6.91431 13.4639 31.5178
10.8963 25.973 45.5396
4.86139 17.8094 51.1424
5.75788 10.5326 34.3972
6.95079 11.526 22.3
4.67491 12.5307 30.6818
5.70082 13.965 33.3806
5.6206 14.9253 36.4078
3.72185 8.88779 27.5552
5.08943 10.4497 29.4097
7.50839 19.2662 42.5738
4.87634 7.24293 16.59
5.42324 18.9199 60.2361
9.66722 15.0002 37.4677
8.21729 17.2916 35.9297
6.5221 12.7399 23.7022
6.09204 18.3166 50.9657
10.4122 18.8676 31.2499
5.79189 14.03 36.1638
8.88898 21.8456 32.0899
3.13466 14.1508 54.8706
10.8378 25.1548 56.4743
8.56594 17.6773 34.5108
6.17674 14.319 30.8892
6.68154 19.9299 44.8674
6.59744 18.5061 44.1136
4.26489 11.6966 33.9692
