# pn-170911/RbIIA-36-WTZR-1280-1959.psd
# Power spectrum* (dif=0,1,2) (really just |FT|^2)
# NOTE: only the first half! (symmetric)
# weeks: 1280-1959
# 5 clock-days, 0 excluded
# PSD: 1441
8844.07 0.660008 0.0100124
294087 15.7931 0.00836234
796965 16.159 0.0072149
170046 15.9885 0.00984352
296617 6.66602 0.0067932
143347 14.274 0.0150348
36002.8 10.9971 0.00996192
61212.4 4.69249 0.00832137
89905.4 13.628 0.00889632
68420.6 14.5327 0.0138185
40365.9 15.1151 0.00768453
43894.9 13.0998 0.0180019
32619.2 9.58056 0.0138159
14487.5 6.85765 0.0136971
14629.1 5.82545 0.010426
19786.4 6.0465 0.00918391
12857 10.3771 0.0153022
7163.74 7.27221 0.0205806
6592.91 4.26167 0.0195705
9777.27 3.04305 0.0122987
7777.97 5.52664 0.0200945
5441.28 3.11238 0.0108386
2397.09 5.0253 0.021905
5604.79 7.82856 0.0234014
4444.63 7.38821 0.0282693
5918.61 6.41209 0.0189128
5386.96 5.1996 0.0397038
5971.45 16.6215 0.0543296
3113.26 4.95901 0.0394891
2306.23 6.03071 0.0179202
3263.48 4.72216 0.0100155
7191.59 14.5596 0.0892413
1914.16 8.89551 0.0300674
4060.56 8.13588 0.0470881
3471.93 11.4333 0.062935
8565.44 25.5072 0.157614
1827.94 7.0449 0.0598675
6304.51 15.6504 0.102925
1542.65 2.84427 0.044202
1287.41 8.77265 0.0554186
2444.43 9.41517 0.113994
2133.43 5.39962 0.0661548
2294.36 9.34304 0.0812376
1254.09 6.69614 0.0520261
3267.71 18.417 0.188186
1460.31 7.89011 0.0812219
2379.32 10.2529 0.105634
2477.98 12.036 0.115856
1642.88 9.72677 0.127769
3062.5 18.2448 0.191034
2287.98 18.9172 0.216054
2943.08 17.6618 0.181873
1453.1 7.99928 0.104386
2030.77 10.6937 0.130019
2243.62 15.2985 0.184952
1575.21 9.23008 0.142824
1808.73 11.8375 0.154861
2295.33 14.879 0.292123
1459.33 9.64655 0.160776
764.151 12.3895 0.25134
1470 13.3059 0.177699
1953.69 14.7133 0.292236
827.683 3.76893 0.0766725
842.435 8.3519 0.178499
837.441 5.75151 0.142939
792.584 3.86398 0.083019
991.039 5.15866 0.137852
796.941 5.4768 0.114923
1448.77 16.6529 0.368444
383.791 5.67543 0.14703
751.898 6.70381 0.170421
693.1 7.64893 0.172281
323.588 10.3081 0.308568
1080.26 14.3509 0.350918
672.575 9.55279 0.189313
936.227 12.3265 0.273466
428.046 5.87325 0.160482
647.401 3.52586 0.0974486
826.927 8.84679 0.209301
828.181 7.01086 0.240234
933.299 11.1356 0.34507
517.453 8.91008 0.256799
943.254 13.1437 0.405745
411.086 10.0238 0.294181
370.421 11.9267 0.346144
354.192 10.3667 0.341688
400.529 9.91624 0.284962
294.481 6.70939 0.261076
277.18 12.6395 0.39949
764.445 17.7742 0.704507
346.085 7.39079 0.282573
775.846 9.986 0.395659
515.027 16.0992 0.67338
645.266 15.3706 0.611836
226.09 4.30343 0.188854
337.639 13.8948 0.613698
369.341 6.40959 0.244594
317.641 7.56214 0.356573
285.577 11.295 0.532981
390.73 6.46694 0.276801
168.203 8.70827 0.400092
288.258 3.62225 0.175601
185.706 7.59581 0.405942
263.287 9.05414 0.507347
438.544 15.4594 0.803618
328.031 11.9283 0.66264
575.569 9.69638 0.53789
275.652 7.85916 0.46258
200.068 11.2588 0.661243
274.198 6.54663 0.401798
446.267 7.22637 0.388886
157.235 5.41046 0.298786
165.412 4.45452 0.240321
411.973 8.56286 0.558929
232.419 10.9165 0.622025
178.336 7.54066 0.389599
156.885 5.6603 0.355808
279.459 10.0602 0.638362
221.669 15.4819 1.0618
437.134 19.9777 1.24125
188.902 6.01295 0.438364
294.829 11.6717 0.770798
311.018 6.77867 0.469408
252.83 14.4206 1.0501
173.315 5.09444 0.415038
146.577 7.27785 0.509248
206.59 4.01043 0.287242
115.9 8.09536 0.649901
143.093 3.8835 0.308142
134.243 8.3067 0.638998
199.756 5.37876 0.453077
150.832 7.53501 0.738845
171.509 9.81801 0.796581
140.392 3.47962 0.337602
259.777 9.15664 0.834624
203.928 6.28518 0.619572
414.306 14.0874 1.21984
147.223 3.35969 0.277259
203.836 5.90566 0.494475
209.269 9.82259 0.933388
216.533 4.99691 0.401772
261.098 9.31259 1.01099
210.465 7.32997 0.651002
136.592 4.20001 0.4239
184.514 9.1686 0.983657
194.538 9.83382 0.98144
238.531 11.6878 1.13214
276.119 16.8386 1.83681
136.962 7.05334 0.756859
110.24 6.60786 0.783415
178.169 8.40259 0.853061
263.296 8.65757 0.933541
305.568 23.7487 2.66403
273.172 11.4682 1.402
115.142 5.0108 0.522668
127.874 4.69643 0.577285
100.552 8.61875 1.13083
182.957 11.5451 1.49262
52.5431 6.67053 0.829854
67.7086 10.2544 1.34357
91.9886 9.73822 1.57197
135.702 10.4388 1.17695
152.548 7.76494 1.15835
67.738 3.96053 0.589853
192.221 8.84745 1.38345
115.391 4.53615 0.590806
245.694 17.5943 2.23248
54.9078 4.15619 0.656469
189.777 13.1196 1.76623
192.36 10.5586 1.61677
131.574 9.43176 1.34037
138.408 6.6603 0.831852
102.379 5.47059 0.826143
146.227 8.35693 1.04753
65.7547 2.44951 0.200169
98.4871 11.1881 1.64219
178.134 13.5158 1.92127
102.467 7.28901 0.854066
113.618 7.75074 0.97827
126.013 18.324 2.66583
156.59 6.98963 1.03331
76.4049 4.45559 0.556099
90.7176 3.35146 0.449641
111.746 12.6092 1.81973
82.0524 5.36569 0.90828
134.171 15.012 2.38173
79.3739 12.3749 2.02448
93.367 9.23411 1.44744
64.8149 6.38597 1.25058
131.334 9.55239 1.61193
97.7239 9.4883 1.47815
73.7896 5.23343 0.950749
53.4547 7.22112 1.32837
102.031 7.15761 1.31332
119.169 10.4312 1.80168
95.9432 7.65595 1.29365
70.1057 8.78802 1.78135
94.1936 7.5638 1.38905
72.2007 9.20667 1.66152
52.1219 4.88081 0.871553
66.2792 4.91622 0.92411
87.5363 7.45255 1.52229
99.9992 11.7289 2.49887
60.8653 5.35398 0.860575
126.514 9.73195 1.97692
63.6893 5.51346 0.918347
111.388 11.9285 2.14618
88.0374 11.3634 2.09076
78.5442 8.67442 1.75059
78.0232 3.53747 0.690216
49.214 2.63613 0.544781
50.8852 4.55705 1.00023
41.8935 4.53186 0.980548
62.2987 9.3914 2.1748
107.415 10.3936 2.03877
42.648 4.74353 0.975311
63.3867 2.06646 0.35486
61.3239 5.68101 1.24075
78.3528 8.79852 1.68607
43.1706 5.44036 1.06617
55.4392 6.21023 1.37282
40.3449 10.3624 2.38613
56.2021 9.10908 1.78191
51.2078 6.42283 1.48056
58.8613 9.52373 2.36075
96.2933 4.04424 0.747988
72.0692 6.09338 1.41675
66.7839 18.4459 4.43513
70.4715 8.87368 2.451
89.6843 4.69084 0.920427
73.0896 10.5831 2.70902
44.0528 2.40484 0.852966
115.693 11.1892 2.73132
150.378 12.0609 2.96181
64.6461 6.5606 1.97169
88.8299 18.8187 4.79492
100.762 7.52692 1.96193
43.04 1.87886 0.632888
46.7481 9.23132 2.2962
78.2255 11.199 2.78772
41.8751 3.37751 0.93458
64.056 5.57425 1.91094
67.0593 14.4109 3.80235
54.1518 6.60585 1.90898
69.158 5.29555 1.22341
101.324 11.6331 3.47567
19.1881 6.6414 1.64312
73.2736 13.8229 4.56254
81.3158 9.27769 2.06787
86.7084 9.28304 3.06247
25.8448 9.20565 2.32397
93.8995 10.7588 3.13153
37.1248 9.96785 2.60185
43.4006 3.34982 0.998261
49.5413 11.1877 3.17292
50.1135 10.9663 3.34444
51.1467 4.95427 1.6759
43.1617 7.24644 2.41073
68.3706 5.69534 1.68979
55.6551 11.148 3.83853
83.2592 7.67008 2.06883
37.1308 3.94374 1.26384
28.5085 1.81591 0.601011
55.7132 10.3834 3.95883
71.4216 10.1463 2.91015
57.3018 7.08882 2.08287
41.3673 5.59932 1.96286
49.6523 4.86346 1.62673
46.2966 7.68511 2.41136
75.9137 13.1282 4.42685
37.158 1.36821 0.424924
48.5258 3.41483 1.21279
44.2919 3.67487 1.1477
74.5083 6.13567 1.83029
46.9835 4.20595 1.54124
112.197 13.5642 4.97571
72.9859 12.9376 3.71008
55.9134 9.32606 3.51316
44.8064 6.19829 2.15098
74.5371 7.47476 2.58924
36.2877 6.97754 2.1351
59.1007 10.4636 4.51794
53.5418 6.24027 1.97096
36.0857 5.68264 2.52749
47.5484 7.87366 2.96445
42.9759 5.08295 1.67891
50.86 13.0006 5.57227
92.0802 10.2748 3.61749
51.8949 14.9348 6.52192
89.0846 17.3612 5.95046
37.8433 7.69531 3.89013
68.5213 14.3046 5.17045
24.9401 4.96206 1.72138
51.4702 12.1772 4.5631
50.7217 10.2262 4.2655
39.4909 8.8966 3.61866
64.9349 13.3492 5.46389
17.8752 5.6475 2.32826
58.7551 9.10316 4.12919
16.9267 15.1517 5.48114
62.7687 13.5807 5.5288
47.686 14.1114 5.37094
40.3125 6.07424 2.82272
17.7685 11.4694 4.54154
55.7126 7.06474 3.56602
15.4483 8.27763 3.20662
34.1714 7.7577 3.8175
22.2636 10.9696 5.03247
70.1112 11.0121 4.66626
44.9812 9.75171 3.88224
56.7382 12.3571 6.46492
74.7487 16.8187 5.57827
51.8251 10.391 4.89512
44.6695 10.3248 4.87153
41.8744 6.78236 2.72286
51.631 9.8449 4.92175
45.18 8.76458 4.20559
27.1404 4.52716 1.37492
28.4846 6.13499 3.34074
59.2394 18.4218 8.56012
42.089 8.51592 3.6892
25.194 8.19825 4.31423
24.5581 7.40198 3.133
26.1992 7.42304 3.60293
22.8338 5.17153 2.44484
35.0629 13.7942 7.66124
46.0893 9.91295 3.64974
10.7043 5.76257 3.16964
36.4055 7.15413 4.09148
37.8212 4.65427 1.90365
21.9775 6.69862 3.67557
36.2046 5.70066 2.63859
17.8899 9.477 5.45672
53.9789 19.5805 10.011
55.8602 10.5819 5.17984
34.7674 8.04396 3.35513
19.6045 5.62402 3.18597
28.6877 9.04028 3.65665
23.3628 12.2924 6.43972
30.8038 6.56806 3.35906
42.1281 9.25474 5.2754
25.5066 7.9256 3.81234
26.8821 9.79857 4.7555
53.9663 14.0816 8.5538
17.8266 10.6397 5.37421
58.2455 14.8502 7.18263
27.16 7.88136 4.37617
55.3774 9.63419 4.92
28.4336 10.4612 6.19942
43.953 12.7793 7.00658
51.7414 14.3714 7.13787
43.8565 12.3067 8.67262
52.5119 16.4639 7.7091
18.1709 9.31271 5.24076
39.9363 7.5591 4.38395
15.5041 3.46567 1.909
16.5008 8.41125 4.34088
33.0107 9.67072 5.66787
18.4052 7.68069 4.81215
29.839 9.19347 5.94518
13.9842 10.2891 6.09594
37.2363 9.89969 6.56882
34.6756 10.5494 5.0944
23.6048 7.09487 4.05172
16.368 3.62148 3.05525
59.7721 14.798 8.07495
17.5209 3.24843 2.03554
41.3737 13.422 8.6932
20.6494 8.73469 4.32744
44.5498 9.65443 6.44056
22.7119 7.60032 5.91064
33.8528 6.61345 3.4499
39.2235 17.0237 9.08786
35.8395 9.60072 5.79238
20.6177 11.8675 7.99086
19.695 7.5375 4.58379
17.3399 3.42162 2.28036
29.5327 11.6603 7.08174
22.5397 2.79379 0.840291
31.1559 13.4557 8.46866
18.5687 3.69567 3.74251
16.4616 5.70887 4.3584
26.5739 8.51401 5.92434
37.4006 8.52909 4.39119
32.0251 10.2631 6.78802
24.5985 13.2222 6.38239
33.601 14.9693 9.73533
17.3391 6.8767 4.2943
19.1748 10.2896 6.42617
30.7048 11.0593 7.40906
19.6623 10.1637 7.59712
25.627 7.86376 6.18167
42.9135 12.1818 7.73559
34.0649 5.86973 4.69268
14.0992 11.8836 8.56885
23.9571 8.09907 5.67569
24.7065 8.38428 6.57878
27.7145 4.58758 3.08483
21.2327 7.30989 5.03287
33.8208 11.6159 10.2729
6.29166 5.28178 4.83651
25.031 6.9603 5.41382
46.2407 19.9432 15.5486
22.815 7.70106 6.46007
20.2146 8.07262 6.79786
10.7071 4.28507 4.11305
25.3837 15.7981 11.7394
21.8951 10.0575 7.75793
21.3747 5.88733 7.46901
12.54 8.65942 6.89143
10.3159 7.25768 5.76814
13.3624 7.28372 7.81394
43.1048 12.7915 8.07274
9.77655 6.87662 6.22017
16.1061 11.9375 8.1488
18.5879 3.57253 5.88379
45.2533 17.0184 9.80063
30.696 9.69193 8.03936
25.6006 7.605 4.23142
20.4959 4.97901 5.65139
38.9359 20.1183 12.9607
20.0961 6.47504 6.78402
33.9818 10.6511 5.20121
14.2063 4.64566 1.95924
29.2676 17.5485 14.1844
20.3423 9.13013 6.02617
19.7549 12.0041 11.989
19.6301 17.8107 15.6946
30.7318 9.75034 10.0917
35.6001 8.62719 6.8361
17.5803 12.214 9.12566
16.4719 8.41346 8.05876
27.9045 5.43821 4.48171
34.1014 12.3864 8.09161
10.0039 10.9399 10.7048
20.2815 8.80551 9.54018
42.1736 13.0663 12.0653
34.4858 11.9576 6.40259
28.8745 10.4805 8.49487
14.3471 1.52772 2.87785
23.7592 5.97754 5.68425
33.893 10.6234 7.7789
17.0534 8.84011 6.47434
25.2935 5.93308 5.84104
31.2717 13.2913 8.66909
31.2751 8.74329 6.64566
34.993 21.5567 17.3643
25.4463 4.65331 2.61175
36.667 18.5552 14.5253
36.6009 10.8668 8.98233
41.2877 20.1892 15.1509
16.9876 6.81259 5.23981
29.0971 13.8259 13.3664
28.5473 11.7843 13.62
9.99594 2.53407 3.64136
15.103 9.55056 6.52951
12.8429 5.16303 4.46274
29.7458 11.5227 10.0668
15.8812 3.26774 5.4613
19.0222 10.9119 9.59352
26.3943 16.001 14.9768
11.975 4.75359 6.45502
16.0619 6.75712 5.2986
16.3588 7.5372 8.63129
22.2968 15.0608 16.8787
15.4511 6.77443 6.01442
22.7982 7.4762 7.92831
16.7724 8.16807 7.20781
11.7513 4.51412 4.98816
9.94934 6.51069 6.42836
15.7792 12.1731 10.7665
18.2464 14.8168 16.5164
16.8942 3.33174 2.71212
7.9314 10.311 8.48021
8.42657 5.95341 7.01852
12.6253 8.54964 12.1621
18.9292 6.00132 5.47669
23.0305 7.05372 4.27245
11.4005 2.28659 3.24391
20.9954 5.41832 3.89689
17.599 3.17194 1.76984
18.7322 4.52079 4.92316
18.0924 13.4142 12.256
12.2078 6.46168 8.63104
16.3585 5.84326 5.08353
23.3948 7.326 8.03287
13.5706 10.0208 8.98958
24.5925 13.0232 13.1751
13.7911 8.69381 9.66907
26.2423 17.6987 14.6867
9.55954 11.7562 12.8149
31.6471 11.0828 10.4024
14.8473 6.34396 6.0901
18.1581 12.8977 11.8589
18.8725 10.5365 13.8743
13.524 8.57082 9.04158
11.2309 7.36305 9.58002
16.8962 18.7747 18.1923
20.0609 8.61422 10.2169
13.6774 5.69865 8.72534
14.4153 7.87763 7.36298
16.1723 5.04195 4.3989
26.1756 12.5364 11.5024
17.6941 12.1242 13.0635
19.1615 3.59005 2.47712
28.3386 11.1059 11.7081
10.3986 7.50597 10.8741
18.5908 5.49039 5.80936
18.561 14.2955 17.4964
22.6846 15.5704 18.2274
10.1342 7.37702 7.0741
10.737 7.07563 7.93678
17.5581 9.23337 7.49351
12.5604 15.2264 17.5802
17.5645 5.03843 4.53951
15.0257 10.0607 13.4376
15.1309 9.38808 9.79632
5.60999 7.45578 8.43355
11.6682 7.12368 10.4218
10.9734 4.01637 7.31301
23.8083 12.0846 11.9202
9.29227 6.20561 7.0135
14.1715 9.00938 12.1853
12.3759 11.1869 20.8171
39.5437 15.6281 17.4512
22.3526 10.6788 11.5825
26.5438 10.3856 10.3184
15.1581 15.8642 29.2733
30.6802 11.2685 9.74167
10.2883 3.73459 4.31572
19.2724 10.9088 13.3512
23.3799 9.90858 9.97634
19.9334 7.72886 7.36127
14.5024 11.5066 13.5101
18.5349 9.58924 9.1108
21.6883 10.9744 11.0539
23.7058 9.2206 9.82071
13.0914 12.2481 14.2135
12.8603 9.92667 9.87204
12.7357 9.45026 12.9645
15.6649 5.75274 7.33199
14.8434 9.17765 13.3963
9.75267 7.62045 7.0512
15.2177 8.58241 10.8624
12.5844 4.02516 4.7848
16.0985 24.0843 31.6599
9.22684 11.4412 13.2216
13.836 5.29801 6.15785
13.921 8.4179 10.6619
7.6084 9.4144 13.1032
10.5851 3.74265 8.61071
18.7233 9.54289 8.995
13.5323 10.3028 14.4644
12.5515 3.51326 7.09471
9.54592 7.85566 7.62736
17.5866 15.3899 24.9407
9.60153 9.9865 9.79786
6.67327 4.62196 4.92737
4.98222 6.35595 10.9095
16.7032 8.95145 13.6308
23.9431 11.6824 9.10308
11.0587 9.97749 16.9768
20.9439 11.4981 14.4664
19.5325 13.071 13.295
15.9847 10.9621 10.2527
8.35074 8.87457 19.1155
28.3647 14.8128 16.8326
17.1239 14.9866 18.5036
9.89263 6.79027 9.10574
12.453 16.3655 20.5365
13.1344 5.72408 3.4637
12.1784 10.5525 17.9336
15.7134 23.252 27.7723
13.4357 11.3493 23.8685
29.7942 16.4118 16.28
15.4501 5.86036 8.43924
14.4394 14.9296 23.2547
12.7464 10.378 20.2146
18.3146 10.0035 13.0352
15.6341 3.34225 4.33949
13.0518 7.66562 14.8254
17.3935 10.0149 8.19138
8.56944 4.04664 7.91986
16.313 8.50315 11.7983
13.2074 10.7435 18.5681
21.4821 12.7675 14.2083
12.9242 4.89908 11.3899
16.092 18.3531 18.9553
13.0591 7.96821 7.01068
11.1244 9.06643 13.4919
12.9465 5.10865 9.10227
12.4304 10.1673 14.0048
13.7935 10.5068 15.2383
14.2912 18.2406 24.7834
9.89559 13.0856 19.0566
15.4723 13.2227 23.5866
10.0865 7.37629 10.917
10.4682 4.97013 9.21184
8.68461 17.7281 32.3774
27.3088 17.0403 22.3941
8.75807 3.7776 3.6763
13.7168 7.61512 8.33159
17.0948 16.7256 23.4717
13.1185 8.63226 14.6333
13.675 17.273 20.4811
11.914 13.4491 21.6031
15.9745 12.154 19.8876
12.9536 9.62105 9.80287
8.87389 5.27214 10.9579
16.2156 15.0884 23.2427
11.7325 9.72345 13.7479
14.6832 18.6481 33.903
11.9245 6.36547 9.94982
8.70928 5.07126 12.082
17.0147 12.1058 19.5549
14.6698 10.4381 14.69
14.641 9.41079 13.7955
8.18616 10.2058 17.6158
13.5271 7.65245 12.5336
24.4712 23.4198 38.2033
9.98118 8.42406 13.965
12.3431 6.5606 13.3221
18.0806 19.7292 25.9918
3.24116 6.91331 15.3615
12.2795 16.3478 18.5462
6.48906 2.93145 7.39882
6.82873 18.0951 26.4098
10.5017 8.87403 13.5869
10.1762 18.1832 28.8764
12.7096 7.11115 10.0313
5.77647 6.81214 13.5679
6.07507 3.82664 9.96193
3.91252 4.35827 15.8345
13.7841 12.4297 13.5865
10.3989 5.46038 6.10144
8.16823 7.5048 13.0547
11.8824 6.83215 10.9159
6.36274 8.51767 13.4296
12.7695 5.92138 13.7776
9.60545 10.3885 20.2064
12.6677 12.347 16.8695
3.9985 3.99898 13.5948
13.2903 9.29149 13.4269
8.91825 6.73131 18.1878
14.9097 8.13845 12.2412
11.2971 6.50758 9.27903
13.7838 8.34186 13.1592
3.1253 6.08731 21.99
16.6795 16.5868 19.9523
8.25717 8.88063 19.8456
14.561 8.06221 10.7659
8.90123 9.23525 18.2439
9.48563 5.37659 7.96116
9.45868 6.49744 15.7299
5.70126 6.66345 11.9656
12.9427 6.97521 5.38477
10.8397 6.92695 5.72844
7.73693 9.03933 14.0055
3.60402 2.14162 3.0001
10.7431 26.0558 33.4671
6.40253 7.12785 14.8408
8.16988 8.00927 13.1637
9.73575 4.26639 8.05426
9.13563 7.85386 18.1225
12.0844 8.98979 7.78303
4.20347 3.53453 10.0276
14.9952 11.6642 13.7422
9.52556 11.1634 13.8654
9.50401 9.53401 23.2393
15.5069 13.272 16.9144
9.29085 7.02747 8.00255
7.30058 11.3645 23.1486
7.52787 3.51538 10.7985
5.94782 8.36172 15.2386
13.5146 11.5072 16.8948
8.08156 13.9182 31.0523
6.44638 4.94959 8.97397
10.3182 8.01458 12.4013
11.6187 9.73351 24.5189
9.34507 11.8734 21.0022
7.98716 5.76412 12.0693
9.22221 10.7511 17.8697
8.15169 14.7299 26.0464
14.1996 10.8437 21.6231
8.66322 9.8641 14.9514
5.60466 4.46994 9.62963
8.75942 13.2713 19.1467
10.9756 10.4502 18.8214
8.70619 10.1338 19.5002
12.5651 11.5316 17.0236
4.89089 10.0115 21.9278
13.2076 11.6828 30.3241
16.5501 12.4386 15.9674
6.88098 11.195 21.5827
6.50229 4.22248 5.3358
2.57569 6.99379 18.8002
14.8288 8.82662 8.65148
6.75827 5.85983 15.8459
11.7714 14.2158 23.3492
6.47663 7.84203 12.7718
5.87731 1.88227 4.70643
5.35798 8.01588 12.6162
9.4911 9.75375 20.9509
6.5047 7.73355 20.703
12.2248 14.6795 30.5188
9.66472 2.53594 10.8583
9.89668 3.97503 4.73053
13.8784 18.53 33.0984
8.26409 5.21045 18.3993
5.2365 15.3856 37.7964
17.9545 13.7541 25.7968
12.6709 4.5002 17.947
14.537 9.58048 14.3495
9.4284 3.54925 4.72658
11.3369 11.1833 13.7311
6.57281 3.36315 8.87435
16.0889 12.3247 19.9166
9.92023 10.796 14.1735
10.4658 13.361 21.626
8.31642 5.62613 9.52363
5.592 8.4884 19.3288
9.99252 9.76396 17.8409
5.99419 6.31101 15.1278
7.63618 7.91272 16.5765
7.64056 7.87675 14.9984
11.965 14.8606 23.7117
5.04662 7.87619 24.0932
16.4738 11.5118 28.5852
12.7876 9.47946 14.8393
8.47367 8.13757 17.8576
9.14635 12.2783 33.7344
10.6487 9.39281 17.5961
11.1045 7.70362 13.5453
5.08772 7.44892 14.5381
12.0773 11.9467 31.8971
14.3214 22.1713 36.846
10.3588 10.9017 25.0642
3.18097 8.42079 31.4858
13.7012 23.4194 36.5516
9.41762 8.23183 21.8338
4.61313 6.69018 21.3601
7.35676 7.40307 12.2182
10.5519 11.9813 15.4309
3.29432 6.18692 10.4971
2.88192 8.35434 20.1117
5.11148 10.9293 31.8935
12.4917 11.0074 27.2466
11.4748 13.7575 25.6806
4.61893 6.38196 20.3219
8.00411 5.05964 8.1889
8.91972 5.24527 13.9388
7.96329 5.262 13.1084
8.48167 5.51122 22.291
13.4536 11.6463 12.7396
14.3088 11.4835 18.7723
12.7841 13.389 26.8095
10.6596 13.0843 32.1425
6.02344 9.7367 16.8961
10.1969 11.3765 22.526
5.50043 9.88816 24.4027
11.5727 17.5978 34.7964
5.25461 3.953 8.39576
5.75776 8.84568 15.4949
5.49769 6.93351 20.2168
10.7868 8.00839 22.84
10.1949 8.04239 9.7365
3.64121 11.8895 25.0216
5.80427 14.0743 39.3406
15.5733 8.67303 20.751
9.67909 18.7365 32.3194
9.54799 8.97319 15.6248
4.73384 6.01827 21.5192
13.3487 11.6036 19.3923
7.0733 5.04346 16.6475
7.02015 4.73105 13.0712
6.11023 12.7853 46.1861
12.1846 12.6033 29.4774
14.6118 12.0522 25.666
7.61592 7.68421 14.7343
4.74938 4.94115 18.4283
9.50109 3.41498 7.01234
8.71597 6.20589 5.45797
6.93477 9.7353 19.1314
7.17151 7.6475 25.6351
10.4256 9.19512 17.3162
9.70116 8.78013 10.423
8.09563 8.34826 18.2605
10.604 9.64018 18.3334
5.95167 9.29595 22.153
14.1046 14.87 32.5325
7.22092 14.2175 28.714
12.6672 14.5724 34.5589
8.87687 10.6204 24.9307
10.1865 4.16781 7.47313
6.49452 4.1813 13.2394
9.76693 9.2654 26.9925
8.05096 7.53138 14.3752
10.4471 12.8658 31.7714
7.1742 8.82147 19.8345
4.7784 2.59127 12.8154
8.48139 8.67641 15.3335
5.2345 3.43918 14.9291
13.4546 24.4104 42.3952
9.95107 8.26967 11.5878
7.3926 8.73338 21.4295
4.84231 6.65708 17.0274
1.06819 5.16596 14.3678
7.8892 9.36552 17.8348
5.86651 10.1423 20.3573
5.47169 12.9706 42.8835
6.58359 7.1775 21.8553
8.28916 18.2306 51.0765
7.94925 8.46322 40.0111
13.3331 15.4112 19.1587
5.36976 10.219 30.5732
7.49216 7.56206 26.383
11.8588 12.3799 37.4709
5.21807 11.7832 21.7448
7.80493 12.5403 19.6291
7.63212 7.04739 21.9007
5.43009 7.73268 25.0593
5.17993 8.07651 15.4699
10.4734 18.1038 30.0338
8.2095 13.3807 34.7304
8.60047 12.2222 19.0552
6.26187 9.88465 28.3125
9.70615 16.9662 44.8793
