# pn-170911/RbIIR-41-PTBB-1280-1959.psd
# Power spectrum* (dif=0,1,2) (really just |FT|^2)
# NOTE: only the first half! (symmetric)
# weeks: 1280-1959
# 8 clock-days, 0 excluded
# PSD: 1441
314.378 0.110948 0.0176032
15371.4 0.247735 0.0133149
59642.6 1.31684 0.013557
37283.4 1.74865 0.0140478
23762.7 1.75937 0.0130612
3375.3 0.411213 0.013194
5616.29 0.959842 0.0143567
6308.48 1.4446 0.0157362
2563.34 0.68763 0.015146
2711.47 1.02026 0.0145972
2755.33 1.16326 0.0154978
2021.68 0.922325 0.0147717
790.954 0.651709 0.0134964
939.857 0.866581 0.0144012
1682.28 1.34048 0.0142938
1017.93 1.27832 0.0148409
1859.78 2.20127 0.0179367
1341.4 1.65398 0.0133712
2000.01 3.27729 0.0200185
632.409 1.05403 0.0124351
1172.41 2.25547 0.0210299
1226.56 2.33901 0.024197
595.87 1.458 0.0214693
420.483 1.09136 0.0202149
936.974 2.58757 0.0159954
264.588 0.616616 0.0126826
1815.94 5.82925 0.0298618
293.422 0.921725 0.0222113
495.128 2.05205 0.0170462
401.7 1.37565 0.0148836
872.584 3.64437 0.0313397
345.565 1.8195 0.0151944
1002.37 4.76066 0.0366747
1030.81 4.91159 0.0525861
1181.04 6.43817 0.0514943
458.925 2.84804 0.0466715
893.026 5.69374 0.0412301
298.935 1.80294 0.0202868
449.522 3.07447 0.0444372
425.183 2.57841 0.019337
693.526 5.38172 0.0378414
426.671 3.27834 0.0442333
620.743 5.27968 0.0569791
164.996 1.45443 0.0301359
543.442 4.85436 0.0582722
361.025 3.77231 0.0477992
698.886 6.61009 0.0973869
267.858 2.6648 0.0558022
712.018 8.21913 0.121959
456.726 5.44437 0.0651811
340.525 3.63314 0.0563367
152.564 1.61614 0.0457186
555.502 7.27598 0.0915204
370.689 4.78651 0.0898002
460.716 5.96934 0.101997
378.914 5.20611 0.0842917
579.42 8.91979 0.149895
171.573 2.8984 0.059291
263.215 4.12914 0.0750668
589.037 8.73333 0.14678
375.139 6.77296 0.143598
525.901 8.90291 0.196847
274.318 5.32436 0.145996
354.101 6.77328 0.168063
467.768 9.7406 0.213759
278.647 5.26061 0.112917
197.559 4.24914 0.0973665
341.974 7.0503 0.145502
386.42 8.96764 0.218993
535.972 11.943 0.310335
237.949 5.90046 0.139585
265.562 6.55466 0.200999
170.043 4.22177 0.100454
304.957 7.49985 0.185491
251.323 6.74713 0.181998
136.318 3.55245 0.104742
218.32 5.79868 0.205911
333.528 10.1425 0.341
286.596 8.95374 0.274952
339.271 9.33417 0.292744
323.829 10.2376 0.373359
406.832 12.0819 0.414008
112.945 3.25514 0.106757
484.118 15.2463 0.481194
278.739 8.64733 0.298049
202.494 6.64762 0.228397
499.475 17.2139 0.595414
219.523 7.42478 0.301795
339.962 13.3628 0.550921
126.386 4.77694 0.210366
197.833 7.06342 0.313356
223.264 8.90731 0.388762
257.003 10.3625 0.42369
330.864 13.6549 0.52574
248.819 9.82939 0.424312
119.099 5.01942 0.2264
324.091 13.6793 0.55424
185.197 8.56762 0.388617
227.558 10.7779 0.464019
174.389 9.51559 0.508767
189.365 9.61227 0.446648
140.815 6.16694 0.34906
151.874 7.07768 0.39512
101.178 5.97945 0.294861
200.589 9.48814 0.504503
150.174 7.67427 0.408576
174.92 9.66096 0.528256
145.777 8.08724 0.40875
150.786 7.82842 0.430396
285.892 16.8299 1.07805
205.506 9.801 0.528462
287.921 16.5696 0.952905
181.104 10.2768 0.647779
311.778 18.0045 1.06505
289.194 16.2998 0.995058
215.963 12.3802 0.826811
211.19 13.6194 0.811661
166.275 10.1085 0.567008
210.971 13.0364 0.931308
131.01 8.04944 0.598332
225.399 16.9883 1.21743
120.623 7.55572 0.442958
91.9679 7.06366 0.49813
259.101 19.6942 1.42098
205.383 13.6861 0.958357
87.9812 6.24781 0.41508
235.459 17.5153 1.39609
142.557 10.6443 0.757411
217.887 17.6063 1.4733
162.677 13.0973 1.02879
136.436 9.9289 0.904431
113.379 9.26637 0.732545
117.356 9.98661 0.937313
161.792 12.7391 1.05214
146.248 12.6063 0.917066
238.933 21.7978 1.97591
137.554 12.9029 1.16708
101.175 9.23692 0.813302
137.35 11.9791 1.10543
106.537 11.3843 1.06913
109.006 9.24594 0.847575
147.071 14.733 1.46305
123.578 12.1086 1.21381
144.666 13.9917 1.47406
168.536 17.5536 1.75677
124 11.2844 1.11907
120.525 11.3807 1.11664
157.199 15.4327 1.38165
154.811 17.4402 2.04411
180.868 17.4608 1.58899
98.2873 10.6733 1.20222
140.211 14.1094 1.39271
177.978 20.5284 2.18219
88.0072 10.4396 1.21596
161.05 15.6187 1.55005
66.8301 7.40869 0.825427
172.813 17.4294 1.87925
116.487 13.6992 1.81473
130.906 16.3774 2.11901
82.7318 11.0414 1.50658
147.211 15.7126 1.81847
144.691 17.8586 2.20089
133.175 15.5282 1.9295
138.259 16.2084 1.91467
164.513 21.2043 2.67107
60.8132 8.68142 1.30639
104.297 12.3232 1.42641
106.478 14.4694 2.00377
62.7059 8.42609 1.25888
81.8249 11.9129 1.67214
124.908 15.7743 2.30114
98.9842 13.2301 1.73608
78.9869 10.708 1.49091
99.0662 13.1188 1.86387
58.2639 9.13308 1.44
96.8806 13.4756 2.0995
71.5619 9.44976 1.12191
102.708 16.8854 2.49936
136.606 18.4525 2.63761
173.255 25.3737 3.93277
76.5231 10.821 1.79501
56.8683 7.7387 1.17876
77.6794 13.2045 2.13787
70.7038 11.245 1.70283
100.837 17.2501 2.78536
117.335 21.2479 3.82386
81.789 10.7643 1.53309
21.8914 3.83459 0.55661
63.642 11.0278 1.81529
61.9893 11.3325 2.00888
63.0635 11.7923 1.98009
99.6092 16.9152 3.33895
196.331 31.772 5.09193
143.344 26.3502 4.4463
91.2256 15.8033 2.69525
72.703 13.5964 2.49394
88.6085 14.2732 2.37763
103.905 19.341 3.70975
112.439 19.8726 3.72486
160.912 29.1374 5.28327
106.935 20.9054 4.102
64.9591 11.8578 2.26163
70.0575 12.0735 2.0963
81.1252 15.121 2.78012
131.612 26.6919 5.54828
72.4237 12.5652 2.43751
80.6753 13.9977 2.4262
73.3427 16.5812 3.58704
138.185 26.5811 5.66626
69.1256 15.2632 3.2248
101.666 24.1968 5.78728
76.9022 14.1594 2.67765
100.287 21.272 4.323
87.3958 19.0919 4.22728
72.498 13.474 2.82716
74.6889 16.1574 3.72864
65.5607 14.2015 3.20179
80.6142 19.5465 4.59939
47.6268 11.2764 2.63724
119.141 25.5867 5.55631
114.031 24.4565 5.68733
112.577 25.591 5.71224
54.4423 10.9988 2.27762
56.2603 14.3675 3.37551
81.7065 20.1037 4.89743
28.5556 6.76524 1.91284
81.9909 17.4638 3.89234
94.7389 22.1016 4.95373
114.853 30.2103 8.5784
111.292 23.0527 4.90594
180.621 44.426 10.2279
59.5623 13.1144 3.23922
78.7536 21.652 5.92865
81.6403 19.8208 4.6832
61.051 13.7587 3.34928
71.8358 19.1029 5.01446
38.8345 11.0395 3.13277
98.7087 26.0065 6.57041
44.6648 11.3742 3.04635
101.246 28.4694 7.79129
118.848 30.0036 7.7916
94.3182 24.9439 6.6563
83.108 21.2353 5.29124
50.4892 14.1485 4.02234
69.5266 18.3938 4.90175
81.2234 20.0823 5.39893
56.398 17.7964 5.85666
73.2801 19.8147 5.6553
42.8953 11.6961 3.68954
79.8136 22.0452 5.31757
37.3544 10.9176 3.38643
64.0738 18.3588 5.32048
74.1313 21.3681 6.24069
103.689 31.3858 8.94589
63.3369 20.5223 5.92367
79.4298 25.0477 7.91194
37.2923 10.1009 2.96518
62.1636 19.0098 5.42986
52.6661 17.6332 6.20735
139.539 40.5786 12.3555
38.4796 11.4629 3.78918
56.1537 17.9929 6.15373
49.8964 16.727 6.13902
66.0468 19.1249 5.31773
102.372 34.91 10.9723
53.0885 16.9377 5.13933
90.0082 33.7744 12.2986
93.5885 31.4532 9.47329
35.9098 12.8637 4.66176
58.7546 20.7362 7.53532
56.5178 17.326 5.70112
83.4759 26.9826 8.52826
35.1282 14.7593 6.3008
38.1621 12.6184 4.19492
59.3865 22.5887 8.57572
52.4134 17.9446 6.35772
55.2726 19.1813 6.52043
20.1649 5.14509 1.54436
50.2391 17.1192 5.90005
65.9519 23.9792 9.03792
75.2946 26.8233 9.10821
36.0173 11.9992 3.66811
48.7659 19.1006 7.01383
71.4547 25.4738 8.94357
36.4261 14.4098 5.55487
33.3179 14.0426 5.75629
53.2099 20.3482 7.45597
63.232 23.0875 8.64708
79.6409 30.0066 11.025
61.4888 23.8026 10.1299
105.249 36.4236 12.3117
37.1792 17.0471 7.35466
18.2669 7.05479 2.95616
23.2854 9.86935 4.26177
61.6716 21.9722 8.06663
32.9565 11.6882 4.52326
64.3671 27.8146 11.8503
59.5395 21.0261 7.92675
44.3913 18.0949 7.56017
50.5094 21.0918 8.76557
41.4882 14.7112 5.945
59.1311 26.337 12.3821
37.007 12.9573 4.43409
59.7591 28.3944 12.7706
30.5034 11.1721 3.71231
41.0412 20.6229 9.96719
30.9042 11.638 5.24566
49.8762 17.1832 5.85126
38.4753 17.0763 7.10313
38.3204 18.0389 8.54207
64.9152 25.2706 9.45538
43.1207 19.4416 8.9919
43.8095 22.0316 10.8231
38.1513 15.7037 6.73819
27.2823 9.87988 3.58529
31.8626 17.9885 8.88721
61.2142 26.6941 12.4741
46.7912 21.8723 11.0717
51.8721 21.825 9.15177
57.6369 24.6813 9.91924
54.5691 29.3745 14.4367
50.8023 21.6555 10.229
50.6791 24.1232 11.3478
21.3216 11.769 6.74078
48.7838 18.0464 6.76282
26.2642 14.2763 7.339
46.4485 23.1606 11.6887
69.1217 29.1228 12.9707
58.7533 30.5598 14.4215
50.0525 26.1702 14.8257
63.4094 27.2322 11.3194
24.7797 14.091 8.30147
52.9445 23.9696 10.5048
24.0321 13.7606 7.88164
21.0765 11.1394 5.39102
45.012 26.906 16.0021
41.1128 19.637 10.0413
49.4118 24.8724 11.4893
18.6665 13.0732 8.86485
44.9633 22.1975 10.4266
23.4773 11.5161 6.77644
38.3811 20.547 9.75669
27.2528 14.9087 8.55752
26.6146 14.437 8.34119
25.1651 13.7306 7.86215
34.4836 17.9531 9.48181
11.8057 5.58395 3.16663
37.3152 23.1125 12.9422
15.0744 7.93372 4.76893
41.9078 26.6247 18.041
70.2321 31.065 12.5087
43.2521 26.6516 14.703
27.224 16.5379 9.78737
24.4061 12.6105 6.57541
21.0901 13.7884 9.28046
28.1114 16.7984 10.7267
37.818 20.9281 10.9528
19.7586 14.1959 9.69175
30.9601 18.3222 11.4555
44.8468 24.4806 13.4402
29.5683 18.5418 10.9918
22.7305 13.8956 9.3661
43.7227 25.2277 15.7398
61.2361 32.0084 15.0322
33.9542 21.4478 12.5818
32.2601 26.3389 19.9237
40.6859 22.9199 14.4328
29.9498 19.5148 13.363
53.8077 25.9619 11.7046
44.2443 29.0694 16.5894
18.1202 11.9258 7.47922
18.6985 12.4329 8.59942
31.587 20.9603 12.7407
18.8035 11.5652 7.65955
24.6769 14.8531 9.30382
14.5029 8.80286 6.98144
25.918 14.0758 7.1317
39.0989 29.2367 18.355
29.472 20.6523 14.1655
27.368 17.485 12.6661
20.8204 9.92699 6.08959
33.7365 20.4132 13.0659
49.5757 32.667 21.0033
25.2201 16.0285 12.1521
51.7243 33.3775 21.6894
29.5186 16.1805 8.62138
43.6409 32.2073 22.0123
26.8917 17.1031 12.412
31.3707 21.513 15.5076
44.0357 27.9829 15.7695
27.1635 21.642 15.9982
32.3877 17.2773 8.57354
33.819 28.6329 22.7332
41.2091 30.7481 24.3567
26.741 15.0561 10.1934
39.8865 23.5776 14.4955
38.7744 25.2777 15.0367
26.3105 17.4739 10.5353
37.1761 28.5243 21.3457
26.3856 16.869 9.84336
37.0034 29.3933 19.7126
7.94968 6.37878 5.66288
13.0138 7.02607 4.08631
35.3151 29.8739 22.1211
24.301 21.0476 19.1915
21.0905 13.1965 9.8978
21.9871 13.3326 8.29601
24.702 17.0851 10.7294
20.1875 16.0902 12.2992
32.7424 21.4439 14.5821
33.6469 27.9563 21.282
25.7709 20.1785 14.8302
13.4274 13.8326 14.4332
25.3874 20.7868 17.2689
19.3684 14.5836 12.9615
39.1543 26.136 16.675
18.038 15.1419 13.925
38.7696 25.9407 17.7738
30.7495 22.4395 13.0931
31.3336 33.745 29.6845
26.0565 17.1767 13.4426
42.0406 30.827 22.4146
11.7157 10.242 9.1358
21.261 17.9474 14.4216
18.4289 17.8262 17.2843
18.3667 11.1216 8.55636
34.8664 27.7577 20.8007
18.181 15.6434 14.055
35.1724 28.3272 22.5679
16.944 10.0601 6.78513
19.1132 14.8955 11.0636
28.4496 26.6199 22.5229
28.1907 22.295 16.4815
18.0708 16.634 16.0254
22.8963 17.9505 12.9775
20.844 21.9378 20.7032
23.2609 17.3968 14.9638
22.7791 16.6171 11.7761
7.7859 10.3425 13.8129
31.2342 21.9495 15.0679
18.8262 15.3997 13.028
21.331 15.8623 11.0744
18.4674 19.1203 17.6581
23.4028 25.6694 26.2967
32.6525 21.0103 13.9859
24.4891 22.8411 19.6137
12.7733 9.35827 7.44203
21.8733 25.0569 26.7349
39.5887 30.5498 23.0985
15.4117 14.7686 14.1288
18.0129 17.4168 16.4013
24.4391 21.4258 20.1425
27.7901 22.098 18.7567
20.2905 18.4276 17.0695
15.3748 12.5878 11.2641
13.3216 12.2896 13.5339
19.7394 15.2626 12.1604
24.447 19.5554 14.282
30.0847 29.1368 25.5938
27.4555 28.4529 28.734
6.75452 6.44004 9.5813
12.3576 9.60674 7.70705
6.8976 8.24811 10.6979
17.9022 15.1249 14.9761
19.8703 16.2216 12.4263
12.1948 12.8303 12.9567
12.597 12.5837 13.0477
22.6655 22.1482 20.781
18.2962 14.0039 10.8912
21.8381 24.2329 25.1708
25.736 19.0212 12.7938
17.1858 20.2641 22.0626
12.3097 8.33358 6.49281
17.1799 19.7373 20.4016
26.3536 25.7579 24.0081
29.9451 31.4184 29.2307
23.3029 28.2478 33.8641
36.9361 29.6511 23.6355
17.4321 15.6598 14.8573
25.7497 26.7308 26.089
16.7559 15.3099 13.2401
13.6761 16.2674 18.3324
20.2559 23.1859 23.6404
13.024 11.6296 11.3396
14.6648 17.4254 20.607
24.1012 28.2298 31.2285
26.2644 21.9506 19.5999
14.3005 13.7871 15.611
27.2342 28.5698 26.3536
13.2041 14.0083 16.6049
15.7438 16.8279 21.0717
25.321 19.5206 15.5127
19.8695 19.4434 17.0555
19.458 21.4001 19.1391
12.8318 18.1575 21.0421
19.9785 22.9047 24.3585
17.9465 19.7235 22.7868
29.9654 32.7482 35.2114
15.2534 13.626 15.039
25.2723 31.5607 38.075
17.3711 13.421 13.7752
24.8286 28.3435 29.9653
38.0451 44.2009 48.8307
36.3442 41.1311 44.7854
13.8041 12.2414 18.4601
30.0729 33.7909 38.6383
28.6487 21.7101 15.0257
17.9947 18.8299 17.5981
15.6525 19.5547 21.3594
12.9574 18.0697 26.2084
31.09 31.5772 30.9294
10.4381 12.1961 15.2212
11.4515 14.8189 19.9945
20.0078 17.8033 14.0439
9.33277 11.9696 16.076
21.3257 30.3737 36.3131
11.1866 7.97803 8.49531
8.60832 8.12833 9.28083
15.0932 17.7693 18.8936
12.4402 15.3859 18.6444
15.6295 18.3644 22.9885
15.9785 13.2322 13.1809
16.3999 20.2443 26.5712
24.5493 23.1824 20.8759
13.5347 15.1603 16.1046
9.35614 10.6692 11.7146
14.5653 18.3376 22.5855
13.4953 16.3107 21.3999
17.5835 20.755 22.3806
18.5721 24.3429 27.9026
9.05101 9.74366 13.268
12.1578 15.1265 15.8998
10.1976 14.9321 20.785
12.4809 13.2701 15.2231
14.6358 19.3347 22.0652
6.15509 8.46197 12.6968
9.24009 12.6164 21.161
14.2066 10.3382 9.53106
16.3932 18.5211 18.3528
15.8022 21.1792 24.6011
18.3466 26.8962 34.9909
11.4813 12.1503 13.6983
7.20078 12.342 21.0074
14.3384 16.5399 17.8499
10.2817 16.3448 22.4464
7.65726 11.0673 16.64
10.1645 15.3103 23.0396
13.7599 20.4974 36.6231
27.0226 22.1726 15.9787
13.4662 18.3836 21.0511
17.3242 22.257 23.4153
8.66108 12.4467 15.8504
7.71321 15.353 24.5952
10.5922 13.9449 19.5381
10.8203 14.9757 26.2591
29.405 38.81 46.596
8.28867 8.58066 15.2842
13.8239 13.404 14.9454
7.3528 7.81133 12.1323
14.7637 18.7208 27.6618
19.6883 22.623 26.2639
16.7184 16.6014 15.3368
7.90179 10.6038 14.2598
6.86172 9.11725 15.3276
17.1071 22.6674 24.8109
6.92325 6.71785 6.88027
9.64661 14.5641 19.8134
9.95509 13.54 15.0038
6.41751 12.7916 20.8054
8.78761 10.7941 15.2154
9.17544 11.3195 14.4014
11.4446 17.9396 27.4008
11.0109 18.8889 31.8554
10.0736 10.0814 19.3118
28.8464 35.2025 37.7482
10.2446 11.8198 14.1739
11.6004 21.6433 37.3872
16.3337 18.5214 22.4913
11.4911 13.2834 15.9319
12.4941 16.5613 17.0431
4.29298 9.4652 16.1546
10.4172 15.1699 22.2288
4.75093 8.27115 17.5008
11.4255 13.9124 17.4457
18.142 28.8373 37.7657
12.6532 19.0199 26.4086
11.0761 17.5919 27.6442
6.75229 12.5896 29.1149
23.2737 25.2025 25.9525
10.5544 17.0882 30.407
30.0474 53.109 78.2982
12.6975 11.6426 19.2133
16.118 23.3503 36.5046
22.6195 34.4605 50.6005
16.5139 19.7528 23.8404
6.14645 6.22374 8.43593
8.50595 16.0589 26.2512
5.07065 5.7721 11.2326
9.09684 11.5415 15.5504
10.1734 17.4798 26.7215
11.6145 15.1875 20.7345
5.26032 7.96261 16.9646
7.01192 7.54623 12.8121
9.36778 11.5412 14.3193
11.4476 21.2887 32.7972
12.5971 18.4432 30.5543
10.892 11.1263 12.5491
6.79036 10.0376 18.307
9.35798 11.1226 13.6325
11.9701 21.548 35.3039
15.0153 16.8783 18.7812
21.6674 44.703 69.4296
19.5944 23.5812 27.3571
9.23829 14.1986 17.9338
7.55122 13.6282 21.9359
7.13301 13.0706 25.6159
11.3907 12.9059 15.1886
10.0242 16.0995 23.013
6.59171 10.7415 17.4659
8.1221 13.6024 26.7007
16.4006 19.7922 20.1285
10.6509 23.0693 37.5516
8.48907 13.9378 23.1539
9.88783 19.061 34.7714
10.3282 14.1606 25.4893
15.789 25.9224 33.6763
9.64474 16.1256 28.8711
8.01887 13.8438 23.4542
10.3037 18.6346 33.8809
7.8755 12.9026 28.0152
15.9463 21.5833 29.0907
14.032 23.4145 34.6582
7.54473 11.9738 20.5992
15.5307 25.8303 40.2722
8.1573 11.9286 17.764
7.0035 10.4016 15.4786
6.70353 10.6133 13.726
2.10887 5.25528 12.0784
6.12163 10.6479 18.0484
6.43378 9.3137 14.398
9.04026 18.7218 31.495
9.85328 14.3525 23.7497
6.37928 6.66056 10.5235
14.0385 26.3604 40.56
7.72471 10.7708 17.459
12.3201 20.593 26.7668
8.70644 18.4816 28.9303
7.93466 15.4231 27.5919
8.04731 16.347 28.5816
7.02467 10.218 17.535
5.49222 7.32077 8.90751
2.26696 7.57786 19.122
8.85378 12.2875 17.7375
4.81658 8.30064 16.2943
13.1746 24.0363 34.011
6.11797 12.7879 27.5641
10.8081 17.559 32.5924
16.2547 29.8747 45.1049
5.04098 8.87146 22.524
11.8261 19.1275 27.6163
4.10034 7.77957 12.1043
5.19463 14.3031 30.6262
8.87114 18.1863 34.3236
7.23269 7.76299 14.2339
7.57233 13.5977 23.3788
9.79432 16.5894 27.7076
8.70372 13.6523 17.4374
3.24025 7.63859 18.63
7.66175 13.5677 22.6672
6.88423 13.0349 20.7925
2.96247 4.3054 8.5117
6.59126 17.3249 37.4356
14.6204 27.0704 38.6199
4.14802 8.66902 21.2856
5.13817 8.30651 18.542
7.32926 12.0019 18.2209
3.19745 7.8103 20.1482
6.37774 13.2595 30.0271
9.3185 17.8533 35.275
9.31468 16.2636 31.1792
10.6639 20.674 40.0675
5.66645 5.90939 18.2249
11.0962 15.2595 18.1328
3.86007 10.7187 22.6599
6.60661 16.193 40.9668
9.31038 16.6657 47.5603
17.2119 16.9038 14.8917
7.66685 14.2733 22.1779
4.21724 7.60591 15.2517
4.68811 12.4649 28.6737
6.91498 6.89307 12.253
7.87019 13.6496 22.5463
6.07723 13.5177 41.6316
21.6829 33.3576 47.5929
11.788 22.6286 43.9092
14.3537 25.3816 43.4456
9.57486 18.6689 32.4717
6.94168 12.2089 22.2344
4.86973 10.0932 22.5316
8.40862 17.2688 35.6725
7.20634 8.67463 14.8346
5.35727 8.45665 14.8882
9.55083 19.6633 35.6554
8.06719 13.7416 21.417
6.96898 14.904 26.7211
7.09303 20.525 49.9513
15.276 29.279 62.2971
12.2988 17.2562 32.6368
10.9536 17.1878 27.4462
6.98695 19.369 52.1999
10.8283 11.2382 19.5504
11.251 17.1112 19.507
7.29134 16.1079 35.6395
11.6468 20.154 32.8971
10.5703 26.386 56.0189
11.464 16.4172 21.1689
7.28936 20.2247 45.5711
10.8907 19.437 28.851
5.02608 17.4225 56.1139
11.2613 14.6249 21.3303
6.19512 11.2812 23.8909
8.13421 14.7504 25.644
3.8058 6.75454 19.4755
8.66704 15.4748 32.1998
14.8284 30.2969 52.7998
8.58147 16.0278 29.9595
9.79433 19.6947 35.7671
6.12618 10.6389 14.748
3.90525 10.2438 22.8973
6.54524 18.0835 38.1941
4.97698 10.5415 23.8907
4.17791 7.94256 19.8475
4.25553 7.6422 17.5052
5.89237 12.2938 21.5575
2.5335 7.74899 32.123
10.5498 16.3443 22.9496
4.69422 10.3359 22.2145
4.92807 9.87421 22.4974
8.53179 20.0734 44.2405
8.32769 14.311 25.3613
5.50239 9.40108 19.7465
7.70628 17.2045 30.3958
4.62322 6.81263 12.1596
6.75941 15.5355 28.2732
6.14167 17.017 28.4763
2.09328 11.4235 42.6641
7.95452 11.9596 26.8098
7.09213 16.5902 34.1948
5.52468 15.0408 38.59
4.7241 6.3385 22.9769
6.87552 10.8495 22.8955
8.82274 18.6272 31.3087
4.77687 9.03798 23.14
8.57057 17.1945 31.1803
4.9032 9.62091 18.8305
4.16012 9.67981 24.8837
7.16737 16.4017 34.3197
5.07427 9.29674 22.355
5.46261 12.0406 25.0787
7.89201 18.6077 36.7699
4.67493 10.2847 25.1059
2.72748 3.85586 16.5161
5.48934 9.94491 24.4087
8.96797 17.4635 23.6483
2.8276 7.51922 18.3809
4.34907 8.85729 20.1883
4.86038 9.88187 15.4624
2.35125 7.93506 24.7969
7.87927 14.6468 20.8545
2.52786 8.42962 27.7837
5.16786 8.0495 13.7553
4.72805 11.733 26.9858
6.87337 20.5825 53.9551
9.75614 15.2677 23.4219
5.67048 15.0169 35.344
8.07005 16.3088 47.432
27.1797 92.3924 226.11
25.834 28.5401 38.5385
6.82286 13.3191 34.4389
9.37185 16.4392 27.257
6.19147 12.6794 16.9981
2.72353 6.98967 13.2606
2.51413 9.08624 21.7667
2.38951 4.88361 14.7983
5.57699 14.2181 29.7855
3.12949 8.51902 30.9051
8.36462 19.7584 43.1004
4.40511 7.07466 16.0549
5.3196 16.5346 42.3462
7.63372 15.3776 32.6633
4.79498 9.424 29.9618
8.5752 18.0084 29.4942
4.87315 14.6962 37.6607
7.80657 14.7677 22.0857
3.24306 7.85055 11.0799
2.44076 14.245 45.995
7.24876 13.0175 26.0511
6.59804 17.9825 33.9025
2.79923 10.2789 35.3458
5.31258 5.91404 10.6577
5.04572 14.4394 31.4225
3.59484 9.19411 29.0836
5.67574 13.0999 29.1364
2.68078 6.97922 28.9312
5.04759 10.0596 30.5282
7.07471 12.7003 28.545
5.39821 13.3747 29.3321
5.8878 15.7998 43.2945
6.4201 10.8474 27.5278
6.2606 14.6264 34.2729
5.14306 7.46504 16.2665
5.19179 12.3093 27.6938
3.15267 3.8753 14.9471
6.91034 14.5587 21.7257
3.29295 8.255 12.2327
3.10839 9.42937 15.6529
3.89255 13.8931 33.0305
4.20425 10.3647 27.4121
4.93764 13.4125 29.2747
3.77816 10.7949 32.3482
4.936 11.4562 33.871
6.18513 12.0317 25.0557
4.32555 7.97264 18.0477
5.60422 11.6553 20.4572
4.10797 13.0856 30.7236
3.91434 10.1992 27.4168
4.91891 9.96689 18.0313
2.40913 9.67851 30.4049
4.73403 10.1993 21.8789
