# pn-170911/RbIIR-46-TWTF-1280-1959.psd
# Power spectrum* (dif=0,1,2) (really just |FT|^2)
# NOTE: only the first half! (symmetric)
# weeks: 1280-1959
# 10 clock-days, 0 excluded
# PSD: 1441
803.55 0.111785 0.0334164
44519.8 0.637543 0.0172401
476720 9.25444 0.0185602
5368.93 0.194225 0.0174615
16065.5 1.38961 0.0167669
4710.75 0.362055 0.0172414
5217.06 0.710448 0.0181827
2172.43 0.426479 0.0174084
2435.21 0.493703 0.0173531
1119.75 0.539262 0.0183936
1110.67 0.464706 0.018506
973.195 0.25732 0.0184333
1895.18 0.908429 0.0166495
1187.22 0.825165 0.0170926
1447.82 0.670578 0.016272
705.333 0.635153 0.0184519
766.337 0.544203 0.0192706
700.095 0.720719 0.0169387
850.583 0.835482 0.0163393
466.305 0.391178 0.0191017
496.509 0.567757 0.0199913
943.732 1.16589 0.021473
283.808 0.42629 0.0206975
345.638 0.715478 0.018751
520.472 1.1703 0.0194304
511.894 0.796658 0.0226187
594.21 1.39741 0.0216666
352.188 0.898652 0.0179589
335.667 1.00236 0.0198359
244.226 1.08642 0.0219767
301.858 1.04597 0.0317202
236.66 0.98341 0.0231878
177.002 0.821486 0.0258226
173.049 1.12245 0.0269604
488.129 2.08288 0.0182943
326.311 1.65404 0.0229554
286.057 1.44045 0.0217453
268.812 1.32119 0.023228
260.078 1.85539 0.0336804
210.824 1.79184 0.0323579
250.003 2.20405 0.0307081
255.015 2.08646 0.0322293
342.811 3.19922 0.0585418
248.369 2.92518 0.0596332
247.181 2.328 0.0433051
251.808 2.63625 0.0468736
368.292 3.9488 0.0749431
233.504 3.03055 0.0574585
278.948 2.79939 0.0377606
196.609 1.59043 0.0335466
196.877 1.97414 0.0445183
270.304 3.88751 0.0500442
347.401 4.27307 0.0851412
307.491 3.46261 0.0685798
410.428 5.48566 0.10509
524.944 5.96763 0.0845015
335.785 5.15279 0.114164
213.757 2.75375 0.0739286
101.391 1.71389 0.0513406
276.859 4.23598 0.0718848
215.854 3.43428 0.0978023
274.583 4.3377 0.0733909
470.296 8.4761 0.164038
174.746 3.31929 0.0838352
300.281 5.66501 0.148656
172.17 4.00094 0.096278
304.155 5.73573 0.168738
163.774 2.9872 0.0766521
223.408 5.17288 0.154082
228.991 3.9907 0.137203
299.688 6.72767 0.194901
335.68 8.4163 0.200519
253.002 6.23693 0.184502
267.591 5.55444 0.146976
301.62 7.47777 0.230128
163.408 3.61239 0.0889535
310.949 7.53956 0.189128
133.151 3.84574 0.0747286
389.824 12.1707 0.344498
251.267 8.07499 0.251926
189.08 5.06459 0.205005
155.789 4.29065 0.145976
149.103 5.10756 0.158452
201.052 5.958 0.182789
179.772 6.14301 0.234389
394.067 13.4229 0.452677
401.238 14.8078 0.557961
215.743 7.59937 0.284238
196.437 6.2944 0.230448
244.643 9.8316 0.377211
125.646 4.24549 0.187815
166.08 5.86989 0.252957
123.802 4.5946 0.180537
56.8911 2.90303 0.134303
196.045 7.35344 0.322647
346.303 13.0185 0.518795
174.622 7.56859 0.381113
198.692 8.71394 0.375031
124.966 6.09458 0.356591
331.202 14.9506 0.716602
182.311 7.79077 0.383673
273.501 13.815 0.701423
350.466 16.4971 0.805783
182.956 8.15952 0.50231
202.108 10.6613 0.621303
274.332 14.2842 0.789846
176.414 9.79734 0.580266
175.433 10.0221 0.493421
95.1834 5.51393 0.288217
152.064 9.34579 0.535852
281.397 15.4954 1.01249
181.854 9.63993 0.567894
140.003 8.42396 0.484839
239.086 13.5923 0.817605
160.757 10.6593 0.637178
67.4473 4.04166 0.247843
156.487 10.2341 0.74026
84.1953 5.92643 0.369628
126.363 8.78915 0.603165
209.044 14.2634 1.05144
177.787 11.2297 0.705149
165.049 11.7879 0.891535
108.678 8.56088 0.632109
171.28 14.0426 1.16797
195.179 13.3197 0.905755
219.556 14.7292 1.09528
169.588 13.6199 1.02631
132.676 10.6628 0.787168
136.992 10.2097 0.898109
114.469 9.52482 0.701491
139.357 8.75432 0.659821
159.822 12.4619 0.985093
116.596 8.68372 0.784612
133.298 11.9903 1.12434
73.0909 5.34412 0.467824
120.953 9.76388 0.839687
198.671 16.4886 1.44823
176.64 15.628 1.34505
123.868 11.7028 1.13644
122.508 11.6855 1.01921
153.257 16.2202 1.60576
67.2619 5.24061 0.461586
166.392 14.9697 1.58273
230.263 20.3729 1.92582
125.447 12.848 1.19333
214.173 20.7832 2.06815
113.03 10.8937 1.1278
154.026 16.7024 1.73729
127.254 14.3358 1.65549
149.734 15.5015 1.55771
152.86 17.0923 1.87606
167.137 16.5119 1.65175
69.1944 8.18114 0.854363
87.5638 8.72017 1.03682
136.911 14.0245 1.69732
114.114 11.7072 1.32367
110.389 12.4814 1.35666
71.1935 7.90557 1.01851
149.003 18.8798 2.33064
147.619 17.0471 2.06542
77.5861 9.08504 1.12877
80.1733 9.09297 1.07394
233.014 29.4685 3.79735
117.12 14.6757 1.74341
107.887 11.972 1.52273
108.008 14.7689 1.92187
128.742 17.0159 2.43297
179.707 22.5832 2.73661
104.442 12.6848 1.74312
149.705 18.4216 2.68203
160.342 21.0042 2.77467
128.86 16.8461 2.56677
185.26 27.5365 3.51599
79.327 11.7905 1.78733
106.171 16.6898 2.68465
109.308 15.5194 2.38568
119.534 15.8096 2.37366
66.0452 10.9661 1.65774
135.3 17.6737 2.54442
137.026 19.6894 2.84468
141.64 21.7633 3.47194
91.9489 13.8564 2.57489
131.982 21.0996 3.29767
59.3873 9.32457 1.7961
88.7971 13.2927 2.28795
128.758 21.147 3.4194
143.243 25.2735 3.94507
81.2283 13.8156 2.37674
122.53 19.7973 3.05957
96.5062 14.9458 2.45224
93.0762 16.2177 2.83669
233.551 39.6149 7.01678
170.118 27.4 4.81174
102.627 14.9372 2.30719
79.4456 15.0543 2.78904
64.0593 13.7871 2.96376
187.607 32.5679 5.40728
92.2713 15.7131 2.71362
85.792 17.0365 3.2714
150.861 27.0425 4.80155
70.935 13.8662 2.56588
79.9929 18.1075 3.78368
105.395 19.1342 3.37796
58.8714 11.7129 2.22149
41.8463 8.56405 1.90232
118.23 20.2643 3.81362
68.4119 13.9697 3.33461
111.113 21.75 3.89388
89.9474 20.049 4.39571
78.4275 13.6005 2.26761
98.5101 19.5934 3.68946
102.152 23.6219 4.9648
51.7517 12.1685 2.79841
53.4195 10.502 2.38167
49.8661 9.8033 2.13673
107.4 21.931 4.6626
87.0624 19.1728 3.70028
100.241 24.2001 5.22345
157.5 40.7585 9.84164
167.465 36.233 7.65679
104.092 23.6137 5.23505
69.5285 16.6697 3.73469
52.4976 11.6272 3.13212
55.7095 12.5236 2.66648
53.8344 11.0437 2.59151
42.8209 9.81393 2.59316
144.864 32.3007 7.32706
57.8038 14.4893 3.8532
75.4624 15.5622 3.64134
53.08 12.9714 3.12909
60.3698 13.7467 3.30294
50.3727 13.5848 3.423
100.611 28.6731 8.04226
92.5107 21.3219 5.84779
162.366 35.4312 8.11613
65.5917 14.8887 3.3412
77.0203 22.216 6.42584
89.1414 24.6484 6.59656
65.0837 14.6091 3.74418
67.9194 19.0817 5.58421
194.135 52.3558 13.8091
101.988 25.803 6.62495
84.6644 21.9869 6.15731
92.5205 25.3252 6.85356
52.6618 14.8692 4.15553
66.0725 17.7933 5.14687
19.4229 4.89428 1.53459
122.386 31.175 8.52894
94.5319 28.2733 8.51216
135.198 39.8735 11.8255
35.483 12.0403 3.59412
38.3467 11.4996 3.93049
114.738 30.7628 8.81538
45.5197 14.4024 4.94565
78.5087 22.4587 6.73717
58.2439 16.3757 4.47861
97.8702 28.7295 8.08589
67.6143 19.4007 5.9916
82.8379 24.8477 7.42767
111.549 33.4684 10.0686
43.2093 12.7663 4.01297
45.486 13.8522 4.72566
53.6243 17.5336 5.8037
60.0169 18.6394 6.05086
62.5366 19.8582 6.9313
76.5459 26.0893 9.19299
72.5611 24.2129 7.72119
61.0288 19.3007 6.7472
80.8044 24.3202 7.3081
65.6824 25.1713 9.57638
55.8509 19.9751 7.10871
75.66 22.2925 6.31737
66.0932 25.2765 8.87099
66.6234 23.8744 7.96686
61.0283 20.8839 7.28843
56.3837 17.4046 5.70344
61.8658 23.2335 7.93814
64.4061 24.2333 8.48517
49.5058 18.7784 7.11579
30.338 10.3501 3.50714
49.9884 16.1675 5.76975
69.8195 23.7753 8.62509
30.6378 13.582 6.161
72.0002 23.2375 7.43988
43.7961 15.7932 6.06969
67.4356 24.517 8.49447
59.9504 22.4051 7.9974
41.5865 18.2398 7.7884
87.9205 29.9102 10.3784
55.915 21.3082 7.75456
35.6298 13.4746 5.57128
51.9992 22.2186 8.8886
48.8494 19.1715 7.70526
29.5656 11.5629 4.64797
30.153 12.3314 5.51853
40.8473 15.6482 6.25787
55.1502 24.2936 10.7759
39.5668 12.8277 4.38731
56.3978 20.8942 7.35047
41.5284 18.3652 7.64661
66.1403 30.3218 14.1703
55.9348 20.0264 7.39313
28.6635 11.4012 4.77557
32.9888 14.1405 5.54436
26.0963 12.7703 6.5501
51.9155 21.6033 9.46365
39.338 15.3147 6.96818
62.6308 26.4525 10.9658
77.1358 32.6013 13.5795
46.8852 19.946 8.73597
41.5603 18.413 8.24517
33.2095 13.8293 5.76276
35.9486 14.0199 6.21777
33.5534 17.4619 7.80707
65.9606 28.5501 12.7799
23.9506 13.734 8.12681
45.3184 17.8944 7.16254
26.0615 13.0632 7.5156
34.7573 13.2408 5.23593
39.9706 18.1549 9.03986
58.8969 22.755 9.36724
42.1318 19.2656 9.11067
36.3056 18.4032 9.10501
44.1417 18.2863 7.21899
36.9288 17.6825 8.86116
26.3589 12.0486 5.87057
19.3422 10.2022 6.08155
46.7103 22.8921 10.1527
28.3479 14.7208 7.67759
49.6986 25.2629 12.5449
43.6755 18.2023 8.18849
37.2083 16.2002 7.58905
43.0942 19.7387 9.54286
44.1799 23.186 11.0347
45.194 21.5614 10.3462
32.3609 18.7762 10.8867
30.4764 19.0735 11.0366
47.8938 26.2521 14.5721
34.6324 17.4694 10.5102
27.7498 11.8546 6.7266
31.3014 13.0706 6.14419
46.8897 22.9843 10.603
20.8854 10.1351 5.02782
16.6011 9.47411 6.02014
32.2941 15.5381 7.03956
31.9363 15.7111 7.83289
47.1346 27.2788 16.3921
41.5003 24.4617 13.7286
28.0354 13.8468 6.94498
35.2822 22.9269 14.3627
37.5003 19.8671 12.0408
50.3732 28.6305 15.8589
33.6422 16.2014 8.1919
14.4079 8.70887 5.15977
55.8011 32.573 18.4752
31.7304 19.8003 13.0898
54.8182 26.8555 13.5773
26.7844 14.3837 8.12408
30.0259 15.8783 9.50399
21.7515 13.3815 8.60829
35.3985 19.0635 9.55441
22.4481 12.8279 7.78134
30.4207 19.2437 12.2484
36.5368 20.655 12.0066
51.9958 27.9245 15.1023
33.4209 20.77 13.8271
35.4535 21.2456 13.2532
32.76 17.4703 8.55411
19.506 12.245 8.24947
31.1414 19.0444 11.2237
43.7437 29.5365 17.6922
20.1 17.7125 14.7074
35.9645 16.5816 8.12591
34.0505 20.1727 11.2547
26.327 14.9829 10.0031
55.6166 33.4818 19.8276
31.0448 19.8348 13.644
53.8481 35.4555 22.7459
37.8054 22.0813 12.4002
27.6304 15.8373 8.71623
38.5986 27.4804 19.41
24.2653 16.6032 12.5785
46.1286 29.5915 18.1771
27.5304 15.9604 11.3906
28.8834 17.2013 10.6008
26.4561 20.3519 14.3044
11.1336 8.86948 9.11197
28.2641 14.2404 5.7834
10.5748 9.92112 7.54863
38.8356 24.5475 14.7105
32.4141 26.3874 19.8033
35.0049 25.1695 17.9403
19.6541 14.0151 10.4944
40.4378 25.8544 16.782
27.263 20.2083 14.5629
41.5565 26.281 17.4817
21.3039 14.7227 11.481
46.4339 31.6538 19.756
22.0613 16.2216 12.3395
29.5657 18.7213 11.5435
19.4622 13.0371 9.8552
30.0007 21.5709 13.7426
22.8556 18.2902 13.5112
23.7065 17.828 12.6992
19.2243 14.9907 11.6209
23.5169 17.5302 13.7654
46.2336 31.6503 22.8353
47.3447 33.4403 21.7311
24.3391 19.1737 16.0694
30.501 22.3395 15.0707
28.0214 23.3373 17.721
17.8642 19.129 22.0101
36.5952 18.756 9.61619
26.4217 18.4306 13.2615
14.4425 10.6368 8.0158
18.9638 18.2287 18.8174
66.2968 45.3164 29.9986
25.8344 21.5334 17.2248
26.7873 24.1019 20.682
22.3899 16.8802 13.9967
27.3305 18.5967 14.3016
31.9078 26.1167 19.7509
25.012 24.467 23.9839
33.0164 19.793 12.9029
17.2316 12.2172 9.52115
24.9306 17.3253 13.6594
34.0733 27.5792 20.5144
28.1707 19.0614 13.7975
13.2459 9.52108 8.22466
30.8003 25.8557 18.2412
14.0961 16.1236 17.1876
37.5409 30.5453 25.7877
31.4034 24.261 19.2227
19.5503 13.7253 9.92456
12.2369 9.36444 9.71699
27.1086 21.217 16.8344
14.0402 12.5859 9.97009
13.7169 12.4217 12.9188
39.3672 29.7614 20.6782
20.3484 15.9289 13.4995
14.2743 14.5015 14.828
37.4937 34.4164 28.9636
25.7597 20.5557 18.2133
22.0609 19.4713 16.0626
10.8206 9.33788 10.1186
15.6385 16.7888 18.0289
27.3772 17.5753 11.0292
20.6926 20.1683 18.8462
23.644 19.9194 16.3698
16.2938 13.6945 12.4164
18.176 14.6431 11.4861
15.8719 19.2359 19.3743
21.0386 16.9741 13.7043
17.5323 16.3669 17.7639
27.5399 20.9575 13.8401
22.1356 25.4688 24.5767
16.7641 15.6004 15.4176
23.2562 21.5805 19.7279
20.8355 18.2282 16.869
23.5971 20.2149 18.1338
18.6605 17.2162 16.0865
18.9844 16.7461 17.7682
33.9576 26.7404 19.5613
13.214 12.4048 12.6856
13.6005 12.0618 11.2197
19.4465 16.7122 14.1968
19.4618 21.5364 21.8124
14.859 13.3567 11.5308
18.6008 23.4283 27.7696
24.596 18.101 16.1137
17.0346 14.5679 15.2053
14.5384 9.90204 7.57504
24.2034 19.7922 15.1255
26.9213 29.1073 27.1618
12.1596 11.5457 11.0606
14.7734 17.098 18.079
15.754 15.9265 17.116
18.217 19.0427 21.0625
28.0233 25.51 23.1936
26.4543 27.5904 28.4387
33.1049 37.7278 36.7573
18.495 17.7343 21.4028
21.1027 17.4684 17.4844
24.1627 24.3322 23.9443
29.5331 25.7889 21.0589
20.4314 21.1515 20.9195
20.787 22.8506 22.5238
9.11224 9.50991 12.005
21.111 22.1033 22.2624
12.6369 11.7726 12.4698
10.0972 11.0669 15.1332
20.9901 17.4392 14.7594
25.5008 27.9362 27.0623
17.0031 19.536 20.3374
13.0036 21.1969 29.7605
33.2427 30.5976 30.975
17.2814 14.1778 12.471
13.821 15.9804 17.3422
19.1027 19.0991 18.9494
6.49576 10.5818 16.3898
14.4693 16.2859 20.9635
19.8223 14.8521 12.6395
11.9987 12.9427 15.1743
12.4402 9.77896 9.91423
18.417 20.8249 20.7834
13.2958 13.4612 14.9606
13.1972 14.993 15.8895
11.7672 14.5237 19.2666
22.4623 23.544 22.9782
24.5927 27.2984 26.8102
11.3856 14.9496 19.8403
19.4688 22.2191 23.7424
9.99594 12.1908 16.1697
19.4962 19.649 22.484
16.9159 18.1122 20.1552
11.6199 10.5541 12.2629
23.3496 25.9137 27.4199
26.5479 31.8117 35.0294
13.1257 13.9238 16.8832
12.113 14.7618 18.7872
15.9313 19.4751 24.2894
24.5523 25.9711 25.467
21.1621 30.5022 38.1884
10.5713 11.2471 14.4427
12.5525 11.2416 10.4457
7.33113 11.6206 14.7828
5.001 6.99109 12.5948
13.4832 17.3289 22.2496
10.0673 9.95006 13.2035
13.9451 17.7079 20.695
8.66769 10.7644 18.4554
17.5506 16.4145 17.4192
13.2152 12.7697 13.8497
12.0072 12.5695 14.4929
23.9069 25.975 22.9117
17.7528 25.2074 29.9268
15.6953 18.0801 18.2338
7.54612 14.7672 23.274
19.9297 23.4743 26.7363
11.6129 15.5249 20.6756
16.471 21.3652 22.8039
8.79928 14.1566 24.1696
18.4912 21.2105 24.8102
17.0962 23.5659 33.9385
23.9437 26.6712 31.752
23.3551 26.8707 28.9861
17.585 23.6631 31.1265
11.8383 12.7177 17.6631
13.8803 14.9878 17.9359
12.4252 15.4526 21.7945
13.1761 16.0604 19.8295
10.8514 13.2816 18.2593
14.6371 21.7718 33.5442
20.5646 19.9096 19.6693
15.0571 22.7679 28.682
9.47318 8.2056 8.4929
8.26972 15.7172 25.1248
7.82165 9.66362 17.0862
16.9203 17.7504 16.8147
8.51064 14.7138 23.6177
14.9167 16.5401 25.679
24.9959 28.1797 29.0456
16.8677 22.1772 28.996
17.5413 24.1263 32.3036
25.5617 34.0645 42.8364
18.7987 20.9171 22.0049
15.4141 26.4693 36.104
13.1521 15.7917 22.4085
13.0131 18.6065 26.2439
11.1253 16.2605 24.0962
17.5472 20.2569 26.1467
15.1862 16.2403 19.4844
14.2084 17.211 23.0083
13.981 20.1854 31.3941
18.4252 21.4068 22.8842
12.8252 19.364 27.6287
16.8124 22.2334 26.4399
10.0936 16.241 24.4972
8.90751 10.4196 14.751
15.9606 22.6078 32.4401
13.9186 18.5986 26.2405
12.3501 15.7215 21.0783
7.98474 11.6109 23.0745
18.466 21.8938 24.1251
16.1019 25.7828 30.8719
8.29068 17.1186 32.3493
15.7361 20.9235 30.7746
8.54127 12.1696 20.2692
8.17491 8.11487 11.0748
13.1671 22.7969 37.1538
14.0219 19.5684 28.3102
7.98683 10.5399 22.4145
18.8691 24.3288 30.2513
12.2103 13.2536 16.2328
17.3232 28.3786 40.7774
14.1469 19.8507 28.2985
13.3298 18.0184 25.7973
15.2247 19.7271 27.6912
15.5186 23.7223 37.1685
20.3196 29.3528 34.8943
9.2826 15.9101 24.1499
6.99849 11.3665 24.7735
16.9959 20.1838 22.8488
7.47545 13.9516 21.239
11.4674 17.126 26.3122
13.1345 21.116 36.1301
12.3795 17.7498 29.8031
14.1791 15.8376 13.7241
6.37496 12.1504 19.0796
10.4576 17.2274 23.8322
12.997 27.3532 45.2774
11.7839 15.4022 23.7315
8.03602 12.9729 22.5024
9.37202 18.9949 39.1031
18.0045 20.7431 27.6634
10.4621 16.9902 31.7347
14.7088 15.0695 15.3727
10.6204 18.5866 28.4087
13.2272 16.5883 17.4464
9.13675 21.8228 38.966
8.77564 13.7062 31.3697
16.7262 20.452 27.4838
15.693 24.2155 32.2184
9.17486 15.4826 24.1466
7.66637 14.0077 30.0406
20.5531 32.12 45.3443
8.39569 15.3286 28.5045
8.72993 13.9659 24.7584
13.2896 21.5122 34.0167
9.76159 13.6562 22.5816
16.658 29.7001 41.8896
9.77957 15.1578 24.4296
9.60146 17.5381 28.1344
6.34297 10.4207 18.9987
9.58659 14.7065 20.771
9.71594 20.0329 37.2047
11.4767 15.3837 25.1507
8.96551 12.7276 20.0509
6.2916 8.8974 16.7859
16.1507 24.9941 31.4321
9.4975 18.5475 35.6615
7.27427 10.2742 20.2441
18.7927 33.7566 57.1013
14.7448 20.8818 29.8481
6.84505 11.7014 20.8318
13.4637 20.6946 24.0341
9.95091 25.6198 53.6429
15.0923 23.9199 35.2377
9.55237 22.7473 51.0817
22.4819 31.0191 37.6962
7.73351 13.9359 26.1909
7.51966 13.2819 29.4495
9.19969 15.2905 28.4361
12.9681 17.7228 26.6321
10.5873 20.8027 38.7815
12.4166 21.3806 38.9071
12.4285 18.7079 30.1872
9.65501 18.5875 32.7235
8.55162 10.7864 15.9703
8.8134 16.2119 26.6339
10.7001 21.1881 37.2306
10.0042 12.8289 16.2666
8.43022 20.0725 40.6181
10.694 16.7884 28.0959
10.4193 18.5608 32.5945
6.87823 10.9906 19.8912
6.99937 18.1072 43.2676
9.58088 15.22 39.2588
19.4244 28.4234 32.6208
8.08403 18.0934 33.6291
7.19599 14.9898 29.3008
8.70676 15.0473 44.4787
25.597 37.8963 46.9133
9.95197 17.5075 28.7959
7.20119 11.851 23.3655
6.71847 9.73585 19.0153
6.68774 9.67453 23.8846
18.1956 32.5062 51.579
10.0536 14.8066 21.4742
4.46887 8.3183 20.9542
13.9357 27.3401 41.9454
7.78741 11.3152 22.0807
8.74522 17.9969 30.4989
8.4802 16.9646 34.7084
9.84139 19.0086 40.3614
13.0481 20.143 26.1587
3.88807 7.31072 15.3623
6.12089 11.5392 25.6945
11.1636 21.6944 35.1748
5.65849 10.0939 26.0841
10.778 18.7678 33.2673
7.4654 12.3828 21.8275
7.79242 13.0694 19.8699
5.09869 10.8347 21.1123
6.60509 19.5429 47.5768
14.1998 19.9448 25.1996
5.90645 17.0392 42.4661
11.4657 19.8261 32.6591
8.61179 14.7228 28.3437
5.56966 9.07012 18.4506
8.40148 19.2298 37.9
9.50639 18.7899 44.1209
12.8416 19.3179 26.3925
7.73445 18.7029 43.7057
9.02868 12.7884 20.7582
6.01047 12.1675 27.9975
9.01934 14.2171 19.6765
4.72943 10.2952 26.0666
12.6167 22.749 33.9112
4.706 12.1349 26.7805
7.70883 18.9021 38.7492
8.08261 16.0292 36.6391
10.7898 19.7965 41.7135
9.73792 14.3233 20.1391
4.11593 10.0357 24.9481
5.70978 8.95166 18.3854
5.60851 10.1222 25.6531
10.7689 23.3744 40.8131
7.54913 13.2328 31.7963
8.63809 13.483 24.3069
8.13469 13.0011 23.4332
5.94565 12.3298 23.3841
4.99242 10.3538 20.7115
6.58933 14.3661 28.0649
7.08194 15.372 29.35
8.6341 16.879 27.0994
3.35581 9.16084 24.4144
6.6448 13.4226 25.2852
6.78859 11.4106 18.6027
3.67088 9.76774 22.271
5.38679 16.9473 46.5101
8.27978 15.6606 45.4052
12.2899 17.4516 25.5086
7.90666 15.294 29.0985
10.2312 24.1939 51.5182
10.3795 20.3342 45.9559
10.5747 16.5757 22.7729
5.44051 11.3148 26.5005
7.25291 15.5416 32.3111
7.45855 15.6653 32.1381
4.99583 9.65115 27.7535
10.389 15.7469 21.4242
4.24131 10.6119 29.2616
7.91603 14.4386 26.8582
5.93821 11.9929 28.5371
7.36553 12.4308 20.4131
7.44867 16.0323 31.4283
8.57097 21.4366 46.1123
8.01973 13.9329 21.9891
4.77386 14.7099 39.4129
10.5374 21.0236 38.2307
10.7128 24.1307 44.3675
4.22271 7.93785 19.1726
4.4191 8.30664 14.6446
2.34673 9.48758 29.0838
4.67015 7.8949 20.3075
6.58263 11.7582 20.8853
5.39252 13.121 30.9427
5.82758 13.2761 31.034
7.06037 10.6418 22.7885
8.26838 18.5207 41.339
8.68424 15.4205 24.4105
4.68466 11.2008 34.9733
11.9192 24.683 39.0768
2.65011 5.73984 20.0833
8.28049 18.85 39.5244
5.50014 12.7481 33.0823
6.07856 19.097 65.4273
10.7166 14.0729 30.9503
11.5896 23.8225 35.2931
5.00673 11.4262 26.6703
8.43401 19.8283 47.3586
9.31906 16.9895 24.0236
6.99239 18.1272 33.3149
5.61892 14.5668 35.8228
6.48339 13.3988 26.5249
4.58395 10.3346 23.5945
3.68719 10.0159 29.3433
4.90077 9.34623 25.9216
11.0874 37.5014 89.1665
8.39789 8.9398 31.7953
11.2968 16.7195 19.3249
4.90236 10.9769 23.2358
5.65002 15.2822 37.5353
9.14288 26.0167 70.4181
11.4125 19.2702 28.1456
3.84461 7.4385 17.4732
3.72903 10.7596 31.9172
6.97795 9.66338 13.3943
2.52497 7.316 18.1986
2.43239 5.04801 15.5041
4.11033 8.49366 22.8857
6.23349 10.4137 19.1708
5.57308 12.865 31.3612
5.87424 11.7936 25.4069
5.78445 12.9079 18.4888
3.43225 8.30351 19.1273
5.21847 16.0403 32.3546
3.58922 8.87549 19.4204
3.57403 12.5758 32.8084
2.79088 5.60443 26.4395
8.81166 24.8504 54.3279
6.28603 12.111 33.6815
6.49346 13.0508 31.2626
5.91253 10.1864 15.0337
4.01869 16.593 42.4004
5.57471 8.66464 22.4457
5.79481 15.6757 29.0092
3.89733 10.8106 25.8759
2.88532 6.49536 21.5345
4.25088 8.29084 27.4551
6.63653 14.9584 32.0427
4.031 10.4139 33.4484
5.05626 8.0265 18.2101
6.51822 17.6133 50.2288
10.1613 19.8295 31.5144
4.598 9.4851 17.9635
2.36802 6.35756 14.7442
3.66752 10.6553 30.3581
4.35279 10.1805 28.088
6.69042 13.6754 21.661
2.84467 8.80874 23.7217
4.12956 8.82765 19.9691
2.64668 9.26817 31.9754
6.47208 13.1846 32.5808
6.34172 17.631 44.2728
7.00012 16.5287 40.2821
