# pn-170911/RbIIA-23-RbIIR-1280-1959.psd
# Power spectrum* (dif=0,1,2) (really just |FT|^2)
# NOTE: only the first half! (symmetric)
# weeks: 1280-1959
# 2345 clock-days, 743 excluded
# PSD: 1441
8305.26 0.173902 0.0225014
297230 2.00258 0.0115662
2.39189e+06 54.0895 0.0123944
88935.1 2.52865 0.011412
97814 6.45376 0.0118556
30182.7 2.18283 0.0115299
22484.9 2.58612 0.0121682
14666.5 2.12863 0.0121528
13106 2.62701 0.0122324
8926.55 2.03488 0.012227
7252.54 2.05253 0.0122724
5974.39 2.02779 0.0126102
5057.18 2.09684 0.0128589
4308.24 2.11547 0.0133241
3760.02 2.11287 0.0135787
3187.58 2.08403 0.0140667
2866.68 2.084 0.0137253
2517.13 2.10858 0.0144209
2316.04 2.1054 0.0147905
2051.18 2.08177 0.0153227
1837.78 2.1789 0.0158085
1704.32 2.21208 0.0165342
1550.98 2.22324 0.0173353
1458.48 2.23676 0.0172044
1332.4 2.23415 0.0173745
1214.38 2.156 0.0182149
1121.98 2.21086 0.0184613
1044.71 2.25957 0.019347
1004.88 2.34225 0.0201323
974.225 2.39447 0.0213121
893.886 2.44375 0.0222379
838.35 2.33973 0.0217419
806.349 2.48265 0.0233287
743.416 2.50896 0.0247777
697.768 2.55339 0.0258737
695.87 2.62257 0.0271301
657.387 2.62211 0.0274597
617.516 2.5875 0.0286238
582.335 2.6612 0.0301545
581.195 2.74483 0.0311889
535.785 2.7186 0.032604
528.449 2.75899 0.034071
503.495 2.8676 0.036085
475.52 2.85343 0.0367575
471.985 2.94474 0.0383894
469.929 3.04946 0.0413535
444.89 3.02001 0.0413109
437.778 3.22279 0.0457201
427.177 3.27163 0.0471083
396.606 3.22949 0.0488473
403.259 3.36602 0.0514496
395.517 3.43322 0.0540259
385.289 3.54025 0.0554915
361.814 3.50692 0.0580425
370.744 3.62523 0.0618915
358.64 3.78293 0.0660499
335.945 3.60832 0.0666679
338.569 3.69675 0.069736
323.906 3.79309 0.0746836
325.43 4.02025 0.0781175
307.067 3.95266 0.0797129
304.278 4.00744 0.0815965
303.59 4.13933 0.0890838
291.8 4.16382 0.0913657
289.265 4.26128 0.0951273
285.443 4.4214 0.101086
273.696 4.25138 0.100712
268.778 4.38233 0.106624
259.608 4.52056 0.111341
262.85 4.58109 0.116075
257.153 4.53897 0.117094
256.149 4.73052 0.126114
247.193 4.68559 0.127389
245.647 4.91353 0.137952
236.844 4.70005 0.136124
243.48 5.11458 0.148433
232.413 5.13038 0.15179
230.59 5.10523 0.153871
225.352 5.03244 0.160073
221.747 5.16511 0.165835
215.443 5.22663 0.171261
225.721 5.57458 0.184969
217.343 5.44644 0.1859
213.301 5.64997 0.198678
210.119 5.61488 0.201035
210.405 5.70695 0.20625
205.361 5.85825 0.220434
198.532 5.78738 0.220037
202.367 5.95332 0.229888
208.276 6.40427 0.254822
203.483 6.44371 0.26151
197.809 6.23754 0.258295
189.773 6.28152 0.265822
190.164 6.44151 0.273595
188.728 6.50478 0.283284
188.954 6.63264 0.292959
182.504 6.64401 0.302834
182.425 6.70403 0.31301
182.937 6.98879 0.329562
175.365 6.75507 0.325292
181.599 7.19271 0.352835
171.296 6.87908 0.344551
170.321 6.94964 0.354343
173.219 7.2998 0.381533
168.633 7.29406 0.386747
168.017 7.27242 0.394494
164.102 7.57974 0.414684
163.921 7.42514 0.416356
166.109 7.79669 0.441582
160.924 7.69201 0.448874
159.13 7.67328 0.453368
157.429 7.77345 0.468954
157.347 8.01815 0.488327
159.194 8.03933 0.500359
158.178 8.43154 0.527162
155.562 8.32261 0.539192
150.427 8.20679 0.532128
152.79 8.62071 0.56617
148.094 8.36429 0.565153
143.28 8.35644 0.573464
145.888 8.40091 0.585759
148.076 8.8895 0.632773
142.829 8.59485 0.623092
141.138 8.84487 0.644673
143.747 9.14425 0.68199
143.622 9.24941 0.700646
143.483 9.34063 0.717183
138.809 9.13457 0.708624
140.396 9.37554 0.732246
136.507 9.40907 0.748262
131.446 9.03218 0.734262
133.522 9.56833 0.792046
135.648 9.84646 0.82376
136.931 9.87143 0.834997
136.388 10.2354 0.880085
132.295 10.0391 0.877489
133.823 10.242 0.903931
130.158 9.99453 0.899171
131.344 10.2245 0.935155
125.539 10.1961 0.942474
129.857 10.6982 1.00392
130.688 10.7352 1.01656
128.806 10.9041 1.05254
122.709 10.6246 1.04467
126.751 10.8985 1.08013
127.04 11.0397 1.11003
118.97 10.617 1.08905
122.981 11.2585 1.16302
120.085 10.9536 1.15422
124.631 11.5138 1.21426
119.506 11.4332 1.22971
116.996 11.2615 1.21925
117.897 11.3718 1.25685
117.561 11.5919 1.30188
116.863 11.6021 1.31012
120.94 12.2783 1.41361
114.57 11.7838 1.37192
113.357 11.9377 1.39288
114.211 11.9895 1.42232
119.861 12.9549 1.55094
119.58 12.9563 1.58285
109.791 11.9757 1.48612
109.496 12.1034 1.50633
109.782 12.4497 1.56664
110.644 12.5649 1.60836
107.636 12.198 1.57616
102.121 12.0999 1.59501
107.811 12.8571 1.69616
106.371 12.785 1.7103
109.459 13.284 1.79804
105.332 13.0502 1.7813
104.823 13.2768 1.84364
108.077 13.4581 1.88362
104.151 13.5961 1.93702
104.983 13.4304 1.93353
102.006 13.3638 1.93663
104.091 13.6035 1.98096
101.936 13.6227 2.03297
96.9415 13.1896 1.98542
99.811 13.7101 2.08335
98.7391 13.4369 2.05916
99.0813 13.7745 2.12585
95.0832 13.599 2.14308
97.3573 13.7954 2.18238
93.6008 13.5368 2.16786
95.2277 14.0423 2.27806
95.7374 14.2614 2.33518
95.6009 13.9732 2.29618
90.973 13.9673 2.34852
97.707 14.8007 2.48902
92.2964 14.4246 2.46954
94.2533 14.801 2.5458
92.5218 14.5026 2.52028
93.3128 14.6514 2.55369
90.1796 14.6763 2.60993
90.7347 14.861 2.67252
89.0668 14.6404 2.64921
89.4186 14.9692 2.73586
91.0152 15.3766 2.84178
84.0572 14.3859 2.69866
87.1455 15.0382 2.84102
86.2678 14.8411 2.81967
87.4409 15.2718 2.95068
84.3051 15.09 2.92922
87.5414 15.4503 3.00318
86.246 15.6745 3.10166
87.7993 16.1835 3.2559
85.4326 15.7055 3.15873
89.6704 16.6591 3.37497
83.1297 15.7231 3.23718
85.2631 16.178 3.35165
84.9423 16.1858 3.35656
83.0634 16.0337 3.40557
84.4624 16.5717 3.56246
78.4296 15.6525 3.37973
83.5559 16.7097 3.62116
80.0908 15.8945 3.4553
80.7555 16.5 3.63303
78.487 16.0481 3.60402
79.4144 16.4787 3.69001
78.1208 16.4299 3.74222
80.8283 16.812 3.85276
83.3839 17.4887 3.99902
78.2666 16.4945 3.83529
78.25 16.9129 3.97278
76.434 16.6041 3.93557
74.3907 16.3232 3.93071
75.4122 16.7761 4.0421
77.2492 17.2704 4.20304
74.5181 16.9705 4.18084
75.2898 16.997 4.17731
76.452 18.038 4.50619
75.647 17.6617 4.44486
74.8298 17.5713 4.48115
73.2311 16.9693 4.35372
74.9107 17.9122 4.63492
72.1795 17.3136 4.496
74.5544 18.1337 4.78158
71.0665 17.334 4.58149
72.1904 17.9323 4.78202
71.6145 17.7921 4.79322
71.9073 17.9336 4.82998
70.5942 17.9293 4.93285
69.2314 17.6535 4.86931
71.8393 18.359 5.09905
71.7166 18.4387 5.16029
68.8085 18.0046 5.08907
69.5073 18.0194 5.14764
69.973 18.7581 5.34992
68.8502 18.5348 5.38226
67.5355 18.1882 5.30352
69.3423 19.0962 5.67602
67.3352 18.3462 5.35604
66.0656 18.4121 5.49702
67.8727 18.8995 5.67729
66.9262 18.4859 5.59212
68.1241 19.3588 5.90343
67.2045 19.1493 5.87754
67.9347 19.2653 5.92632
65.2669 19.1834 5.99015
63.9636 18.8472 5.92714
64.2395 19.232 6.11476
66.9921 19.7392 6.25189
63.2128 18.9551 6.07587
62.6585 18.6497 6.00655
61.1283 18.6407 6.10829
60.4961 18.5608 6.13166
59.8182 18.3627 6.10609
60.6532 18.9727 6.32611
62.2938 19.0356 6.35907
57.15 18.1321 6.2118
62.1476 19.6865 6.60389
60.1282 19.2686 6.68066
61.1752 19.5764 6.73755
59.8846 19.3024 6.70976
58.1756 18.9575 6.64312
57.948 19.0182 6.71186
56.8319 18.6234 6.60554
57.8912 18.9698 6.78817
58.3849 19.5206 6.99817
57.9082 19.6205 7.06118
55.3003 18.8115 6.87387
56.7832 19.5136 7.20148
58.0008 20.0325 7.43605
55.667 19.1375 7.17203
57.9374 20.3339 7.60326
56.8288 19.9753 7.55718
58.3862 20.5399 7.78126
57.6457 20.5052 7.82721
55.8144 19.9951 7.76442
55.7438 20.1812 7.83018
55.9228 20.4332 7.94298
52.7337 19.595 7.74806
55.7165 20.482 8.03701
54.0676 19.8531 7.92056
52.1701 19.759 7.98037
55.1433 20.3925 8.21399
54.4594 20.699 8.36127
52.5899 20.1627 8.2508
53.8738 20.5759 8.48856
51.772 20.0788 8.35938
52.6186 20.4306 8.51931
53.5381 20.8679 8.70808
53.0546 21.134 8.91004
53.2739 21.2219 9.02075
51.8962 20.7015 8.87076
51.5471 20.6067 8.80605
49.9517 20.3232 8.82321
52.6299 21.4403 9.3251
50.1916 20.4786 8.96688
50.3689 20.8851 9.21563
51.9946 21.8925 9.68346
51.4542 21.3195 9.50151
49.7706 21.1396 9.52885
48.5974 20.5936 9.30587
48.5063 20.4507 9.23152
48.1477 20.5857 9.52596
47.7768 20.4072 9.35344
48.4943 20.9604 9.69432
48.6634 21.3774 9.83307
46.4929 20.2604 9.5113
48.766 21.5002 10.1803
47.1964 21.2267 10.1546
47.8646 21.314 10.1569
47.4004 21.1867 10.1661
46.0155 20.696 9.99564
46.404 21.3124 10.3986
47.0778 21.7107 10.694
46.8842 21.3272 10.3574
45.304 21.108 10.4441
44.7653 20.8716 10.3847
45.6073 21.26 10.6818
47.236 21.9041 10.9822
44.1717 20.9509 10.6029
43.7186 20.5135 10.4277
43.4077 20.6503 10.618
44.3624 21.3226 10.9276
42.8537 20.5049 10.5994
43.1389 21.1764 11.0533
43.048 20.7508 10.864
42.2504 20.8751 10.9585
41.3602 20.281 10.7193
41.5885 20.8262 11.0579
41.7159 20.5497 10.8872
40.349 20.2902 11.0027
42.2268 21.3259 11.5267
42.3559 21.7621 11.8423
40.6977 20.9812 11.4983
41.2972 21.3844 11.8638
41.0143 21.1803 11.7896
40.9785 21.2229 11.8317
41.3311 21.5063 11.938
41.5328 22.1663 12.4698
40.1031 20.8683 11.7631
39.9371 21.0407 11.9108
39.0943 21.1348 12.1514
41.6521 22.315 12.6223
39.9103 21.8132 12.653
39.6504 21.3956 12.4025
39.0907 21.1459 12.4647
38.5276 21.1128 12.3626
39.9346 21.7669 12.7565
39.2576 22.0281 13.0731
40.0882 22.1479 13.1377
39.1454 21.9353 13.2366
39.888 22.1936 13.1926
38.4335 21.9005 13.3063
38.7452 22.2034 13.607
36.8383 21.1076 12.9026
38.677 21.9336 13.3405
37.6736 21.698 13.355
37.2588 21.8809 13.5875
37.1932 21.6055 13.5911
37.1368 21.6487 13.7139
38.181 22.6688 14.3468
37.598 22.478 14.3396
37.3176 22.3323 14.0968
35.5789 21.2678 13.5741
35.7361 21.8689 14.0607
36.5822 22.0557 14.2999
36.233 22.1065 14.3681
35.578 21.6259 14.1013
34.4608 21.0036 13.788
36.0806 22.4133 14.8893
34.7235 21.5377 14.2141
33.49 21.0813 14.1082
34.3797 21.6114 14.565
35.2565 22.2569 14.8144
36.6372 23.0049 15.4678
34.6977 21.7148 14.6514
33.7024 22.1336 15.3218
36.0627 23.1772 15.9718
34.4688 21.7546 14.8822
34.1783 21.9019 15.1589
33.8759 22.6284 15.9414
34.3671 22.4319 15.5093
34.9172 22.6634 15.7804
32.2199 21.2952 14.9347
32.7483 21.7803 15.4584
32.3295 21.3471 15.2157
31.5211 21.4549 15.5026
33.6892 22.3629 15.9396
31.7635 21.2646 15.2338
31.6594 21.8627 15.9678
31.1458 21.1849 15.5242
32.5976 22.3535 16.3873
31.1165 21.4668 15.7302
32.1985 22.3164 16.3784
32.0515 22.5291 16.9817
31.8376 22.3489 16.641
30.821 21.4414 15.971
31.2502 21.8449 16.2615
29.5997 21.0848 16.0609
29.6171 21.0056 15.8791
30.7339 21.8335 16.6321
29.9074 21.6929 16.5634
29.9703 21.4072 16.5248
30.5653 21.6358 16.7074
29.3622 21.223 16.3461
29.7338 22.1139 17.4199
30.2157 22.0954 17.3568
29.7338 21.9664 17.3975
30.6774 22.346 17.6066
29.4977 21.9659 17.3941
29.2228 21.9707 17.5685
29.6291 21.9879 17.4273
28.7596 21.6567 17.3041
28.5778 21.4178 17.2832
29.1014 22.1243 17.9664
28.2178 21.2669 17.2833
27.5186 20.9769 17.0266
28.0241 21.625 17.8148
29.0464 22.5009 18.5575
27.7586 21.4117 17.8383
27.8879 21.4129 17.6787
28.1761 22.2279 18.6375
27.6686 21.9568 18.4881
26.9624 21.7212 18.3349
27.3851 21.608 18.2644
27.3446 21.4406 17.9773
27.6231 22.7057 19.6856
28.5685 22.7245 19.1987
26.8676 21.6474 18.6666
26.4317 21.9423 19.1563
26.4764 21.6241 18.9703
26.9988 21.897 19.1582
27.9423 23.0602 20.0972
26.3899 21.5602 18.9759
26.705 22.2781 19.8067
26.0748 21.5434 19.0189
26.4064 21.8738 19.3207
26.1812 21.9754 19.5738
25.8667 21.7765 19.4258
25.3006 21.5209 19.5063
25.5746 21.7332 19.6773
26.6537 22.1456 19.8865
24.2179 20.7114 19.0879
25.9884 21.9847 20.106
25.7729 21.954 20.1172
24.9565 21.6927 19.8491
25.0616 21.8929 20.2733
24.8346 21.7663 20.3798
25.2476 22.0336 20.3964
25.1416 21.8334 20.1659
24.5722 21.9014 20.8307
24.9083 22.1441 20.8997
24.0019 21.7909 20.9366
24.8812 22.6012 21.5965
24.4388 21.7485 20.7085
25.0567 22.5879 21.8182
24.8128 22.4477 21.4587
23.8464 21.5214 20.7246
24.0533 21.7144 20.7186
22.7136 21.1997 21.056
24.1652 21.9969 21.3804
23.6258 21.6717 21.2569
22.9664 21.3214 20.9552
22.8999 21.4695 21.3876
23.5118 21.7742 21.4878
22.7818 21.556 21.5075
22.7464 21.5673 21.701
23.675 22.538 22.7275
23.9632 22.2097 22.1245
23.115 22.0477 22.4763
23.0463 22.2356 23.024
23.7738 22.3154 22.4553
22.4638 21.3468 21.6578
21.8073 21.1981 21.7872
22.7524 22.1345 23.0375
22.5648 21.5925 22.3154
22.4934 21.7006 22.4667
22.0459 21.5588 22.2731
21.1799 21.1451 22.6457
21.8703 21.1089 21.8435
21.3807 21.3852 22.5626
21.2843 21.574 23.2696
22.2296 21.7794 23.0775
21.8554 21.5765 22.9019
20.4506 20.1974 21.6611
21.5064 21.4045 22.8544
21.1681 21.3016 22.8777
21.3251 21.5195 23.2694
19.9693 20.3573 22.3376
20.736 20.9455 22.5556
20.2458 20.5907 22.3432
20.9864 21.7645 24.0121
21.2253 21.8065 23.721
19.9603 20.5585 22.8726
20.098 21.0173 23.464
21.186 22.0209 24.2979
20.7121 21.8165 24.106
19.9105 20.6422 23.1128
20.0434 20.9659 23.8475
20.445 21.0768 23.5027
19.7402 21.0933 24.196
20.3323 21.0796 23.6754
19.7173 21.4121 24.3662
20.0106 21.7749 24.8648
19.9595 21.5176 24.7545
19.8449 21.2078 24.1256
19.1023 20.9832 24.4412
19.6826 21.341 24.5504
18.8484 20.4883 23.8534
19.6851 21.6879 25.2429
19.0785 21.252 25.4659
19.6473 21.6856 25.5195
19.3257 20.9137 24.4025
18.7005 20.8534 24.9178
18.9525 21.3609 25.7388
19.4493 21.4094 25.2257
17.8384 19.7008 23.6519
17.9582 20.0776 24.2187
19.0566 21.8004 26.2736
19.1306 21.2676 25.7423
18.7345 21.5666 26.1631
18.717 21.4725 26.334
19.1338 21.8207 26.5572
18.7472 21.1495 25.6987
18.7795 21.6729 26.4973
18.9449 21.7826 26.7183
18.0035 20.5517 25.6276
18.7953 22.0019 26.7716
18.6475 21.8268 27.3014
18.5747 21.5348 26.6464
18.4755 21.506 26.6112
17.8999 21.3834 26.8978
17.7699 20.8192 26.0647
17.6038 20.7157 26.4529
17.2356 20.4369 26.0481
17.7389 20.7605 25.9847
17.1173 20.6166 26.3124
17.6256 21.0875 26.8612
17.1948 20.5162 26.1633
16.7228 20.5881 27.0407
17.4438 20.9336 26.9281
16.7005 20.16 26.3192
16.1497 19.9114 26.3674
16.6051 19.8536 25.7318
17.2529 21.2939 27.7508
16.9541 20.7504 27.2913
16.6614 20.6385 27.1095
17.1636 20.9066 27.1302
16.3998 20.3486 26.9341
16.0729 19.9602 26.3697
16.3006 20.8348 28.0491
16.4556 20.5321 27.7008
16.062 19.871 26.5411
15.9732 19.9634 27.2946
16.3577 20.5299 27.6376
16.2025 20.3066 27.4689
16.431 21.0044 28.4237
15.9796 20.4305 27.8895
15.9826 20.1333 27.291
15.5875 19.7178 26.6687
15.5332 20.1754 28.0463
15.6868 20.3018 28.3567
16.3038 20.6216 28.4571
16.5893 21.4693 29.4605
15.9821 20.9581 29.466
16.0406 20.6395 28.5261
15.4951 20.5424 29.3823
16.2716 20.9878 29.0243
14.8668 19.6275 27.8684
15.2577 19.8789 27.9303
14.7596 19.4902 27.6157
14.8924 19.477 27.7224
15.6746 21.0204 29.6405
15.0804 20.0213 28.6393
15.1517 20.3655 29.2031
15.2973 20.7043 29.9099
15.2125 20.3625 29.4244
14.7643 19.5613 27.8016
13.9316 18.9096 28.0137
14.5417 19.4183 27.8573
14.2693 19.4496 28.2219
14.4172 19.876 29.1532
14.6223 20.1626 29.8266
14.7214 20.1582 29.4657
14.6619 20.3122 29.6263
14.0709 19.4519 29.1883
14.4776 19.8486 29.6366
14.5381 19.8655 29.7299
14.6765 20.847 30.8636
14.02 19.5822 29.6213
14.4261 19.8 29.6039
14.2035 19.922 29.8867
13.8496 19.4914 29.7043
14.4702 20.2239 30.1518
13.9243 19.9239 30.4595
14.1883 19.9747 30.6772
14.295 19.7503 29.5415
13.8066 19.8115 30.1721
13.7141 19.8098 30.6529
14.171 20.3197 31.1234
13.3794 19.0217 29.3234
13.6061 19.1663 29.3382
13.3469 19.51 29.949
13.8638 20.3114 31.1087
13.134 19.5332 30.8014
13.4993 19.6307 30.9852
13.397 19.5739 30.6157
13.7836 20.1187 31.5652
13.7178 20.2243 31.9602
13.2316 19.1742 29.8623
12.8109 19.4462 31.9088
13.9588 20.686 32.6163
13.5599 19.9034 31.382
12.7851 18.8776 29.8199
12.5631 18.9367 30.9124
13.0627 19.5067 31.5406
13.3486 19.7537 31.6572
13.2343 19.8506 31.9081
12.7173 18.8886 30.4028
12.8543 19.6543 32.3169
12.9377 19.3858 31.2912
12.9367 19.7224 31.6704
12.8937 20.2301 33.7599
12.7784 18.8 30.0129
12.623 19.5867 31.8955
12.1331 18.4871 31.2809
12.418 18.432 30.0361
12.1278 19.3721 32.9676
12.9708 20.0737 33.0093
12.4093 18.9877 31.5364
12.2408 18.9941 31.6003
12.1131 18.9571 31.7463
12.6109 19.7455 32.6866
11.905 18.4442 31.286
11.9289 18.707 31.4406
11.813 18.8161 31.9473
11.7448 18.7163 31.9244
11.7744 18.8445 32.393
12.2296 19.0897 32.1798
12.1893 19.752 33.4924
11.8195 19.0332 32.9248
12.0111 19.0861 32.6773
11.6868 18.6321 32.7687
11.7337 18.3188 31.7161
12.1708 19.7619 33.5717
11.544 18.6145 32.3428
11.5134 19.029 33.6617
11.9821 18.7178 31.9186
11.4794 18.9498 33.5394
11.78 19.0115 32.9446
11.4498 18.7388 32.7718
11.6397 18.9596 33.4768
11.421 18.8014 33.1582
11.5831 19.1324 33.8853
11.6309 19.1981 33.9722
11.4747 19.3148 34.554
11.3767 18.7062 33.4251
11.6139 19.2576 34.1116
11.1228 18.2465 32.7283
11.7503 19.9055 35.1871
11.4463 19.0923 34.6061
11.3768 18.9602 34.0238
10.7596 18.3435 34.0038
11.2218 18.8572 33.9492
10.6708 18.3647 34.1113
11.4357 19.187 34.6164
11.0549 18.8311 34.7834
11.1878 18.915 34.5423
11.1672 18.8311 34.4707
11.3137 19.2025 34.4125
10.8395 18.9767 35.0053
10.8226 17.9142 32.8378
10.9166 19.1602 35.5414
11.0317 19.2471 35.3155
10.4774 17.907 33.5906
10.7748 18.7746 34.7419
10.3437 18.3142 35.0209
10.5884 18.3714 34.0504
10.328 17.9987 34.0954
10.4774 18.5599 35.8648
10.9447 18.8283 35.6986
10.9741 18.8612 35.4887
10.5348 18.3379 34.3043
10.4946 18.541 35.2418
10.3889 18.283 34.4112
10.4753 18.6293 36.12
10.4368 18.0229 34.7815
10.581 18.3475 34.2851
10.2604 18.8928 36.1475
10.5242 19.0425 36.8654
10.2702 18.1497 35.293
10.6597 19.0458 35.9219
10.1077 18.213 34.5364
9.6522 17.9666 35.9791
10.151 18.1477 35.1028
9.87704 18.1142 35.3329
9.81805 17.5904 34.6679
9.979 18.4084 36.0232
10.1424 18.5448 36.3267
10.1645 18.6219 36.55
9.75599 18.0584 35.8314
9.79649 17.8261 35.707
9.88367 18.2911 36.16
9.85306 18.1982 36.1462
9.73998 17.727 35.7292
9.9321 18.7166 37.7217
10.0506 18.1901 35.724
9.55753 17.6841 35.9614
9.66226 17.7468 35.7077
9.80599 18.4104 36.268
9.75135 18.109 35.4032
8.97749 17.3349 36.0954
9.33813 17.5176 35.3982
9.4717 17.9902 36.3169
9.31007 17.7443 36.5738
9.46871 17.5695 35.3018
9.16953 17.5663 36.1467
9.35585 17.3472 35.3355
9.24261 17.5778 35.3861
8.91651 16.8638 34.7566
9.02027 17.7727 36.9533
8.93506 17.1597 36.3973
9.54257 18.3058 37.1231
8.89093 17.1059 36.2802
9.41794 17.8698 37.0863
9.05905 17.1822 35.4823
9.27736 17.9133 36.8778
9.00187 17.668 37.2576
9.03177 17.47 36.9675
8.83197 16.7353 35.3256
8.90436 16.8553 34.6714
8.45907 16.6308 35.483
8.76486 17.3411 37.4139
9.29621 18.1616 37.5576
8.9148 17.5265 36.3026
8.60328 17.305 37.1284
8.975 18.0345 38.367
8.66536 16.9 36.5976
8.9651 17.5795 37.8799
8.8311 17.3572 36.7792
8.80875 17.6484 38.0056
8.80932 18.0104 38.7304
8.46326 16.6025 35.8555
8.73688 17.396 37.3137
8.3834 16.8629 36.6218
8.35054 16.5535 36.2208
8.3758 16.9891 37.5346
8.6054 17.4276 38.017
8.41619 16.8097 36.6194
8.34435 16.4568 36.086
8.54506 17.2769 37.7839
8.53492 17.4647 38.6481
8.48243 16.8344 37.2717
8.44541 17.0503 37.408
8.52781 17.3298 37.9087
8.33999 16.8587 37.1034
8.51876 17.9884 39.8669
8.38499 16.9692 38.1998
8.34761 17.0186 37.6941
8.34207 17.5029 38.803
8.41969 17.3177 38.1576
8.13239 16.5481 36.9817
8.02436 16.9173 38.9833
8.21287 16.534 37.1395
8.30507 17.4347 38.8619
8.18294 16.8939 38.4728
8.25964 17.0975 39.5786
8.77495 18.0519 38.7993
7.8668 16.8807 38.7097
7.91301 16.5548 37.6096
7.99996 16.9008 38.6161
8.05318 16.6089 37.0628
7.73363 16.3359 37.4115
7.65979 16.1824 37.832
8.09698 17.5507 41.4381
8.38279 16.7156 37.5794
7.92599 16.931 38.7835
7.82193 16.6092 38.728
8.12706 17.3515 39.5953
7.84487 16.5394 38.3327
7.76246 16.6329 39.0318
8.0263 17.2699 39.2283
7.52446 16.365 38.2525
7.67309 17.021 40.176
7.87014 16.4608 38.007
7.63544 16.6083 39.0424
7.79887 16.5962 38.5479
7.39732 15.7935 37.2968
7.3997 16.2741 38.5687
7.48957 16.0333 37.5993
7.27036 16.2542 38.5173
7.13594 15.3832 37.4567
7.37206 15.7373 37.2891
7.34437 16.199 38.1523
7.10669 15.2849 37.0979
7.37908 16.3439 38.5513
7.20615 15.4147 37.089
7.19529 16.2654 40.0988
7.53129 15.8382 37.2745
7.34904 15.9789 37.7414
7.20488 15.9757 38.1455
7.16148 15.8447 38.302
7.15324 16.0921 39.7584
7.43801 16.2623 38.5064
7.1856 15.9529 38.2118
7.12573 16.2603 40.222
7.45073 16.5346 39.6491
7.15293 16.2458 40.5081
7.49496 16.156 39.1544
7.31146 16.2657 39.7786
7.10512 16.0504 39.7929
7.4401 16.6694 40.4455
7.53884 17.1514 41.2407
7.2759 16.8076 41.1933
