# pn-170911/RbIIR-46-USN7-1280-1959.psd
# Power spectrum* (dif=0,1,2) (really just |FT|^2)
# NOTE: only the first half! (symmetric)
# weeks: 1280-1959
# 394 clock-days, 143 excluded
# PSD: 1441
1586.99 0.138524 0.0643638
137908 2.99749 0.147061
376959 7.32342 0.132368
54362.8 1.58213 0.145757
55042 3.02669 0.138376
16814.1 1.00458 0.137589
11160.2 0.99888 0.13345
8785.98 0.791991 0.133156
5605.52 0.842851 0.149844
4023.9 0.696609 0.132976
2965.5 0.683914 0.138654
2853.11 0.695661 0.131888
2622.64 0.711253 0.152086
2246.24 0.728055 0.137489
1840.33 0.722491 0.148384
1707.28 0.782548 0.141414
1372.65 0.783516 0.133609
1327.5 0.820819 0.143367
1189.43 0.810329 0.141429
1020.9 0.836052 0.131206
977.17 0.933274 0.132227
930.425 0.966378 0.148386
835.929 0.960886 0.138072
829.467 1.13107 0.133811
877.762 1.42685 0.131582
697.91 1.18732 0.134312
723.031 1.38 0.14346
644.976 1.39179 0.138
737.406 1.68598 0.152406
684.987 1.72662 0.148113
655.828 1.78789 0.147739
634.486 1.9982 0.151532
572.848 1.95653 0.15422
582.779 2.00463 0.143856
627.797 2.5883 0.158779
615.268 2.71594 0.158847
639.899 2.73133 0.159937
569.091 2.76195 0.16109
586.075 3.07575 0.173497
611.396 3.39122 0.184985
589.829 3.49116 0.169634
574.347 3.77586 0.177124
577.963 3.71452 0.169327
610.634 4.02674 0.174247
563.322 4.08706 0.171457
535.953 4.1829 0.177467
540.25 4.2193 0.18086
534.235 4.96145 0.195509
588.231 5.4877 0.197424
529.723 5.13344 0.202524
525.816 5.26111 0.185365
586.697 6.20077 0.210765
559.591 6.28864 0.22525
644.31 7.15292 0.218831
544.971 6.54285 0.249535
506.471 6.18124 0.232933
517.016 6.38142 0.253034
545.647 7.44876 0.260646
513.739 7.12305 0.25513
491.546 7.13891 0.266062
538.889 8.06262 0.262234
487.485 7.76925 0.266584
469.959 7.69298 0.283375
517.275 8.3825 0.290729
453.027 7.80417 0.285091
515.038 9.1665 0.306096
494.115 8.6499 0.315949
534.969 10.0847 0.353014
440.382 8.79224 0.334546
468.464 10.0278 0.370211
479.376 9.71856 0.370042
455.492 10.0627 0.35917
435.653 9.91658 0.384546
412.859 9.83956 0.370525
449.988 10.62 0.430893
429.703 10.5391 0.460525
456.334 11.7767 0.462461
463.025 11.8029 0.466739
437.584 12.1284 0.479655
399.266 11.0711 0.446813
430.296 11.4481 0.47831
413.765 11.4086 0.47488
403.842 11.9711 0.498284
415.77 12.6526 0.530317
394.272 12.281 0.518205
382.949 12.1818 0.544775
400.679 12.5769 0.55215
392.32 12.5881 0.534563
391.58 13.1454 0.610757
324.557 11.3 0.536693
357.427 12.783 0.60042
401.359 15.4138 0.689331
356.547 12.6103 0.629438
324.281 12.2787 0.636766
336.486 13.4134 0.651975
326.775 13.057 0.645111
463.034 19.5562 0.935586
363.609 15.0187 0.759444
300.182 12.3401 0.656409
339.187 14.8046 0.772019
337.548 14.622 0.807092
285.313 12.6539 0.724392
333.277 15.2986 0.871089
307.263 14.3972 0.866769
331.505 15.3018 0.913471
280.231 13.5204 0.795816
291.989 14.8759 0.875803
303.712 15.848 0.92227
331.26 17.2128 1.05654
269.803 14.1082 0.886562
266.168 14.2347 0.908141
247.471 13.7462 0.931811
272.131 15.245 0.945075
267.107 15.7062 1.06101
277.994 15.9817 1.08024
276.75 16.7256 1.15215
254.463 15.4921 1.03584
250.383 16.0245 1.14193
219.705 13.171 0.983368
262.052 16.9816 1.18594
290.428 18.7966 1.37867
239.524 14.8882 1.12632
221.443 14.2833 1.14617
238.489 16.3368 1.22556
262.901 17.721 1.44999
254.704 17.1861 1.32727
228.293 16.2963 1.34521
231.628 16.3763 1.32795
212.97 15.8117 1.30279
242.774 18.3911 1.52554
216.588 16.3214 1.39192
237.686 19.2011 1.69766
242.224 18.2023 1.55883
224.716 17.8976 1.61169
176.333 14.4913 1.326
211.601 17.882 1.66955
202 16.4003 1.48959
222.32 18.2385 1.66361
198.942 16.5568 1.49727
186.136 16.5187 1.60391
174.191 15.36 1.5176
178.165 15.689 1.56093
175.973 15.5086 1.53495
197.627 18.1966 1.84177
257.01 25.1321 2.41579
204.558 18.441 1.83149
166.915 16.2624 1.64839
193.17 18.398 1.91331
196.204 19.7448 2.09547
194.045 19.0353 2.02246
154.438 16.2477 1.81234
176.981 18.0494 1.94262
177.908 18.4195 2.10571
175.733 19.0577 2.17405
177.554 18.7201 2.21475
195.827 21.7999 2.62226
181.254 19.8332 2.31903
180.459 19.971 2.37375
167.032 18.2063 2.18052
162.742 18.3102 2.17848
168.349 19.1246 2.39596
168.758 20.4001 2.58147
172.698 19.8407 2.4228
161.779 18.9858 2.44301
156.08 18.2792 2.40463
162.156 19.661 2.54955
169.03 20.3612 2.64102
171.846 21.8656 2.93433
173.564 22.3827 3.01313
159.521 19.6458 2.5096
141.472 18.8721 2.65618
135.795 17.9151 2.46593
158.612 20.572 2.89953
141.988 19.2154 2.78568
161.909 22.639 3.21854
159.081 21.3543 3.0502
141.543 20.0843 2.99729
135.074 18.8361 2.81993
132.981 18.88 2.81542
141.57 20.4273 3.07904
139.19 19.84 3.19374
135.88 19.3307 3.10767
144.829 21.6484 3.34186
127.392 18.5812 2.98907
123.464 19.2162 3.0912
131.475 20.5764 3.36667
135.801 20.2578 3.25915
122.942 19.1115 3.21694
131.097 20.6796 3.46888
130.939 21.1445 3.48212
113.89 17.9669 3.05325
123.377 20.8124 3.61977
213.205 35.9294 6.0866
130.327 21.8925 3.76009
117.207 20.0256 3.54192
122.773 21.5184 3.74737
120.273 20.5567 3.72229
116.344 20.2972 3.71682
113.802 21.1437 3.97959
127.477 21.3318 3.88006
114.924 20.6971 3.97066
118.283 21.0112 4.0065
109.647 20.4749 3.91121
119.67 22.0302 4.14411
119.674 22.4751 4.41952
125.219 22.203 4.34191
117.091 21.9197 4.38215
115.51 21.5002 4.31818
112.367 21.4447 4.34561
114.96 22.3039 4.51105
106.155 20.7439 4.22176
115.093 23.2574 4.97393
101.79 20.8872 4.41014
115.483 22.7627 4.85825
107.397 23.1113 4.93172
103.383 22.1813 4.88183
116.71 23.9162 5.0527
95.3585 20.3098 4.45292
101.037 22.1608 5.02806
104.298 22.7118 4.99518
104.119 23.3218 5.18898
105.008 22.1845 4.95969
110.56 24.6341 5.56748
98.2485 22.2446 5.06758
90.5885 20.8964 5.00211
100.113 22.841 5.3766
90.7732 20.6154 4.91954
100.459 22.6772 5.36252
88.6342 21.7409 5.37532
101.954 23.7397 5.53474
97.3542 21.5468 5.17442
92.8799 21.6703 5.38947
96.7408 22.9675 5.87744
92.0731 22.2948 5.70286
93.8651 22.9025 5.7949
87.394 21.7786 5.74687
92.3307 22.3422 5.55362
88.7822 22.0759 5.78131
78.5197 20.4133 5.50869
94.4743 23.939 6.48623
93.7662 24.2331 6.30302
91.7775 23.9016 6.32055
89.8151 23.1548 6.30114
92.2324 24.2377 6.51483
86.3886 22.9298 6.49813
98.8825 26.1688 6.95941
87.5557 23.8243 6.82564
93.6076 24.9819 6.88709
81.6034 22.8269 6.73367
79.9667 21.6415 6.33354
85.692 23.8201 6.67091
79.8258 22.4181 6.85009
86.9583 25.1961 7.39438
95.7967 27.1059 7.79636
75.2993 21.6815 6.36395
71.9498 21.2457 6.29155
81.044 24.9522 7.52415
78.4857 22.0565 6.53532
86.1762 25.5816 7.99692
87.1771 26.1664 8.15619
82.215 24.9209 7.86527
89.9337 26.73 8.39508
80.0119 23.8368 7.57173
72.4502 22.3327 7.3119
84.1919 27.1935 8.71601
78.7027 23.9545 7.59192
70.2211 22.6664 7.44461
74.3041 23.4647 7.46789
73.0084 23.9545 8.09439
89.2434 29.3594 9.79643
72.0304 23.4523 7.9642
78.3227 24.9713 8.17013
64.3374 21.3649 7.5554
77.1286 24.4796 8.25886
74.3379 25.1061 8.74382
71.138 23.3921 8.28859
77.5295 26.5292 9.22604
75.6106 25.4263 8.99536
71.6375 24.3905 8.66435
66.0217 22.676 8.31801
69.502 24.4809 9.06917
71.2582 23.7871 8.59587
73.4547 25.4761 9.17504
68.8267 24.5772 8.88212
75.9755 27.2933 10.0384
71.1178 25.6944 9.57732
66.1415 23.9172 9.15271
69.6382 25.3338 10.0777
126.808 45.8951 16.8754
72.3513 25.5506 9.68651
66.549 24.757 9.60048
58.6229 21.8319 8.57139
67.6921 24.8514 9.53502
68.1483 26.0794 10.2125
63.7839 24.25 9.70148
62.9628 23.9907 9.40332
59.2173 23.2317 9.60292
63.1665 24.6254 10.0332
66.8671 26.9666 10.8484
61.6134 24.1944 10.2069
69.361 27.1385 10.8352
59.3287 23.4064 9.67848
63.5773 25.7535 10.8377
61.968 24.5617 10.1889
63.4047 26.2043 11.0797
59.9098 25.2835 10.7976
63.1892 25.7757 10.7751
60.2746 24.9115 10.7428
54.8672 22.5572 9.79831
57.5652 24.7744 11.0335
58.576 25.1176 11.1831
58.3905 25.2986 11.323
57.0651 24.7675 11.3002
57.7849 24.5126 10.8029
58.6766 25.2883 11.4612
58.5763 23.7411 10.4507
54.0154 23.7531 11.0916
56.8513 25.2018 11.259
58.1054 25.3202 11.8689
62.6389 28.3229 13.1275
50.9156 23.132 11.0433
60.6856 27.2331 12.7396
55.2598 25.2639 12.1512
59.9151 27.3225 12.7631
54.3615 24.8951 11.8904
51.3839 23.1998 11.0025
53.8275 25.7348 12.5236
51.8222 24.324 11.8496
50.6875 23.8515 11.8675
50.8015 23.9908 11.654
51.8002 25.0628 12.5826
52.7381 25.4406 12.7677
50.5394 24.2742 11.7935
52.8563 26.1213 13.4331
50.0518 24.3185 12.2177
49.7906 23.2806 11.7054
54.8601 26.8334 13.8521
57.4781 28.0786 13.9434
51.8917 26.2254 13.8456
49.5149 25.1864 13.2354
53.3977 26.3064 14.0807
52.6311 25.7157 13.2098
45.8324 23.7109 13.0587
50.9812 25.3021 13.1885
51.0653 26.275 13.6729
49.8705 25.9875 13.9928
49.7759 25.3676 13.7296
45.531 24.2529 13.2523
48.18 24.9376 13.8588
51.5402 26.8693 14.3692
47.1629 25.2065 14.0354
48.0693 25.9824 14.3765
44.7518 24.2855 13.8131
45.5057 25.0378 14.2814
47.4434 25.8743 14.7453
49.4024 27.6303 15.8812
47.5049 25.0584 14.0662
45.0059 25.5664 14.9558
48.7609 26.7305 15.6046
45.5899 26.3486 15.6185
48.7476 27.0072 15.8703
45.3317 25.1563 14.766
45.7296 25.423 15.2035
42.8457 24.5889 14.572
46.0124 25.4816 15.5109
47.7547 26.6642 15.9561
45.1403 25.8505 15.6676
43.7331 25.2509 15.245
40.7744 23.6931 14.3481
42.0254 24.9139 14.9427
44.5082 26.0119 15.8616
40.9441 24.5645 15.1122
40.3412 24.0393 15.0425
40.6542 24.5031 15.4531
45.024 27.5471 17.1684
40.3191 24.4515 16.0618
46.1989 27.3922 17.1003
40.4211 24.9089 16.1555
41.1274 25.777 16.5639
43.588 27.392 17.7579
42.4205 26.1023 16.7398
40.6136 25.6631 17.0138
41.5326 26.3709 17.4615
40.2833 26.4838 18.8727
81.0536 51.2962 30.6923
38.699 25.1845 17.438
42.0598 26.2859 17.2781
39.4115 25.8944 17.4762
38.7495 24.4874 16.4204
39.4515 25.8505 17.4984
38.0697 25.2311 17.6468
40.1882 25.4176 16.9197
38.0008 24.9578 17.1741
40.7454 28.2186 19.4296
38.3571 25.5767 17.8855
40.4297 25.9111 17.8962
37.4364 24.8747 17.3219
39.095 27.3624 19.3589
36.4355 24.916 18.0955
37.5216 25.0171 17.3971
36.5042 24.727 17.7863
37.5873 26.0682 19.105
37.1315 25.2923 17.9287
36.3365 24.6006 17.9367
38.232 26.9711 19.748
40.2062 27.557 19.8647
36.3117 26.3217 19.8794
41.7609 28.7446 20.7089
36.9217 26.6619 19.4317
35.4632 25.5526 19.558
40.1351 28.3849 21.2202
40.509 28.5551 20.8584
38.098 28.2864 22.0269
38.6423 28.1653 21.6675
36.9057 27.0228 20.6721
36.7251 26.4743 20.1091
37.858 27.4955 21.0475
40.7197 29.5529 22.4941
41.8424 31.5677 24.8579
38.0797 27.9121 21.4362
35.5713 25.9031 20.3524
39.0214 29.4142 22.9445
34.3282 25.028 19.6755
34.1473 25.7229 20.9786
34.2205 25.5868 19.3543
33.7456 26.7696 21.5718
37.2636 27.6328 21.7404
33.2655 26.0725 20.9316
35.2958 27.8034 22.5989
33.2179 26.6367 22.1897
35.7476 27.8399 22.6709
32.3749 25.053 20.3855
33.8847 26.5226 21.7921
36.2375 29.4067 24.3305
38.2524 28.9452 23.3232
35.4411 27.8792 23.5336
32.1378 25.1404 21.2014
36.1433 29.1197 24.5545
34.4706 27.9712 24.0807
32.9077 25.6041 21.3977
32.1231 25.2668 21.8337
33.1246 26.9561 23.4658
31.6256 25.108 21.494
33.6635 27.287 23.2213
32.2136 26.8532 23.3491
32.7799 26.7059 22.8283
31.9642 26.6521 23.1616
32.7503 27.3904 23.9267
33.7647 29.5338 26.1821
32.318 28.2785 25.1899
30.7052 25.5348 22.6932
30.377 26.3633 24.6808
33.9729 28.5143 25.0666
32.5707 27.6636 23.6697
28.6829 25.6331 23.4773
32.6585 26.9641 24.3563
32.735 28.6624 26.3803
31.4446 26.5407 23.6924
29.9832 26.0669 23.8357
27.3538 24.7294 22.7364
27.4926 24.7431 23.7624
31.6228 27.257 25.0676
28.7251 25.226 23.5489
31.097 27.2629 25.2039
31.264 28.3785 27.2668
32.0193 28.9402 26.8368
28.0919 25.9507 25.7634
31.0524 27.0161 24.6817
27.073 24.9725 23.9031
28.1421 25.3254 24.3535
30.1324 27.4352 26.2431
27.7435 25.3333 23.9909
26.3933 24.2145 23.5061
28.5366 26.7016 25.3417
26.798 24.7098 24.0264
27.8613 25.3585 25.3408
27.3784 25.0685 25.074
28.492 26.6748 26.667
28.1629 25.4042 24.6023
24.7012 23.8914 27.1093
52.5502 50.9732 44.8484
26.9698 25.4632 24.9983
26.0029 25.3939 25.8657
25.6196 24.1447 23.9744
22.5579 23.1592 24.2818
24.4839 23.4033 24.2466
25.0592 24.7409 25.2698
24.6872 23.973 25.4033
25.2253 24.1019 24.9268
25.1837 24.0708 24.496
26.7323 25.504 26.0468
23.4862 23.8994 26.2239
25.056 24.5266 24.8073
23.8232 23.3049 24.708
25.9937 24.9588 25.2952
24.8575 25.4725 27.391
25.9017 26.3413 28.3119
24.1553 23.4895 24.7274
22.8399 23.6068 25.1815
24.2774 25.2418 26.9101
22.9221 23.2257 25.04
23.2674 22.6299 23.5219
23.7001 24.7115 26.6206
21.24 21.6186 23.8733
23.5152 23.237 25.1424
22.7155 23.6969 26.8889
24.1238 26.0955 28.8118
24.6211 25.8051 28.1021
23.3109 24.8418 27.4652
22.3375 22.432 25.2912
24.6412 26.2256 29.2715
24.975 25.601 28.2312
23.6502 25.3233 27.6609
24.4344 25.2808 27.8661
22.6894 24.3083 27.3842
22.3406 25.1006 29.64
25.256 27.3439 30.8157
23.2793 25.132 28.0967
21.0353 23.0985 26.4729
21.0077 22.6402 25.8561
22.0803 24.9031 29.5519
22.7427 24.1314 27.4422
22.315 25.0519 27.8507
20.6018 22.9585 27.6144
20.5701 22.5103 26.5865
24.1478 26.9369 30.9944
23.8715 26.543 31.3085
22.0689 24.6746 30.0269
22.4441 25.5193 29.743
19.9493 22.1332 27.1704
20.7638 22.5498 26.2252
20.4209 23.4531 29.1796
18.6472 20.8475 25.9303
22.2688 25.4479 30.7333
22.1387 25.1928 30.5569
21.9581 23.7067 27.864
21.1847 24.9713 30.0221
19.7832 23.268 28.8534
19.7682 22.4434 27.7612
19.6052 22.9681 28.3599
19.8553 22.4671 27.3536
21.428 25.3816 30.8052
18.6869 21.4353 26.5238
21.8513 26.0832 32.21
21.9881 25.6193 31.702
20.3354 25.7115 33.2473
21.6419 26.1426 33.0807
20.564 23.9039 30.3931
20.8081 25.1706 32.2485
20.6546 23.057 28.989
21.0119 24.412 29.9631
21.1116 26.5785 34.3406
18.7294 22.7188 29.9407
20.4392 24.0752 30.5543
20.0547 23.2527 29.7012
20.0645 24.0367 30.5929
19.6018 24.1941 31.5272
18.6696 22.4821 28.9038
20.852 25.114 32.402
19.5811 25.3651 32.4405
19.6944 25.3324 33.0056
18.8824 22.9273 30.6998
19.1882 23.6496 31.6356
19.4678 24.9461 33.2208
18.76 22.8241 31.0112
21.141 26.49 34.0638
17.0775 21.313 29.4921
19.128 24.4866 32.8801
18.9443 23.3973 31.4414
18.7583 23.4286 30.6235
18.1706 23.2848 32.898
18.4545 23.0932 31.9261
19.2322 23.8383 30.5155
16.8897 23.5905 33.3897
18.4167 23.8258 33.8393
17.8727 26.5685 46.8903
41.6117 50.9418 57.5598
18.3263 23.4233 32.7887
17.3134 21.6864 30.1792
17.5624 24.0815 32.6268
17.0203 22.8617 32.5859
17.4788 23.3501 33.3821
17.6048 22.0792 31.3062
18.2314 23.3405 31.714
16.9648 23.5099 34.4928
17.9921 23.3882 32.773
17.2084 23.3425 33.4411
16.9481 23.0778 33.3903
16.5782 20.894 30.079
18.4249 24.9816 34.2816
16.8911 23.2938 34.7758
17.7635 23.2929 33.9553
16.7011 21.4669 30.8176
17.0562 23.4056 34.024
16.6439 22.0053 31.9456
16.5567 22.86 33.7155
17.6935 22.8578 32.0877
16.8886 24.8722 36.0555
15.667 21.704 33.1893
17.3771 23.5215 35.3215
17.6903 25.2257 37.7383
16.7095 21.8645 32.0454
16.0295 22.4846 34.4062
17.12 23.0862 33.6811
15.513 21.9535 33.7939
17.8946 23.6488 33.098
16.5906 23.9697 35.2496
16.0012 24.6375 38.6201
17.0619 22.2484 33.1298
15.5743 23.6513 37.4715
16.87 23.8423 36.4644
16.1164 24.0752 37.0588
16.2154 24.7999 39.2176
16.4752 21.6266 32.3061
17.1005 25.5162 40.0679
16.4334 23.1563 34.521
15.2023 22.0396 33.2903
14.7325 22.0515 34.5658
16.364 24.2297 38.7821
16.1764 23.5241 37.377
17.4454 24.0746 35.7311
16.2491 24.8606 37.7194
14.1262 21.3985 35.1618
16.3348 23.4136 37.0822
15.3859 23.6313 38.553
16.0328 22.1893 34.1344
15.6916 21.5722 33.1871
13.3035 21.2171 35.7402
15.2927 21.7483 34.246
16.0449 23.5479 37.8616
15.8473 22.5332 35.1047
14.473 21.5326 34.2477
14.8385 23.613 37.6948
13.8219 21.0476 34.8067
15.0371 21.7906 35.3911
15.2278 23.9361 39.7487
16.5046 24.699 39.9983
15.5882 23.4173 37.662
15.2193 24.1448 39.0761
15.0331 22.3914 34.9694
13.2408 21.3303 35.4123
13.9943 21.9724 37.2999
13.7825 21.7598 36.871
14.6695 23.3366 38.9668
14.8564 23.2973 39.3994
15.3595 23.4912 38.1076
14.3605 23.3637 38.338
14.0194 22.8082 39.1122
12.8505 20.8326 37.0097
14.5363 22.3208 37.3772
14.2512 22.4965 38.2709
13.335 20.9235 35.1205
13.3989 21.6937 37.0537
13.8307 22.0535 37.2902
13.7011 21.807 37.554
14.3986 21.8834 36.6716
13.2003 21.667 37.8922
14.0055 21.4938 37.1506
14.6548 23.3904 37.6061
12.2062 20.7562 39.371
14.5102 22.4714 38.9391
14.0767 21.8877 37.4088
14.2609 23.8642 40.4675
12.3131 20.1567 36.7674
14.1069 22.9503 40.2553
14.258 23.5671 41.5511
13.0518 21.3491 39.0812
15.1085 24.6102 41.4968
13.051 21.3036 37.6778
13.2775 22.7428 40.7305
13.6306 22.3025 39.9922
12.7559 23.7709 57.9846
30.0157 46.6797 64.2633
13.9162 25.1268 44.6966
12.7366 21.7888 40.3299
13.7932 23.3281 42.575
12.9455 21.3919 39.4394
13.5207 22.678 39.5604
11.6598 20.3819 39.3316
12.9845 21.7651 41.3361
13.4896 22.2459 38.5098
12.1477 20.0125 36.7778
12.9716 22.1687 40.4308
12.826 22.2576 40.1844
13.5846 23.1327 39.8295
11.239 18.9896 35.1535
11.4546 20.5296 38.399
11.8049 20.8522 39.7712
11.7263 20.4546 38.0878
11.0107 17.9692 34.0146
11.7016 20.0731 37.948
12.1761 21.2214 40.2007
12.7732 22.4819 41.6952
13.193 22.9883 45.0846
12.9161 21.1271 37.9829
11.721 21.8079 42.7833
12.5345 20.8756 39.1435
12.5125 21.8059 41.371
13.8561 24.1194 40.7017
12.5841 27.1801 55.5372
14.9495 24.8269 41.7506
13.9315 48.2499 145.742
39.7349 44.8881 48.4349
14.042 27.8227 51.3365
13.393 22.6978 42.5464
12.1293 20.3184 39.7596
13.0604 22.6897 41.887
12.0653 22.2014 40.862
11.7378 20.7246 40.0346
11.2596 20.402 39.7137
11.0667 19.73 39.8456
12.5941 22.9676 43.8405
11.4434 19.7389 38.656
11.2308 20.3813 40.8404
10.8653 18.9722 37.6643
11.8818 20.9394 40.751
10.9705 19.6584 37.655
10.7822 19.9563 41.3818
12.1099 22.1284 40.7887
10.4878 20.4534 44.2487
13.0527 23.1446 44.9648
11.8448 20.1222 37.1747
10.7028 21.5749 44.1774
11.1112 19.1298 39.8722
10.6302 19.1434 39.4029
11.4807 19.9245 37.8225
9.44231 18.1801 38.9702
10.8069 19.072 38.6692
11.3453 21.2931 41.5524
10.5024 19.3196 39.298
10.8796 19.8034 39.9852
9.86461 17.6523 36.6164
10.2014 19.0186 38.4863
10.7444 21.048 43.4717
10.4767 20.1879 42.3332
11.1906 20.405 41.2943
10.9834 20.6071 42.7474
10.8497 20.0401 41.5821
10.5372 19.1771 39.6121
10.0921 19.8648 42.3963
10.7624 20.4018 42.262
10.4584 20.1113 42.3355
10.0768 19.0694 39.386
10.5505 20.2599 43.8037
11.0739 19.964 40.517
9.93677 19.1323 40.469
9.45433 18.3518 39.2852
9.83308 19.5676 43.7749
10.794 20.3101 40.4658
9.90108 20.2477 43.1925
9.94064 18.258 38.4269
9.29171 19.3024 41.3168
9.49846 19.0898 41.6928
9.89914 19.1149 39.403
8.97375 18.2764 41.7163
10.0642 19.6326 41.2654
9.84166 19.5484 41.9148
9.84991 18.9905 40.9404
10.267 19.6928 42.3873
10.1059 20.4829 42.8213
8.11366 16.567 37.5717
9.5305 19.1823 40.9071
9.28013 17.3011 39.2997
9.25356 18.9352 41.8268
9.45192 18.3906 40.618
9.31355 18.6088 40.7912
8.84932 18.9505 45.1889
9.66445 21.9559 70.3701
23.0998 43.4582 66.2442
8.72882 18.8322 41.6473
9.0187 18.4536 40.833
8.77509 18.1711 41.7572
8.60382 18.7528 42.9446
9.85767 19.4965 42.6488
9.65777 19.8507 44.5741
9.2235 18.6444 40.3853
8.91432 18.6015 41.7063
8.50342 17.3482 39.581
8.89498 18.7277 41.7851
9.20574 19.0447 41.4373
7.94808 16.4048 40.2094
9.03072 17.1729 38.3134
8.99707 19.1173 44.002
9.47361 19.4257 41.9956
8.67806 19.3234 46.9012
9.87103 19.424 40.5774
8.79297 19.1839 43.408
7.85555 17.2806 39.3417
8.65649 17.3542 40.8965
8.83218 18.4731 42.7629
9.32879 18.8979 41.9095
8.42429 17.7925 39.5165
7.80754 16.4439 38.9608
8.3981 18.1363 41.889
8.95243 18.8964 42.6515
8.18302 17.7084 41.9285
8.83653 18.3616 41.4143
7.90311 17.7295 41.8491
7.82951 16.3622 40.0576
8.13502 17.934 42.5477
8.70186 18.1465 43.5078
9.07862 18.7156 42.1159
7.81494 17.98 44.0903
9.3297 19.1159 41.6177
7.77668 17.4997 41.9596
8.40835 18.8567 44.793
8.64443 18.0764 42.0974
8.07184 18.1046 43.302
8.62588 19.222 47.5119
8.89062 18.1676 42.4968
8.56252 17.4836 42.0581
8.81969 20.6274 48.4831
8.4297 18.1071 44.4139
8.59424 18.7925 43.6295
9.06306 19.4217 44.859
7.94814 17.2366 42.1018
7.95387 17.8365 44.6754
7.91457 16.8668 43.2785
7.80033 17.1646 41.6053
7.92583 16.6948 38.8216
7.53202 18.6393 45.4084
8.03685 17.0928 42.9646
7.92068 16.8538 41.3029
7.86482 17.2977 42.3361
8.40744 17.6718 43.1247
8.31222 18.6965 46.8046
8.23936 17.0476 40.4456
7.5267 16.4313 41.1257
7.88857 16.4961 39.37
7.38468 16.715 41.207
7.99561 19.5805 46.1774
7.7878 17.8141 44.1903
