# pn-170911/RbIIF-70-RbIIR-1280-1959.psd
# Power spectrum* (dif=0,1,2) (really just |FT|^2)
# NOTE: only the first half! (symmetric)
# weeks: 1280-1959
# 490 clock-days, 2 excluded
# PSD: 1441
217.286 0.0455142 0.0206343
26518.3 0.576002 0.0161068
113159 2.36479 0.0162547
25059.5 0.964677 0.0163472
81047.9 6.46525 0.0155491
8265.26 0.737125 0.0159462
7242.21 1.05483 0.0158341
4487.95 0.748788 0.0160359
3524.67 0.838166 0.0153444
2706.34 0.764508 0.0150385
2178.15 0.794479 0.0173687
1756.07 0.756304 0.0140287
1596.29 0.830502 0.0151313
1205.46 0.74681 0.0159047
1116.79 0.812983 0.0155748
1009.13 0.831282 0.0158268
830.464 0.797519 0.0153615
819.403 0.896398 0.017827
723.758 0.87959 0.0167372
620 0.845919 0.0175849
604.974 0.945314 0.0179497
551.784 0.887725 0.016936
497.855 0.953032 0.016229
442.272 0.877908 0.020289
430.134 0.953593 0.017999
405.417 1.0041 0.0189766
362.799 0.968765 0.0187001
354.038 1.00602 0.0174056
369.094 1.14044 0.0199894
337.776 1.08267 0.0210387
343.097 1.2065 0.0212475
322.922 1.20364 0.0205539
309.133 1.23169 0.0221867
289.583 1.26845 0.0218353
286.305 1.31773 0.0239721
258.751 1.29189 0.0227402
256.081 1.24719 0.0225628
257.427 1.46123 0.0237391
242.817 1.41512 0.0252754
240.683 1.48226 0.0280834
241.119 1.54302 0.0249814
226.167 1.62529 0.0299695
211.244 1.50856 0.028153
210.507 1.62136 0.0286697
228.919 1.88674 0.0322823
193.929 1.60042 0.0304566
217.137 1.91552 0.0356503
203.489 1.87124 0.0357334
214.111 2.07407 0.0402032
178.251 1.80895 0.0372286
204.964 2.11971 0.040912
193.68 2.13915 0.0411255
171.496 1.97758 0.0392833
173.763 2.027 0.0417726
174.345 2.16077 0.0476686
167.779 2.34459 0.0518914
169.891 2.23906 0.0498265
162.333 2.29396 0.0549609
176.884 2.54942 0.0543408
167.849 2.57928 0.0597381
160.497 2.41553 0.0552983
159.689 2.56369 0.0594715
156.279 2.72594 0.064861
155.556 2.74871 0.070304
150.973 2.69619 0.0680331
153.301 2.89772 0.0735797
160.018 3.03095 0.0779399
162.388 3.21931 0.0845416
158.674 3.27272 0.0888466
149.122 3.16427 0.0873176
149.916 3.26306 0.0937153
150.439 3.38642 0.0922575
143.913 3.21474 0.0964553
147.336 3.53747 0.106211
144.11 3.57637 0.11514
140.193 3.50547 0.1084
134.919 3.49146 0.110492
129.845 3.46139 0.113076
144.508 3.79361 0.123793
131.427 3.68682 0.131321
134.038 3.8673 0.136104
132.772 3.76119 0.129194
139.723 4.23461 0.149015
119.925 3.78219 0.137812
132.645 4.05716 0.149441
125.597 4.10596 0.158269
137.489 4.66613 0.180738
127.018 4.3001 0.165865
119.422 4.15498 0.174347
119.572 4.27814 0.171675
134.975 4.96115 0.206034
119.997 4.44996 0.190311
127.866 4.86247 0.207336
125.961 4.94768 0.218026
115.421 4.66207 0.213546
116.932 4.77953 0.224
123.554 5.35153 0.248705
124.267 5.30519 0.250568
125.933 5.41742 0.260159
116.445 5.1563 0.254606
124.436 5.5933 0.282896
122.116 5.67035 0.28451
129.471 6.12939 0.322711
127.307 6.05082 0.315066
123.694 5.92287 0.319758
111.258 5.53586 0.30692
111.624 5.70694 0.325344
113.15 5.94456 0.330354
108.623 5.71555 0.339725
110.277 6.01502 0.364015
118.246 6.28124 0.370552
112.507 6.35326 0.38823
102.04 5.88784 0.363135
113.102 6.77508 0.420625
114.028 6.72372 0.421915
116.359 6.90285 0.449345
114.186 7.09642 0.463757
112.373 7.04249 0.467919
108.517 6.81214 0.467625
111.134 7.11031 0.489952
118.406 7.84426 0.546367
95.2303 6.6542 0.469827
108.545 7.33225 0.521742
98.1401 6.97849 0.520537
113.029 7.87964 0.586023
108.682 7.76317 0.595047
106.738 7.81203 0.59717
106.168 7.81241 0.611405
103.017 7.78253 0.616031
104.895 7.96639 0.645794
99.9233 7.80605 0.641521
98.3895 7.75459 0.654298
105.415 8.56151 0.719334
103.468 8.43779 0.713212
91.9659 7.6067 0.664967
99.8925 8.28415 0.722348
90.8661 7.93469 0.695921
94.9939 8.26463 0.762098
92.897 8.34499 0.766194
90.9269 8.0217 0.754629
101.599 9.00243 0.830227
87.1731 8.16255 0.781447
84.1999 7.77491 0.761552
95.0487 9.0005 0.889121
94.042 8.90558 0.872323
94.0012 9.15148 0.923543
91.4062 8.93305 0.905644
92.9567 9.46884 0.988284
87.8916 8.77959 0.954783
103.299 10.4352 1.09679
91.4343 9.33592 0.989988
97.1271 10.1342 1.11608
84.6652 8.88351 0.964275
97.1109 10.3805 1.16723
83.1109 9.09851 1.05035
88.0931 9.89852 1.15896
89.3951 9.91513 1.12438
87.7783 9.94244 1.16933
95.2943 11.0187 1.29274
92.4413 10.5641 1.27677
89.1437 10.2594 1.27351
90.3802 10.7333 1.32223
87.9137 10.703 1.33492
98.4189 11.8858 1.47563
80.5162 10.0363 1.28901
89.7239 11.1158 1.4201
80.8492 10.2525 1.35949
85.3511 10.9362 1.44306
81.5837 10.6242 1.40882
81.3218 10.6552 1.44286
89.4521 11.9138 1.61654
78.982 10.5446 1.47046
81.2494 11.0798 1.55192
85.1255 11.6447 1.6707
88.2997 12.2361 1.75323
80.8363 11.3264 1.64515
79.1576 11.3082 1.64825
78.0621 11.201 1.66083
78.7889 11.5557 1.72823
70.1096 10.3779 1.60092
79.0489 11.5717 1.76506
79.5506 11.7828 1.81025
78.8825 11.9627 1.87912
73.9379 11.5041 1.82489
71.7745 11.1677 1.7717
80.4804 12.7292 2.07886
80.3286 12.7002 2.08263
79.8547 12.6752 2.0875
72.3916 11.9044 1.98929
76.8997 12.7352 2.1486
73.8582 12.4403 2.1401
69.1885 11.8262 2.08773
72.1419 11.9449 2.05335
72.7203 12.4488 2.15965
76.4241 13.3419 2.39789
70.7156 12.4004 2.21481
71.9439 12.6423 2.26199
71.0229 12.8441 2.34063
76.3649 13.659 2.53458
75.1789 13.3449 2.48174
72.2623 13.4403 2.56434
77.862 14.2843 2.66248
73.7249 13.6206 2.5991
74.3028 14.2819 2.79801
69.2874 13.4021 2.61447
74.8014 14.6012 2.90843
71.1505 13.8239 2.76226
66.7494 12.7223 2.53127
70.9407 14.2346 2.89512
68.9659 13.7986 2.85447
70.3783 13.9316 2.89876
66.1764 13.6755 2.84336
65.321 13.8454 2.96517
65.2937 13.433 2.84848
63.7563 13.6285 2.96219
69.8153 14.7431 3.15088
65.3886 13.9934 3.03137
66.1969 14.1132 3.09934
64.663 14.1642 3.17517
65.9078 14.4422 3.19959
62.8013 14.1367 3.25089
62.979 14.38 3.33275
64.6508 14.6837 3.41164
65.1611 14.8479 3.44566
58.9111 13.7448 3.31108
66.7459 15.278 3.55171
60.0174 13.9299 3.31747
62.9149 14.9527 3.6537
62.0778 14.6961 3.57802
63.3984 14.9723 3.63314
61.3124 14.8464 3.67391
60.753 14.5456 3.61162
65.6733 16.3806 4.10389
60.7111 14.9409 3.78581
61.8926 15.5006 3.99015
59.9845 15.2213 3.97455
58.4113 14.7681 3.75677
57.2797 14.7702 3.89368
57.9473 14.8823 3.93051
61.1662 16.2621 4.37063
60.1219 15.6964 4.19941
59.0787 15.7489 4.22382
59.4862 15.7061 4.28866
59.2754 16.0936 4.48034
55.371 14.9119 4.15258
62.9406 17.362 4.87404
54.7256 15.3674 4.37809
62.8589 16.9769 4.71767
57.6402 16.1732 4.60087
54.914 15.7931 4.60995
57.9577 16.7107 4.90655
59.5281 17.3008 5.10923
59.029 17.1738 5.10995
57.4106 16.5301 4.84476
56.6208 16.4843 4.89733
53.1409 16.0582 4.87103
55.354 16.6975 5.10398
51.9505 15.622 4.74808
52.5102 16.2326 5.13779
56.0913 17.5099 5.44926
49.4603 14.8463 4.56066
56.3543 17.8871 5.6758
57.5987 18.2032 5.81263
51.0808 16.2336 5.27431
56.0468 17.6915 5.66036
54.1808 17.2334 5.58628
51.3104 16.8 5.53461
51.3452 16.8396 5.56639
51.9376 16.9963 5.6999
51.8927 16.9195 5.71558
52.4658 17.2771 5.84586
54.8536 18.3457 6.17181
51.2321 17.1266 5.87261
52.7297 18.0412 6.2599
53.1643 18.0309 6.1884
49.4165 16.9526 5.93742
46.4968 15.7751 5.51216
49.8706 17.2047 6.0713
46.3108 16.3384 5.88279
49.792 17.6161 6.35253
48.4726 17.0839 6.20908
48.721 17.4933 6.28974
45.0196 16.4852 6.11746
49.8823 18.5586 7.01467
48.7202 17.6764 6.53614
48.3692 17.783 6.68759
52.5988 19.3496 7.25956
48.3812 18.2403 6.9684
49.8035 18.955 7.24835
47.845 18.2392 7.06188
48.8368 18.4973 7.25142
46.7274 17.5031 6.71891
47.5731 18.6219 7.32803
43.9034 17.6779 7.054
42.5361 17.0685 7.10241
47.4515 18.2372 7.19272
47.6443 18.705 7.28938
45.3379 18.5002 7.55363
46.2804 18.6258 7.53846
43.658 18.002 7.58985
43.3896 17.2712 7.1834
43.3761 17.6515 7.27624
46.3244 19.2821 8.20221
46.2373 18.6939 7.72459
41.7038 17.6515 7.59798
42.8257 17.9423 7.63451
47.5005 20.001 8.57996
44.6671 18.626 7.96116
43.6944 19.2875 8.64168
47.8037 20.8015 9.0792
44.9942 19.208 8.40671
46.633 20.2081 8.80605
42.6007 18.8176 8.45878
41.4749 18.3013 8.2559
44.4206 19.5044 8.66626
45.3192 20.5928 9.35864
38.7294 17.3519 8.04401
41.5641 18.9063 8.78974
40.3096 18.2386 8.34357
40.5139 18.7876 8.65365
38.4493 18.0116 8.57296
40.9833 19.424 9.33633
43.3448 19.9864 9.32503
37.3648 17.5894 8.5554
41.0722 19.1988 9.08444
37.8042 18.3255 9.08475
39.4237 18.6278 8.84276
39.7983 19.2486 9.43201
41.4382 20.2198 10.0139
38.9901 18.6698 9.17883
40.9491 20.0781 9.82073
36.9439 18.2126 9.22294
41.0103 20.0721 9.96046
38.2536 19.3025 9.77505
37.9366 19.1389 9.91317
39.6902 19.8122 9.95324
37.5416 19.4085 10.165
36.9842 18.4331 9.45621
37.2692 19.7182 10.432
39.387 19.9424 10.248
36.6641 19.1555 10.264
36.2431 18.7287 9.80255
35.7803 18.6441 9.89628
37.6075 20.2401 10.6838
34.3879 18.3249 10.0238
36.648 19.2493 10.512
38.9455 20.838 11.3075
40.1001 21.3835 11.7344
35.7289 19.2949 10.7896
36.3678 19.1854 10.4506
34.0836 19.0391 10.6139
36.3116 19.9902 11.2927
38.5637 20.477 11.1558
38.0899 21.5342 12.2659
35.2826 19.2352 10.6223
35.4838 20.3027 11.5459
33.7998 18.8708 10.8176
35.2033 20.4113 12.1212
35.5541 19.8836 11.4107
32.7744 18.8276 10.9045
35.3973 20.7517 12.2728
33.8142 19.5056 11.5267
34.6635 19.7279 11.5355
32.4663 18.6786 11.0223
33.1732 20.5334 12.5924
32.8427 18.7073 11.1466
36.4006 21.2529 12.4439
32.0308 19.1281 11.478
32.3909 19.7184 12.0888
32.4242 19.9288 12.5249
33.1561 19.8696 11.9839
30.8992 19.479 12.3536
31.2092 18.8799 11.6521
30.369 19.0338 12.236
32.43 20.0644 12.8434
32.5267 19.4533 11.7877
28.2708 17.8101 11.5757
32.343 20.0807 12.5401
30.7005 19.4612 12.3282
28.0821 18.5727 12.4473
29.9836 18.6234 12.0863
31.0104 19.4499 12.4408
29.8085 19.6236 13.2026
32.8103 21.0108 13.6017
31.853 21.2776 14.4582
31.4986 20.2251 13.34
29.8173 19.5692 13.0628
30.003 19.9587 13.6314
30.201 20.0725 13.4062
29.6875 20.2132 14.0146
31.8619 21.0149 14.1511
29.9293 19.8465 13.3809
30.9899 21.9217 15.6016
30.8532 20.7095 14.0951
28.9431 19.9246 14.3663
31.2907 20.7193 13.7013
28.6978 20.4199 14.5894
30.0182 20.6641 14.5134
28.1848 19.775 13.9684
29.445 20.7259 14.7497
27.5013 19.4492 14.0026
27.0441 19.2761 13.9273
29.5304 20.795 14.7498
27.43 20.4407 15.387
27.9839 19.5076 14.0916
28.24 19.6298 14.0683
27.2432 20.1891 15.0511
28.4322 20.6399 15.0916
28.2462 20.7834 15.1897
27.2935 20.211 15.2364
25.6494 18.903 14.3936
29.3473 21.328 15.5273
26.266 19.6102 14.9281
28.7598 21.3916 15.9613
27.291 20.6738 15.7309
27.3598 20.8505 16.1223
26.2416 19.7542 15.328
25.0165 19.1877 15.061
25.4602 19.0765 14.7012
26.2454 20.3589 16.0049
24.6166 18.7615 14.732
26.1065 20.1767 15.8997
26.3888 20.244 15.8021
25.3039 19.7242 15.4106
25.0157 19.8109 15.6943
24.7544 20.2256 16.6695
26.4194 20.6052 16.1755
24.305 19.5536 16.1036
27.0121 21.3771 17.2064
24.1991 19.3519 15.7763
26.1035 21.2237 17.4631
24.4719 20.1224 16.8187
23.619 19.1351 15.8881
26.3763 21.3497 17.4926
24.9431 20.4328 16.9719
24.1142 19.4828 16.4142
24.9205 20.9153 17.7939
24.8236 20.1018 16.7722
25.9223 21.8604 18.6444
26.349 22.1666 18.862
22.2175 17.8486 15.1995
23.5501 20.0487 17.0841
23.5778 20.2091 17.7889
26.5217 21.9849 18.2843
24.9037 21.5349 18.695
22.4942 19.2999 16.8284
23.8711 20.6123 17.9267
22.2678 19.4708 17.1834
22.964 20.2644 18.0093
24.3397 21.4677 18.5428
22.658 19.9625 17.889
22.7799 20.3818 18.6981
24.099 21.606 19.7181
24.9599 21.779 19.4738
22.8964 20.2602 17.9977
22.4691 20.2211 18.6839
22.73 20.7191 19.1546
22.7362 20.0858 18.311
24.0325 21.3115 18.8589
22.7223 20.9368 19.2416
20.8129 19.319 18.5084
22.7874 20.1075 18.4992
22.3052 20.3212 18.8242
22.1858 20.4704 18.9978
22.0878 20.9273 20.4009
22.2537 20.1128 18.7545
22.2497 20.185 18.7205
21.6281 20.5185 19.7931
21.9381 20.6448 20.0069
21.6374 20.0986 18.8904
20.7615 19.6496 18.8571
21.4067 20.6569 20.1112
21.8565 20.7278 19.7288
21.1319 20.4347 19.9082
19.9206 19.5599 19.596
21.5995 20.2438 19.8734
21.465 20.5621 19.8438
20.4996 20.105 20.0607
19.834 19.3507 19.3715
20.9803 20.2704 19.7405
20.5727 20.2674 19.9968
20.8955 21.0991 21.5274
19.0227 18.7097 18.9294
21.0759 21.3367 21.5979
20.4595 20.4309 20.7123
18.9429 19.4477 20.5886
20.1677 19.9167 20.1315
19.4232 19.1896 19.0933
19.7296 20.3256 21.0954
19.621 19.3361 19.4184
19.1814 20.15 21.6315
20.6987 21.3019 21.5625
19.0639 20.2088 21.5536
19.7151 20.6245 21.7925
19.8937 20.7479 21.5621
17.6387 18.8601 20.5741
19.5447 20.4069 21.6216
17.902 18.8768 20.3489
18.9333 20.3251 21.9669
20.3606 21.8892 23.5886
18.365 19.279 21.2051
20.2195 20.9929 22.0758
19.5951 21.0663 22.9414
18.6489 19.2073 20.4095
18.1657 19.9527 21.6826
18.0198 20.0442 22.645
18.8356 19.9595 21.3849
18.0054 20.2025 23.1311
18.7288 19.6478 21.3905
18.8969 20.431 21.851
18.2763 20.7736 23.6931
18.5049 20.3829 22.7777
17.3795 19.4539 22.1596
18.243 19.9854 22.1218
18.6473 21.4103 24.1794
16.7519 18.9826 22.4422
17.7611 20.2094 22.997
17.342 18.7661 21.3984
17.4089 19.9927 23.481
18.3155 19.6987 21.9807
17.6014 20.1622 23.4645
17.8527 20.6469 23.974
18.05 20.7124 24.214
17.133 20.0401 23.9703
18.5001 20.6062 23.4228
18.1292 20.5854 23.7616
17.8089 20.584 24.2938
16.8515 19.5764 22.8131
16.6425 19.62 23.5271
16.8799 19.9445 23.9229
16.6059 19.6186 23.6796
16.6124 18.716 21.7921
16.8816 20.3623 24.4054
15.8852 18.7517 22.9595
17.1317 20.4736 24.7657
16.3488 19.2674 23.2175
15.0621 18.2938 22.9281
16.9687 20.3478 24.5426
16.3263 19.7525 24.045
16.2941 20.3353 25.7134
16.3841 19.2657 23.5615
15.1564 18.0969 22.4694
15.3777 18.4632 22.7515
16.2033 20.2146 24.8875
15.6499 19.4505 24.5641
15.3386 19.1227 24.2643
15.9935 19.4118 24.1453
15.4984 19.2185 24.4789
16.7259 21.0493 26.9356
16.5783 19.425 23.3123
15.7088 20.1168 25.9498
15.6941 20.1736 26.1892
14.8393 17.473 21.5463
14.8027 19.4763 24.8022
15.5278 20.7908 27.3762
14.9553 18.7673 24.1648
14.6942 18.9992 25.0721
15.1378 19.3735 25.6712
14.9517 18.7735 23.9778
15.6855 20.5445 27.0044
16.182 21.0412 26.9814
14.5446 19.6445 26.7291
14.6658 18.931 25.4059
15.3571 20.2295 26.6662
14.98 19.8746 27.4063
15.3057 19.5712 25.2497
14.3069 19.2171 25.9858
14.6592 19.5394 26.3616
14.0844 18.9425 26.0597
14.1884 18.9128 26.4988
14.7894 19.1846 25.9551
15.133 20.2139 27.2634
14.4767 18.8112 25.1233
14.1603 19.6814 27.2227
14.2649 19.6905 27.6472
14.8961 20.5687 28.4147
14.7574 19.8081 27.1806
14.0756 19.1789 26.7895
15.6178 21.6107 29.4032
14.6349 20.1357 28.3348
14.6174 19.8359 28.1079
14.4945 19.4581 26.689
12.842 17.9394 26.1227
14.4985 19.7727 27.0544
12.7547 18.1405 26.7693
13.459 17.5538 24.415
14.5272 20.1643 27.6312
13.456 19.1592 27.302
12.1578 17.7304 26.7678
14.0605 19.2292 27.4558
13.9824 19.8983 27.6139
12.7607 18.7152 27.5939
12.8201 18.4291 27.615
13.4907 18.4748 26.1228
13.3884 20.0481 30.9436
14.407 19.4027 26.9539
13.2365 18.7519 26.5378
12.5333 18.438 26.9541
12.5979 18.2135 27.1476
12.6047 18.1201 26.7464
12.8844 18.6193 27.5079
12.3853 17.9277 26.1155
12.1395 18.3193 27.8495
12.9871 18.3775 26.8555
11.5475 16.6238 25.5822
13.1684 20.2094 30.9414
12.9512 18.343 26.9702
13.3101 20.0655 29.3707
12.2183 18.9729 29.7802
12.5492 18.8802 28.8463
12.7838 18.7833 28.2969
12.1888 18.4267 27.9371
11.7005 17.5288 27.1538
12.2054 18.0815 27.3315
12.1572 18.7724 29.0897
12.1147 17.8426 26.5368
11.7107 18.7004 29.4105
11.6385 17.4362 27.4151
11.6311 17.9003 28.1345
11.824 18.3722 29.4508
11.544 17.489 27.8982
12.6472 19.0955 29.09
11.6469 18.3972 29.8903
11.8119 17.6306 27.3523
12.2325 19.2068 29.5415
11.1773 17.9372 29.6671
12.3522 18.5905 28.3377
11.1128 18.1683 29.6036
10.9875 16.9215 27.0578
11.1344 17.5777 27.9337
10.9383 17.078 27.9716
11.9586 18.6564 29.1834
10.7981 17.5863 28.917
10.6448 16.3418 26.3963
11.323 18.6337 30.8827
11.7373 18.0833 27.8999
11.0275 18.6465 31.7153
12.1606 18.7426 30.0251
11.0166 17.3957 27.7971
10.5191 17.7647 30.5119
10.72 17.1159 28.642
11.1904 18.3747 30.2218
10.9294 17.7106 29.6498
11.954 20.134 32.7046
10.5805 17.265 29.4517
10.5025 16.7533 28.0796
10.3537 17.4727 29.5343
11.1161 18.1553 29.7154
10.1255 17.5906 31.2241
10.9847 17.6501 29.2268
11.1048 19.0199 32.2627
10.4482 17.5525 30.6963
11.1685 18.3906 31.64
11.2367 18.5554 30.9563
10.4827 17.5515 30.7021
11.3008 18.8738 31.8274
11.3615 19.471 32.9401
11.0946 18.5793 32.4401
11.1248 18.7564 31.2004
9.97391 18.1442 33.1511
10.134 17.2194 31.0401
10.6814 17.5402 29.5329
10.529 17.6847 30.8691
10.5339 17.8506 30.5838
9.81494 16.9526 29.7543
10.0929 17.7329 30.5873
10.2009 18.4963 33.4019
10.7943 18.8584 33.4301
9.7184 16.9603 31.0511
10.4812 18.033 31.9533
10.5639 18.2824 31.6871
9.83664 17.4828 31.6673
10.4268 17.9302 30.9754
10.2184 18.8014 34.2486
9.65678 16.6831 29.6698
9.56629 17.6167 32.5959
9.76527 16.5224 30.1019
10.5294 19.0046 33.181
9.40961 17.058 31.5894
9.87132 18.1094 33.9432
10.2143 18.1897 32.5344
10.1112 18.1216 32.065
9.11736 16.7897 31.1636
9.06574 15.7608 29.6662
9.40115 17.6137 32.5377
9.25478 16.4289 30.562
9.14994 16.3376 30.3619
9.41247 16.9575 30.7436
9.40009 17.5298 33.2725
9.72529 17.5075 32.0856
9.69703 18.5097 35.0365
9.37868 16.5439 30.8039
9.71711 17.9359 32.1807
8.59292 16.5806 32.2261
9.51931 18.1142 33.9318
9.23454 17.323 33.8004
9.28789 16.716 31.8547
9.60361 17.9403 33.92
9.86386 18.5737 34.0737
9.23658 17.1538 32.1681
9.03385 17.8421 35.0363
9.38574 17.4971 32.8394
8.49493 15.9331 31.5704
8.98138 16.8476 32.2268
8.8047 16.7077 31.6791
8.62405 17.0101 33.5795
8.57471 16.0467 32.0264
8.87184 16.9879 33.5182
8.66646 16.4228 32.3129
8.81229 16.8931 33.7124
9.49954 17.8944 33.933
8.41397 16.2403 32.1003
8.59595 16.5838 33.3704
9.40824 18.3262 35.8867
8.6574 16.7582 34.7734
9.44827 17.2899 32.8595
9.01648 17.3351 33.2598
7.62648 14.9386 30.8998
8.99752 17.9234 36.4366
9.10119 17.44 35.373
8.76347 16.4489 32.9631
8.92948 17.3121 34.5035
8.71402 16.6842 33.0321
8.45321 16.4365 32.3333
7.83741 15.5034 30.9028
7.56844 15.5902 33.6114
8.56624 16.2126 31.5811
8.64151 17.557 33.7922
8.02236 16.9133 35.5419
8.10147 16.0021 32.8929
7.98187 15.5016 31.3754
7.66799 15.7711 33.7047
8.21057 16.3794 33.7909
8.28946 16.2188 33.2974
7.97253 15.3641 31.6867
8.29164 16.9638 35.4252
8.76429 18.2837 37.6725
8.79585 17.4938 34.8617
7.34068 14.4784 30.5251
7.80967 16.8263 35.5274
8.13898 16.6316 35.2896
8.15199 15.9415 32.9136
8.39102 17.5283 36.2227
7.936 16.2661 34.3796
7.65742 15.2703 31.6417
7.75206 17.0337 36.8756
7.804 15.4324 32.3504
8.03106 16.5589 33.5028
7.33377 15.7923 34.1814
7.38343 14.9572 31.2995
7.83623 17.2256 37.3021
7.79134 15.6578 34.0122
7.97273 16.6964 34.9307
7.69624 16.9647 38.2435
8.28762 16.5231 34.9222
7.8204 15.9228 33.2935
7.15889 14.8903 32.121
7.57453 16.6021 35.7788
7.90237 16.5457 34.6421
7.13001 15.2777 32.9358
7.35604 16.7948 37.7239
7.51701 14.964 31.7415
7.52897 16.2605 34.1846
6.72088 14.6309 34.0423
7.82873 16.5598 35.0088
7.52025 16.1436 33.4859
6.93116 15.5023 33.9264
6.93721 15.1586 33.3267
7.0288 16.4128 37.6856
7.15586 14.7592 32.959
6.68102 14.6072 33.0443
6.72451 14.0178 31.4007
6.85932 14.8162 33.848
7.26554 15.3744 32.95
7.17075 16.3833 36.1218
7.09361 15.5272 34.8876
6.96251 15.953 36.704
7.39772 15.9005 35.6843
6.97071 15.2953 34.4955
6.97362 15.3801 34.9124
6.96304 15.6396 35.267
6.91053 15.0556 35.0992
7.07469 15.1766 31.7608
6.28646 15.2286 35.7157
6.35226 13.6878 32.9185
7.43993 17.3553 38.3487
7.00289 15.5766 36.0609
6.68084 14.2552 32.379
6.91113 16.2687 37.5866
7.48542 17.0686 38.3595
6.71159 14.7651 33.3956
6.48125 14.5298 33.4634
6.32851 14.5248 33.4964
6.42942 14.5855 33.7385
6.55896 15.6391 37.8477
7.13172 15.5559 35.3695
6.53392 14.6081 34.029
6.52014 15.8835 38.4209
7.07341 15.5094 35.148
6.51815 15.3172 37.5803
6.74857 15.0323 36.1172
6.65743 14.3497 32.9573
6.76868 15.4799 33.8271
6.33843 15.1571 35.6683
6.13111 14.268 35.3591
6.59344 14.889 33.9221
6.1761 14.6564 36.3
6.83415 14.6455 32.174
6.04712 15.1659 36.2093
6.40253 15.3302 37.4767
6.51902 14.6489 34.327
6.21614 14.7262 35.2301
6.39732 15.9224 36.5685
5.65433 12.9645 32.9917
6.19088 14.5925 35.3462
6.21924 14.5301 34.3079
5.97859 14.7381 36.4729
6.0258 14.3781 36.094
6.18197 13.8538 34.1628
6.31131 14.9693 34.9902
6.06298 15.0578 38.2877
6.4848 14.9299 35.1453
6.05236 15.4348 39.4804
6.66865 15.4959 36.3948
5.89471 14.2992 35.8646
