# pn-170911/RbIIR-60-RbIIA-1280-1959.psd
# Power spectrum* (dif=0,1,2) (really just |FT|^2)
# NOTE: only the first half! (symmetric)
# weeks: 1280-1959
# 4157 clock-days, 59 excluded
# PSD: 1441
7080.62 0.22132 0.0259743
524257 10.5203 0.014831
1.65481e+06 31.5846 0.0153549
313442 9.96133 0.0150351
207339 12.2375 0.0155765
96325.5 7.22569 0.0158121
65449 7.46368 0.015817
43600 6.57783 0.0161154
35500.9 6.93086 0.016825
25914.4 6.36924 0.0172216
21814.8 6.29825 0.0174717
17789.4 6.14575 0.0184244
14517.8 6.14149 0.018665
12346 6.01222 0.0197515
10633.1 6.08796 0.0203431
9200.99 5.90751 0.0208338
8275.29 5.99733 0.022388
7223.4 6.01315 0.0225831
6451.57 5.85981 0.0235702
5557.82 5.71146 0.0243509
5223.58 5.90647 0.0261475
4671.95 5.87686 0.0271515
4284.23 6.01038 0.0287154
3796.84 5.6484 0.0295525
3624.04 5.75297 0.0308197
3283.12 5.75521 0.0312593
2956.5 5.58627 0.0322956
2710.75 5.63489 0.0343704
2622.45 5.88762 0.0362366
2472.24 6.03918 0.0378858
2330.52 5.83272 0.039433
2162.95 5.82909 0.0420071
1987.13 5.80312 0.0432438
1865.17 5.92915 0.0455813
1797.41 5.92973 0.0475938
1720.88 5.99059 0.0503476
1587.19 6.01428 0.0524105
1563.28 6.12408 0.0552092
1457.63 6.07082 0.0564146
1367.7 5.92802 0.0580408
1311.45 6.03167 0.0608654
1271.47 6.19829 0.0652941
1183.74 6.20711 0.0675005
1204.6 6.32374 0.0704422
1097.35 6.28548 0.0731307
1048.34 6.25188 0.0748131
1015.5 6.39188 0.0790036
984.073 6.39762 0.0825809
963.126 6.46271 0.0859455
899.55 6.40722 0.0895135
868.802 6.53862 0.0933429
842.307 6.36286 0.0950013
816.187 6.61106 0.0998808
801.479 6.6536 0.104192
775.147 6.66777 0.106771
745.164 6.81866 0.111781
728.433 6.85924 0.115788
700.568 6.98276 0.123849
666.263 6.76673 0.124131
664.207 7.16391 0.133629
644.939 7.10555 0.136312
632.294 7.22456 0.142336
600.169 6.9911 0.142552
594.038 7.25003 0.152328
598.145 7.41481 0.159425
570.717 7.4316 0.164442
553.674 7.38038 0.169787
539.862 7.54893 0.175258
508.631 7.38724 0.177939
512.614 7.74374 0.193057
511.582 7.70979 0.195542
486.891 7.77892 0.20098
475.977 7.90921 0.210162
456.71 7.67374 0.210222
451.187 7.90225 0.220571
465.748 8.31757 0.237467
444.607 8.07373 0.235419
429.272 8.1549 0.24508
419.489 8.22109 0.252265
408.606 8.10309 0.255114
405.681 8.31431 0.269309
406.366 8.54026 0.281303
397.374 8.7043 0.292216
385.811 8.84861 0.304647
371.971 8.68091 0.305227
375.233 8.82304 0.31777
361.156 8.86693 0.328274
348.485 8.7514 0.329073
344.799 8.98528 0.342693
344.848 9.11724 0.356932
336.137 8.91749 0.359627
327.327 9.05263 0.372095
331.744 9.37963 0.391048
329.372 9.48232 0.407665
316.452 9.37549 0.410418
325.49 9.89331 0.440255
309.087 9.42118 0.427731
308.093 9.68521 0.449048
307.36 9.79938 0.459628
297.517 9.84332 0.472124
289.616 9.7586 0.479984
293.221 10.2848 0.512914
285.278 10.2281 0.518259
291.748 10.5658 0.548137
282.815 10.5957 0.560267
274.601 10.2855 0.551475
278.645 10.6209 0.583956
263.933 10.3993 0.57636
272.96 10.9342 0.621073
265.533 11.0502 0.634788
250.189 10.5673 0.615089
248.924 10.8029 0.648474
248.497 10.741 0.653039
246.41 10.961 0.679646
240.115 10.8595 0.687297
239.826 11.4311 0.734793
238.343 11.2415 0.735119
238.596 11.345 0.742934
235.91 11.6765 0.786972
231.203 11.5933 0.79551
227.852 11.6393 0.807006
231.827 11.9057 0.846095
233.06 12.3048 0.880454
222.334 11.6222 0.84825
214.209 11.742 0.867733
221.386 12.2788 0.923471
216.939 11.9113 0.907924
209.438 12.0403 0.931415
212.579 12.5902 0.991597
203.846 12.1823 0.97339
204.617 12.2619 1.0003
206.533 12.7884 1.05459
195.923 12.5144 1.04655
197.146 12.4651 1.06192
196.505 12.6284 1.09149
197.982 13.0597 1.14409
193.785 13.0796 1.16245
190.486 13.1108 1.18186
191.135 13.1851 1.19861
192.35 13.533 1.25148
184.399 13.1115 1.22866
181.225 13.2741 1.26387
183.353 13.5355 1.29999
184.134 13.6938 1.34972
173.652 13.2572 1.30911
179.223 13.8168 1.39297
175.012 13.7541 1.40351
179.156 14.046 1.44413
174.197 13.8994 1.46079
167.511 13.74 1.4546
175.24 14.5688 1.56406
168.148 14.1045 1.52818
168.658 14.5421 1.60341
175.357 15.163 1.68788
161.871 14.3339 1.62426
164.382 14.5884 1.67148
160.839 14.7057 1.70408
162.534 15.0079 1.76133
165.589 15.1657 1.80736
153.243 14.8492 1.7868
161.957 15.3728 1.87349
156.79 15.1331 1.85907
154.944 15.4701 1.94073
155.025 15.3447 1.93751
149.609 15.4934 1.9865
148.175 15.0344 1.9433
148.89 15.5429 2.02918
150.534 15.5203 2.05953
148.496 15.747 2.1132
145.655 15.6482 2.11303
146.825 15.8894 2.17764
138.191 15.4356 2.14029
143.002 15.8085 2.22054
138.8 15.8184 2.25882
143.422 16.151 2.31831
139.082 16.1885 2.34307
139.224 16.398 2.3992
141.04 16.5592 2.44268
137.514 16.6638 2.50412
135.952 16.3325 2.48147
134.099 16.5521 2.53637
129.566 16.2484 2.53916
131.471 16.5995 2.59647
132.833 16.932 2.68969
130.125 16.8347 2.6924
131.268 16.9181 2.73368
129.011 16.7379 2.71297
129.449 17.4291 2.88072
129.179 17.2624 2.86868
121.157 17.0904 2.89451
125.219 16.7872 2.85022
126.042 17.6434 3.0291
125.744 17.49 3.03918
120.039 17.2765 3.03379
122.007 17.2871 3.05888
121.071 17.8469 3.20839
120.629 17.6743 3.19934
124.089 18.5308 3.38461
118.047 17.8618 3.28787
122.922 18.4039 3.42754
116.564 17.6238 3.33372
117.19 18.3011 3.47805
113.786 17.7965 3.42615
114.864 18.3099 3.5567
113.944 18.1546 3.55591
115.451 18.7699 3.69629
113.727 18.4938 3.70261
112.423 18.5949 3.74176
112.649 18.6927 3.78294
111.738 18.4819 3.80573
108.432 18.8347 3.90016
105.796 17.9665 3.75117
107.571 18.8989 3.99
105.127 18.3893 3.93265
106.574 19.2595 4.14031
107.98 19.4716 4.23643
105.226 18.7951 4.10801
105.568 19.1417 4.22848
104.542 19.2671 4.325
102.655 18.867 4.23732
104.132 19.4167 4.38497
106.823 20.1149 4.60597
103.181 19.6172 4.52458
101.527 19.5798 4.57707
99.1513 19.411 4.55575
98.0849 19.2542 4.56332
98.8359 19.8877 4.73562
93.4815 18.9883 4.57915
100.418 20.2244 4.92715
98.6834 20.4892 5.02258
97.8891 20.2109 5.02273
99.3072 20.7442 5.15161
96.3698 20.0781 5.05075
91.4958 19.297 4.87079
94.9739 20.2702 5.21933
93.5472 19.7297 5.08421
94.6904 20.4408 5.30154
95.2751 20.5749 5.38281
92.1285 20.2703 5.34673
92.804 20.5241 5.49151
90.3937 20.5042 5.54186
90.6677 20.2272 5.47321
91.9525 20.7888 5.66909
90.2692 20.3832 5.64414
88.4375 20.8843 5.78382
87.6522 20.5966 5.76852
91.1186 21.569 6.05277
86.833 20.3447 5.78777
87.5714 21.3651 6.12504
86.8814 20.9953 6.01838
88.4542 21.7265 6.36773
84.7319 20.5803 6.06275
88.0389 21.5634 6.35595
83.9587 20.7504 6.17609
84.454 21.2969 6.39667
83.0885 21.063 6.3703
82.7049 21.736 6.65264
83.0542 21.5129 6.57056
82.8866 21.701 6.73239
83.274 21.4983 6.67462
81.4665 21.4995 6.74376
81.0965 21.6412 6.84373
80.0745 21.5884 6.87203
80.2756 21.6882 6.96778
79.7565 21.667 7.02769
78.7363 21.5184 7.00748
79.8326 22.2206 7.31504
79.4093 22.3639 7.36689
77.7771 21.6394 7.21013
75.691 21.4338 7.1926
75.2383 21.6149 7.27051
76.7095 21.9069 7.46109
77.3736 22.0641 7.58076
73.5599 21.3324 7.36484
75.9253 22.103 7.69889
75.9558 22.601 7.82759
72.7975 21.8844 7.77366
73.3304 22.3069 7.97693
75.3235 22.317 7.91838
72.9337 22.1575 7.97413
69.8546 21.1952 7.73695
72.3673 22.2772 8.1305
70.9089 22.0456 8.09282
73.1257 22.8252 8.48559
71.8142 22.708 8.40359
70.6414 22.4569 8.46358
70.9664 23.5234 8.92116
71.1347 22.9646 8.67949
67.9575 22.0818 8.5509
70.8395 23.2203 8.94195
70.41 23.4058 9.06445
71.1388 23.4151 9.08654
69.6138 23.0023 9.05548
69.3003 23.6796 9.42039
66.9561 22.8657 9.09668
67.0842 22.9037 9.18909
67.0243 23.3728 9.46198
65.9049 22.8949 9.27102
67.2042 23.6013 9.62887
66.8032 23.4438 9.73414
66.169 22.9394 9.50219
66.8331 23.6282 9.80621
66.046 23.4122 9.79523
64.3582 23.0977 9.85352
64.5811 23.5327 10.0042
63.9522 23.1055 9.85759
63.7583 23.5761 10.1206
62.9802 23.3464 10.1648
62.2026 22.9369 9.99129
62.4405 23.3537 10.2293
62.339 23.0783 10.1055
60.5847 22.4713 9.92944
60.0699 22.7199 10.2172
61.2784 23.4394 10.5443
60.9328 23.3178 10.5281
60.4362 23.5905 10.7471
61.07 23.6358 10.8024
59.5283 23.5552 10.7945
57.26 22.4835 10.4813
58.4724 22.8679 10.6033
57.6358 23.2846 10.9331
59.7223 24.2108 11.448
59.1944 23.744 11.2403
57.3214 23.3345 11.1749
58.9543 23.9215 11.4902
57.1384 23.3579 11.3061
56.4677 23.4398 11.3384
56.3565 23.4022 11.4287
55.2813 23.2763 11.471
57.2842 24.0894 11.8825
55.1321 23.6274 11.7979
56.2539 23.8645 11.9432
55.8636 23.8383 11.9687
56.8733 24.4578 12.3309
55.1911 23.7347 12.0125
54.0756 23.6468 12.2152
54.3768 24.0517 12.3081
54.0305 24.1528 12.4971
54.0659 24.0311 12.441
53.3354 24.067 12.6517
52.2311 23.8128 12.5949
53.4224 23.9077 12.6367
52.6 23.791 12.5105
53.2871 24.3138 13.055
51.9518 24.2715 13.1402
51.9709 23.8359 12.895
52.1144 24.0226 13.0407
51.2242 23.838 13.0589
50.3961 23.7443 13.1014
50.7064 24.1049 13.3116
50.9653 24.3051 13.607
50.3247 24.0274 13.3603
48.9339 23.7195 13.3957
49.4764 23.7976 13.5346
49.7522 24.0417 13.6575
48.5702 23.3908 13.3019
49.1119 23.9702 13.7349
48.9624 24.286 13.9776
48.9982 23.9855 13.8748
48.894 24.1631 14.0572
47.7671 23.8262 13.9793
48.2157 24.6856 14.609
47.8606 24.6345 14.5771
45.6634 23.1654 13.9778
48.1187 24.769 14.7823
46.3979 24.1502 14.4633
47.815 24.8354 15.0416
46.3888 23.8936 14.5853
46.2999 24.3248 14.9836
46.6516 24.5204 15.0937
47.0647 24.8177 15.167
45.4926 24.0856 15.0041
44.5996 23.9453 14.9581
45.102 24.0499 15.0955
45.8094 24.8156 15.5642
46.8129 25.4105 16.0695
45.7429 24.6024 15.5793
44.1285 24.2683 15.6141
43.9859 24.5469 15.871
44.9288 24.8912 16.1417
44.1027 24.4329 15.7863
43.2491 24.0935 15.6469
43.762 24.5694 16.156
43.4473 24.8097 16.2173
42.3253 23.8335 15.9012
42.0107 24.2263 15.973
42.6175 24.852 16.8196
42.9023 24.4827 16.4496
43.0007 24.6997 16.5703
41.7646 24.4235 16.6451
40.9768 24.3026 16.673
41.8456 24.0873 16.5867
40.556 23.5838 16.3387
41.0526 24.3705 16.8628
41.0802 24.6263 17.1719
40.7275 24.3006 16.9681
41.7356 25.1272 17.5266
40.9328 24.7382 17.4391
39.7299 23.6104 16.5612
40.428 24.3105 17.39
39.0088 23.6862 16.9724
38.5093 23.8345 17.0787
39.0849 23.9423 17.3705
39.9991 25.0203 18.0218
39.9538 25.3774 18.6403
38.256 24.2409 17.7329
38.343 24.3651 18.0137
38.3504 24.315 17.9971
39.3489 24.6536 18.2201
38.5452 24.6756 18.4211
37.2413 24.3312 18.3256
37.2663 23.8467 17.9093
38.2005 24.7095 18.5698
38.095 24.6649 18.412
37.9435 25.1473 19.1746
36.8129 24.1982 18.651
37.0233 24.2645 18.8062
37.088 24.4858 18.9111
36.8739 24.2352 18.7616
36.5903 24.6673 19.3272
36.4884 24.6022 19.2194
36.8222 24.8584 19.6278
36.7882 24.8634 19.5961
36.0717 24.3505 19.3463
36.7276 25.1562 19.8194
35.5352 24.9279 20.0912
35.6504 24.3213 19.5475
34.237 24.0505 19.5692
35.7906 24.2184 19.5016
35.1436 24.6982 20.0196
34.8205 24.6645 20.2359
35.1581 25.336 20.7403
33.9056 23.9559 19.6474
33.5646 23.8484 19.8739
34.3682 24.3351 20.2184
35.0248 25.0738 21.027
34.6032 24.8508 21.0103
33.7564 24.425 20.6546
34.7375 24.971 20.9468
34.2756 25.0648 21.1626
33.4523 24.5585 20.9823
33.4097 24.4002 20.7613
32.5377 24.4171 20.925
33.1934 25.0284 21.8007
32.7898 24.5616 21.4474
33.3405 24.899 21.8795
32.5404 24.6965 21.5157
32.7083 24.6743 21.6411
32.9544 25.2853 22.1896
31.2454 24.0548 21.6276
33.4875 25.4244 22.4575
31.3318 24.1427 21.6491
31.9479 24.4697 22.0328
31.6447 24.4615 21.9226
30.9993 24.0084 21.8678
31.9389 24.6462 22.4113
31.5885 24.2802 21.8712
30.7394 24.0995 22.1299
30.8178 24.3096 22.3837
30.9359 24.8229 23.0229
31.4588 24.793 22.758
30.6845 24.4793 22.6179
29.1217 23.4226 22.1562
30.1527 23.8355 22.1714
30.2856 24.5696 23.0695
30.4931 24.4513 22.8896
30.0002 24.7829 23.6839
29.9314 24.9132 23.9782
29.8362 24.5136 23.4672
29.8517 24.3253 23.138
29.2538 24.3304 23.3426
28.8384 24.0681 23.4019
28.5301 23.6579 23.0012
29.0572 24.2302 23.6815
29.2251 24.4896 23.6955
27.9843 23.8841 23.8264
29.1146 24.7617 24.2783
28.4681 24.0091 23.7831
28.8584 24.4581 24.298
28.5357 24.357 24.2162
27.7277 24.0434 24.2613
27.3619 23.6378 23.7865
28.3783 24.4736 24.5731
27.9325 24.6122 25.0397
27.4513 23.9234 24.4268
28.2482 24.2877 24.4099
27.1677 24.0923 24.8298
27.9804 24.6005 25.1755
27.4627 24.5121 25.4427
27.2955 24.3981 25.1931
26.5826 23.7849 24.7217
27.0081 24.5567 25.4128
26.2939 23.4847 24.8738
26.7618 23.8486 25.1754
26.8943 24.0893 25.0199
26.6788 24.1762 25.7096
26.9584 24.218 25.4614
25.5813 23.8448 25.5483
26.2926 23.7502 25.3701
25.9181 23.94 25.7957
26.1335 24.3807 26.3266
25.8525 23.4985 25.2902
25.3396 23.2677 25.2385
25.0377 23.5846 25.6427
25.7211 24.2579 26.38
25.604 24.5589 26.8854
25.7682 24.1002 26.3843
25.2183 24.2558 26.8893
25.0694 24.0984 26.6459
24.916 23.8205 26.764
24.9041 23.801 26.5053
25.4806 24.5024 27.0485
24.5063 23.7333 26.7878
24.9797 24.5925 27.6057
24.6193 23.7865 26.7668
24.6472 24.1014 27.3127
23.9017 23.4706 27.0273
25.0576 24.5217 28.0771
23.9151 23.378 27.0129
24.6391 24.8068 28.5343
24.3593 23.9555 27.4826
24.3392 24.2804 28.3578
24.3813 23.778 27.3445
23.5866 23.7291 27.7995
23.5409 23.5158 27.4149
23.3934 23.8615 28.3786
23.761 24.0453 28.4041
23.7282 23.9043 27.8981
22.9228 23.9869 28.6022
23.0604 23.4865 27.9757
23.5002 23.9719 28.6972
22.7201 23.3367 28.0794
22.922 23.7325 28.6491
23.0959 23.439 27.9039
22.8481 23.8549 28.9417
22.1121 22.7769 27.827
22.2288 23.3279 28.4977
22.789 23.3093 28.2499
21.9412 23.2921 28.4894
22.2071 23.6235 29.3617
22.51 23.6827 28.9747
22.027 23.249 29.3888
22.2006 23.1008 28.6929
21.9739 23.2985 28.9926
22.1434 23.7298 29.5053
21.8805 23.4248 29.2755
21.6459 23.3787 29.3402
22.2727 23.7246 29.8919
21.2557 23.2572 29.8136
21.9117 23.6577 29.6591
21.0587 23.3754 29.7774
21.5156 23.8807 30.6935
21.0584 22.5698 29.0837
21.8668 24.0879 31.051
21.4814 23.4481 30.4094
21.198 23.226 29.9318
21.1919 23.719 30.9603
21.1075 23.5779 31.0149
21.2755 23.6806 30.7399
21.0951 24.064 31.7442
20.6747 23.3548 30.7076
20.3922 22.617 29.6746
20.5389 22.9817 30.6197
20.6193 23.3507 31.2989
21.014 23.39 30.7316
20.4484 23.1517 30.7042
20.5117 23.8235 32.3601
20.9632 23.9649 32.0068
20.1563 23.4383 31.4292
19.7731 23.0147 31.1826
19.9177 23.5098 32.183
20.3181 23.6697 32.003
21.3034 25.3115 34.6246
20.7421 24.4689 33.8
21.533 26.0723 36.3782
21.781 25.4586 34.0909
19.726 23.0209 32.6954
21.8001 26.6031 37.0657
21.8334 25.6131 34.9916
20.0856 24.1033 33.8779
20.0677 23.9238 33.3901
19.7724 23.9516 33.6986
20.1485 24.1072 33.6944
19.3419 23.002 32.1577
18.9758 22.8928 32.5249
19.5588 23.8206 33.7848
19.4111 23.5679 33.8634
19.0418 22.9571 32.9012
18.8575 23.0401 32.9315
18.9068 22.8673 32.9562
18.9766 22.7114 32.4858
18.5266 22.7235 32.8714
19.0039 23.2555 33.5628
18.7881 23.5068 34.2678
18.691 22.9984 33.4949
18.3562 22.5654 32.7329
17.678 22.532 33.3134
18.2601 22.7659 33.2429
18.1486 22.8658 33.9968
18.0632 22.4815 33.3517
18.2471 22.5214 33.2853
18.2358 23.348 34.2934
17.2885 22.1288 33.4882
18.1465 22.7163 33.81
18.1055 23.1323 34.4055
17.8756 22.5807 33.8528
17.6311 22.5462 34.3614
18.0991 23.1511 34.9743
17.8718 22.6668 34.5519
17.2943 22.3803 34.2267
17.5819 22.3435 34.0133
17.5282 22.4954 33.8061
17.0996 22.3082 34.591
17.5484 22.8653 35.0755
17.0836 22.1936 34.2592
17.5047 23.4343 36.456
17.4924 22.6406 35.0064
16.9409 22.1463 34.5972
17.2678 22.8212 35.6637
17.1581 22.518 35.0396
16.8332 22.0342 34.1154
16.9118 22.5029 35.2373
16.4989 21.9631 35.1553
16.6968 22.2989 34.8612
16.232 21.8357 34.8047
16.7688 22.3162 34.9679
15.8087 21.4399 34.3818
16.5943 22.466 35.8197
16.776 22.8293 36.3294
16.2308 22.207 35.7833
16.3344 22.2264 35.6743
16.5568 22.8768 37.1453
16.4295 22.3649 36.0215
16.1455 22.0739 35.9849
16.1905 22.3343 36.5459
16.3519 22.279 35.959
15.8669 22.4298 36.7389
15.7372 21.7925 36.4281
16.5168 22.5484 37.1322
15.8761 21.8262 35.5486
15.2414 21.5209 36.0197
16.0464 22.2229 36.7067
16.259 22.9853 38.223
15.7901 22.0906 36.5529
15.7418 22.256 37.1989
15.3832 22.2842 37.6131
15.5102 21.4767 36.1047
15.6001 22.2896 37.3562
15.6325 22.0905 36.7781
15.0659 21.4033 35.8634
14.6238 21.1771 36.4984
15.0562 21.9565 36.9051
15.1509 21.6173 36.9662
15.1954 22.1507 37.846
15.1125 22.0722 38.3472
15.0892 21.5587 36.7129
15.0832 22.0831 37.9804
14.9585 21.8385 37.8639
14.3499 20.7366 35.4088
14.3771 21.8181 38.6225
15.084 21.8029 37.5958
14.6213 21.5126 37.6643
14.9747 22.0812 38.3369
14.7601 21.7561 38.1829
14.6366 21.7386 37.7995
14.3756 21.5388 38.0862
14.2085 21.1295 37.8874
14.6289 21.9205 38.3554
14.3416 21.3132 38.0392
14.5567 21.9796 39.6836
14.6179 21.1819 37.0312
14.3379 21.6095 38.5877
14.216 21.2364 37.7511
14.2191 21.6431 39.0918
14.1587 21.4053 39.0141
14.1866 21.4456 38.6698
13.7884 20.7864 37.6302
14.0516 21.1875 38.1963
13.7925 20.966 37.9067
13.8268 21.2858 38.4373
13.5958 21.0793 38.91
13.7235 21.4992 39.9398
13.9948 21.8425 39.6166
13.6592 21.3128 39.869
13.9067 21.4948 39.1132
13.5499 21.231 39.5099
13.9465 21.7165 39.9608
13.4955 20.8132 38.149
13.4786 20.8798 39.0506
13.5089 21.3885 39.7817
13.3261 20.8198 39.1387
13.3745 20.8684 39.1456
13.4982 21.5013 40.6547
13.5829 21.1954 39.5982
12.9768 20.8988 39.1059
13.1734 20.9118 39.8878
13.3021 21.0722 40.2207
13.8919 21.8498 40.9757
13.3171 21.6128 40.9042
13.019 21.1162 40.3535
13.2813 21.3078 41.3066
13.2414 20.9934 40.1393
13.15 20.7263 39.6734
12.9084 21.0497 40.0743
12.7094 20.8125 40.4121
13.0637 21.051 40.8134
12.8677 20.8238 40.3239
12.8256 20.808 40.4844
12.728 20.8868 40.9644
12.749 20.4895 39.7295
12.3924 20.3112 40.033
12.9004 20.74 40.4603
12.8803 21.2768 40.9382
12.5617 21.2442 41.8881
12.6289 20.843 41.5192
12.6354 20.7519 41.2222
12.7563 20.9148 41.5227
12.8454 21.9096 43.3867
12.3615 20.0368 39.9927
12.4647 21.1519 42.2805
12.3022 20.0701 39.9349
12.1956 20.4866 41.439
12.3279 20.6305 40.5962
12.0174 20.6251 41.5645
11.9931 20.1844 41.331
12.2932 20.9471 42.6184
12.5532 20.9737 41.8395
11.8509 20.4464 41.8107
12.1764 20.9723 42.0944
11.7791 20.2151 41.5176
12.0855 20.7443 41.6729
11.7237 20.1771 41.8602
12.143 20.4871 41.2418
11.6701 20.4306 42.6016
11.94 20.5358 41.9962
11.6044 20.1158 41.6217
11.7676 20.3211 42.2808
11.8636 20.893 43.5923
11.9107 20.5263 42.9839
11.882 20.1598 41.8636
11.5781 20.4324 42.497
11.3141 19.8781 41.7208
11.3606 19.743 41.4626
11.5276 20.1132 42.317
11.3758 19.8335 41.5881
11.5063 20.442 43.5841
11.7587 20.1558 41.7904
11.4301 20.3268 43.1278
11.3284 20.0839 43.2884
11.4757 20.0468 42.7724
11.4997 20.3102 43.1066
11.2772 20.1692 43.2037
11.3806 20.4174 44.1729
11.3131 19.9345 42.523
11.2974 20.2966 43.5249
11.2184 20.2663 43.3323
11.3039 20.4536 44.0603
11.1156 19.7646 42.6799
11.1369 20.2854 44.1802
10.9991 19.7901 42.9386
10.9075 19.7335 43.6018
11.2415 20.2602 43.803
11.1387 20.3373 43.8276
10.9805 19.6696 42.5505
10.6255 19.6768 43.1021
10.8979 19.9557 43.8114
10.9577 19.8107 43.2715
10.7407 19.8342 44.2304
10.6752 19.5974 44.1939
11.1127 19.7957 43.1865
10.7974 20.1562 44.6033
10.9656 19.8379 43.9651
10.4306 19.2008 43.3226
10.5697 19.4806 42.816
10.2189 19.5694 44.4444
10.2594 19.1788 43.8646
10.6331 19.6725 43.6328
10.3331 19.063 43.1707
10.569 19.9503 44.2352
10.141 18.9213 42.2333
10.3145 19.4219 44.0569
10.2758 19.417 44.015
10.2272 19.1602 44.3638
10.6066 19.7868 44.4186
10.4257 19.8048 44.3817
10.0406 18.8518 44.2115
10.4824 19.7996 45.0587
10.4734 19.9591 45.1891
10.2974 19.3068 44.2691
10.1502 19.6655 44.2452
9.93552 19.0252 43.3815
9.91634 19.2791 44.6878
10.083 19.3796 45.2442
10.357 19.4886 44.9738
10.1798 19.9082 46.8324
10.3483 19.7481 45.7364
10.1906 19.5647 45.5312
10.002 19.396 44.919
9.9477 19.6674 46.1391
9.86954 18.9564 44.9753
9.99846 19.081 44.5919
9.62891 18.7576 43.9567
9.72485 19.2317 45.7628
9.83842 19.1644 45.5418
9.79565 19.1521 45.1693
9.81554 19.2732 45.728
9.80191 18.9485 45.6109
9.92227 19.2725 45.4583
9.70967 19.0805 45.4795
9.75324 19.6837 46.7364
9.53235 18.8279 45.6273
9.77555 19.1596 46.2611
9.90547 19.7547 46.9791
9.8132 19.0139 45.3327
9.45389 19.0482 45.693
9.60335 19.0462 46.3525
9.88843 19.6048 46.8547
9.40098 18.8465 45.4366
9.60838 19.1478 46.9611
9.92295 19.4463 46.1777
9.45211 18.8436 45.4127
9.58058 19.7052 48.5019
9.66464 19.611 48.0122
9.31709 18.6956 46.3061
9.33199 18.9195 45.847
9.22004 18.9262 46.5414
9.27434 18.6472 45.7319
9.08378 18.2295 44.7717
