# pn-170911/RbIIR-54-USN7-1280-1959.psd
# Power spectrum* (dif=0,1,2) (really just |FT|^2)
# NOTE: only the first half! (symmetric)
# weeks: 1280-1959
# 218 clock-days, 316 excluded
# PSD: 1441
545.839 0.128037 0.100002
22676 0.334974 0.206937
180960 3.79003 0.208948
12732.3 0.536406 0.21585
34112.5 2.65714 0.220517
4399.3 0.52206 0.232112
3506.89 0.608875 0.226098
2594.16 0.52824 0.252522
2357.5 0.673434 0.232614
1499.77 0.606467 0.24285
1314.84 0.637674 0.191785
1107.43 0.582748 0.224324
981.896 0.639642 0.216075
711.762 0.607421 0.227446
733.702 0.639285 0.197577
738.187 0.775654 0.206439
691.096 0.83787 0.222595
569.713 0.78452 0.194394
630.019 0.880507 0.230076
479.351 0.785543 0.193479
604.742 1.08841 0.227662
463.066 1.01778 0.208816
542.483 1.15606 0.239567
513.114 1.24505 0.236537
534.817 1.47535 0.220985
468.345 1.33704 0.244936
427.286 1.35517 0.246653
373.498 1.34372 0.213406
392.184 1.37714 0.21282
342.989 1.46533 0.240381
443.677 1.9423 0.222663
425.915 1.90416 0.246341
440.853 2.07224 0.259929
447.764 2.22367 0.243122
421.561 2.35539 0.2232
424.284 2.46988 0.2327
428.985 2.59604 0.219282
402.805 2.54834 0.211579
461.756 3.05311 0.235751
398.584 2.81916 0.228864
407.928 3.04181 0.256983
445.499 3.47372 0.2448
377.553 3.19519 0.253036
370.224 3.38245 0.250073
392.483 3.63211 0.254758
433.636 4.12066 0.259609
380.129 3.90685 0.263634
356.666 3.76832 0.248795
379.924 4.05178 0.240518
322.89 3.65864 0.286656
361.792 4.25168 0.24319
357.498 4.33295 0.287292
369.97 4.60893 0.284412
402.517 5.31682 0.302765
370.317 4.9661 0.305677
363.509 5.0002 0.280106
401.312 5.96056 0.297254
363.497 5.64232 0.306878
411.056 6.24916 0.28575
386.734 6.33174 0.317107
371.089 6.21143 0.351939
349.957 6.16321 0.363645
341.29 6.11141 0.331914
327.764 6.16446 0.328112
321.013 6.35763 0.363398
350.143 6.88963 0.388941
336.731 7.06114 0.386565
318.479 6.60165 0.37739
328.538 7.22178 0.332526
323.864 7.20633 0.379468
397.853 9.1676 0.458058
326.472 7.68013 0.357124
330.869 8.06541 0.397752
298.819 7.4447 0.417236
315.398 8.24902 0.418285
310.525 8.19248 0.410751
319.779 8.98969 0.492503
397.374 11.1835 0.545114
344.561 9.88198 0.493441
330.337 9.52638 0.515874
331.221 9.84823 0.519256
287.8 8.97007 0.503982
330.49 10.4001 0.510182
288.325 9.44 0.508624
311.159 10.3598 0.560927
301.438 10.1168 0.649164
283.218 9.9709 0.539837
308.356 10.9542 0.565523
261.387 9.29667 0.555536
287.624 10.7847 0.634664
297.886 11.1456 0.654882
349.019 13.3811 0.750441
312.093 12.2368 0.688143
294.189 12.177 0.733241
274.635 11.3387 0.707998
272.89 11.7259 0.688861
410.303 17.6207 0.968568
286.251 12.4367 0.719554
250.886 11.5721 0.751414
280.598 12.9346 0.740064
275.209 13.3225 0.86123
244.379 12.1181 0.752479
294.04 14.3422 0.841967
273.04 13.7015 0.866057
254.018 12.8373 0.784576
263.719 13.6601 0.874885
254.768 13.6707 0.860974
276.96 15.0988 0.972386
245.067 13.3488 0.944
231.584 13.277 0.896384
252.422 14.5848 0.986169
279.934 16.3841 1.16981
229.736 13.5405 0.956563
237.252 14.1791 0.993964
241.144 14.7608 1.02768
301.314 19.0184 1.39058
276.379 17.3192 1.24612
228.242 14.4969 1.18551
206.143 13.7532 1.03557
242.728 16.3508 1.23517
240.411 16.8097 1.32243
239.904 16.1072 1.34012
216.352 14.7195 1.23192
255.4 18.1811 1.31816
243.394 17.7168 1.42182
223.909 16.1408 1.36577
222.244 16.5175 1.422
236.698 17.5897 1.51729
220.102 17.1355 1.55287
220.351 17.273 1.47036
222.958 17.5339 1.5797
246.77 19.8803 1.77363
228.66 18.4609 1.62321
213.119 17.9717 1.5978
220.787 18.5233 1.62388
216.672 19.2267 1.85406
210.493 18.4799 1.66637
208.058 18.7359 1.84705
224.743 19.72 1.79087
210.575 18.9029 1.85735
232.737 21.1096 2.0434
214.627 20.0817 2.08803
188.633 17.5775 1.87839
193.305 18.757 1.93116
219.279 21.6781 2.25004
217.664 20.8823 2.16661
202.67 20.1928 2.20196
175.905 18.0698 2.01086
206.358 21.0275 2.34522
186.759 19.6088 2.19095
206.142 21.4598 2.44309
219.763 23.0724 2.57334
186.157 19.9383 2.27753
200.19 22.0304 2.57651
198.599 21.731 2.49635
212.275 24.4365 2.83182
191.184 21.5596 2.47789
176.388 20.464 2.55918
189.841 22.2249 2.74189
174.584 20.5357 2.46807
172.992 20.4055 2.6393
178.61 22.1578 2.80243
185.017 22.7555 2.81514
172.54 21.4512 2.77279
184.058 23.4715 3.04924
162.962 20.6659 2.61944
182.622 23.5915 3.05767
182.152 23.9125 3.14766
205.016 27.4601 3.66153
174.312 22.9438 3.05411
157.724 21.4883 3.08744
146.977 19.8821 2.73772
167.338 23.1709 3.18442
156.711 21.8953 3.10532
170.242 25.03 3.49798
154.834 22.1092 3.15915
154.679 21.6595 3.23576
161.231 23.034 3.54344
163.717 24.9566 3.70994
174.409 25.8525 3.84164
166.451 25.0859 3.91898
174.178 26.6208 4.15442
156.982 24.5777 3.77785
153.91 23.5438 3.66674
163.245 27.1483 4.49891
145.588 23.7375 3.7018
161.899 24.8333 3.75186
145.732 23.8949 4.00316
148.392 24.4116 4.0983
151.573 25.7305 4.49023
143.757 23.6476 4.10064
171.017 29.862 5.1372
197.397 33.836 5.55557
149.339 25.8977 4.68891
117.075 21.232 3.84116
138.208 24.2535 4.53215
138.716 24.8944 4.42264
132.456 24.1583 4.55362
148.453 27.0145 4.90853
151.892 28.0694 5.06393
130.376 24.0573 4.46493
148.356 28.3729 5.40662
138.841 26.3944 5.08189
148.19 28.1189 5.48854
139.851 27.8606 5.57126
147.5 28.6998 5.51161
146.993 29.6013 5.78022
131.072 25.4466 5.05117
120.695 25.2183 5.15328
136.497 27.9817 5.59485
138.185 29.0121 5.82897
126.62 26.6431 5.65815
129.673 26.5462 5.57733
132.338 27.8795 5.90937
118.895 25.393 5.38579
115.943 26.534 5.92448
141.339 30.4048 6.32637
127.544 27.8803 6.31421
112.781 25.0996 5.63841
122.332 27.5956 6.32743
132.81 30.0846 6.65181
121.512 28.2577 6.44715
127.944 29.0167 6.44857
133.716 30.4833 6.98021
125.665 29.4805 6.94147
110.322 26.4177 6.3213
112.85 26.7681 6.39461
123.601 29.6926 7.17425
115.865 28.0891 6.93993
117.654 28.6801 6.74896
105.396 26.5006 6.40028
111.439 27.7974 6.83226
113.909 28.4613 6.96605
112.822 29.1926 7.36652
106.248 26.7742 6.97866
109.56 27.6039 7.06447
112.148 28.8947 7.28683
103.748 26.9872 7.21365
101.878 26.2854 6.8587
104.5 27.8792 7.45917
127.83 34.0674 8.77126
105.717 29.4839 7.79479
99.2449 26.5373 7.29721
108.197 30.0893 8.23096
106.011 29.4792 8.11444
113.432 31.6324 8.53462
93.7728 26.2746 7.24686
107.971 30.3977 8.33653
100.089 29.0165 8.38482
110.979 31.4442 8.78793
92.814 27.5014 8.13081
98.0881 28.294 8.3189
99.4744 29.4245 8.85312
107.073 30.7789 9.01048
94.1503 28.8749 8.82698
94.9812 28.0047 8.49833
105.532 31.6962 9.59111
105.749 32.0985 9.85983
103.073 32.1764 10.0761
103.62 31.3934 9.44015
89.964 27.8788 8.70315
101.241 32.8664 10.5253
98.6923 30.5962 9.74524
95.0978 29.4665 9.34668
91.9394 29.2181 9.67562
98.5338 31.8667 10.3074
88.4944 28.4693 9.28595
94.5556 31.2113 10.2949
89.2126 29.3778 9.60893
93.9201 31.7959 10.8657
91.2782 29.887 9.92207
95.3411 31.7322 10.7806
92.7945 31.83 11.0318
94.9615 32.4011 11.4402
98.409 33.5001 11.1016
84.8305 29.6573 10.3869
94.0575 33.1813 11.487
92.3769 32.802 11.1797
82.6237 29.2512 10.4143
92.3141 33.6536 12.3854
85.7114 30.1326 10.9303
91.6568 33.0179 12.3197
88.0697 31.0714 10.9749
87.2686 31.9058 11.7474
87.9986 31.9037 11.6919
89.3462 33.4788 12.81
82.4031 30.1896 11.1552
103.358 38.9127 14.3956
112.881 44.211 16.4412
90.8819 33.3146 12.4861
91.4355 35.4743 13.7605
85.9189 34.0803 13.1208
76.2602 31.0331 12.538
85.4118 33.3227 12.9549
83.4689 33.5471 13.4628
75.438 29.8484 12.0447
80.174 32.3153 13.0751
87.0837 34.687 13.7205
82.0928 33.42 13.6854
82.6628 34.1992 14.3782
83.756 33.7914 13.6952
84.4208 34.0447 14.0625
86.8515 35.6011 14.5749
73.8009 31.2586 13.1882
81.3395 34.3247 14.0784
75.7599 32.3789 13.8888
80.0175 34.9215 15.1209
76.9084 34.5315 15.643
85.4796 36.0427 15.0363
80.7641 36.3905 15.9461
78.5546 33.3466 14.6224
58.8002 25.7302 11.6843
70.5932 30.9729 14.1143
81.4974 36.0802 15.6604
72.544 32.7485 15.0453
72.245 32.0966 14.2468
66.7069 29.7989 13.5135
71.9148 32.9803 15.1579
68.0463 31.5873 14.5015
75.5449 34.9163 16.4836
76.8878 35.5241 16.6166
67.4108 31.3925 15.0939
67.5178 31.0004 14.256
70.1821 34.4342 16.8372
80.4516 36.513 16.797
65.3087 31.7181 15.2574
66.3242 31.1144 15.031
65.6309 31.5965 14.7293
66.9253 35.9075 18.3195
67.0008 31.9288 15.5935
73.2536 35.6608 17.3108
62.5846 31.1975 15.5566
62.4142 30.8702 15.9394
61.0419 29.9875 14.7629
61.8651 30.8461 15.1954
65.7358 34.3042 18.1928
70.3389 35.0066 17.3175
66.0699 34.2514 18.0237
57.8709 29.2835 15.0841
59.4872 31.9078 17.468
73.4645 38.3701 19.7814
66.4508 34.7491 18.1871
67.2232 34.5632 18.416
71.785 37.9899 19.8003
58.7146 31.8076 16.948
58.4046 31.6892 16.9464
60.5656 33.0926 18.0008
60.2827 33.0415 18.3255
58.7546 32.0589 17.4496
64.2734 35.0349 19.0654
65.2337 35.5465 19.1933
63.2297 34.6736 18.8538
63.1587 35.7293 20.3798
55.9775 29.9315 16.8608
63.4288 37.2676 21.23
62.8786 34.9239 19.8358
60.7081 33.8579 19.0556
54.8277 31.1525 18.1153
56.6746 33.4527 19.3683
50.9988 31.2947 19.0768
62.7654 36.6349 21.0292
56.3798 32.6741 19.5208
55.7878 32.3412 18.7218
58.1868 34.1957 19.8714
56.0046 34.0521 20.8853
51.7797 30.1624 18.5109
55.493 32.9727 20.3175
55.4416 32.3543 19.0676
51.6609 31.8548 19.3755
46.2448 29.5616 19.0251
54.0191 33.7528 20.6918
59.0022 36.1102 22.0691
60.8653 36.5508 21.9012
59.2766 37.2642 23.6341
57.9043 35.1204 22.1532
62.3172 39.0668 25.1993
57.3812 35.7356 22.36
53.0476 33.8678 22.0195
51.7591 31.3517 19.7729
52.8488 34.1374 22.0655
49.7354 31.3244 20.1264
50.881 33.9298 22.4805
47.8217 30.4802 19.4782
53.8281 35.9199 24.254
71.9743 46.1549 29.1334
51.6913 33.4891 22.1942
52.152 33.2759 21.7916
47.498 32.4003 22.8484
49.3983 32.3565 21.3539
52.6107 35.0146 23.1868
48.9048 32.7807 22.1822
49.2021 33.7085 22.4238
47.2252 31.9749 21.9113
54.1652 39.2219 27.0909
44.6903 30.7895 21.6621
45.0248 30.1463 20.7481
48.6267 34.9191 24.7648
52.9278 36.3085 25.4863
54.5728 38.1044 26.3501
49.6202 34.3631 23.4212
46.3517 34.1505 24.4325
44.9805 31.9825 22.8685
47.4214 34.9896 25.7242
46.6343 33.3146 24.0496
51.6167 37.9867 27.7041
49.5973 36.4398 27.0718
49.2072 35.9399 26.1282
43.0035 32.6279 25.1824
47.5734 33.8227 24.1826
45.874 34.3157 26.0874
48.8112 36.0417 25.9884
46.3782 35.3024 26.217
44.1445 34.5743 27.0633
46.1144 32.9113 23.9797
42.306 32.7714 25.3665
45.3696 34.8633 26.6915
43.0821 31.6107 23.5791
41.8903 33.5598 25.703
42.8553 33.0649 24.9354
40.7563 33.6502 27.1954
46.3111 34.4408 26.0396
42.2664 32.4971 25.4342
40.0305 32.333 25.9773
42.8612 32.806 25.1256
40.2524 33.5304 27.5285
43.3389 34.7022 28.8264
47.2752 36.8774 28.8464
41.5768 33.7379 26.9592
44.3617 36.6488 29.7851
41.7778 32.6307 26.1262
40.4707 32.3945 26.4143
40.9077 32.6424 26.3045
44.4684 37.9156 30.9149
41.2391 33.7005 27.4871
40.9825 33.7492 27.4891
41.5935 34.9998 29.1994
37.5827 32.7202 28.834
43.3762 36.3728 30.4814
42.2274 34.5388 29.4897
40.0257 32.0496 27.0849
40.6436 34.3387 29.5811
41.6053 34.1966 27.9323
40.7001 35.1678 29.8958
38.1014 32.8516 28.7152
41.603 34.9534 28.8838
37.6196 33.7282 30.1288
35.7451 31.5173 27.6997
39.8664 33.8449 28.7011
37.0001 31.3495 27.051
37.4545 32.9655 27.3733
33.5016 31.5965 29.3317
36.0541 30.7082 27.3857
40.5514 35.798 30.7714
36.3917 33.4422 31.6101
40.1522 35.0233 31.1971
38.5528 35.0508 32.539
38.2193 33.924 31.3924
43.4578 38.5964 33.1833
36.3661 32.5796 29.6235
32.5296 31.1913 29.6266
32.8738 30.3547 27.3684
32.3312 30.5485 29.7751
36.0128 33.2371 32.0121
41.5286 38.6759 36.2258
36.0552 33.3672 31.1507
36.6867 32.9355 30.8176
37.1198 34.7415 32.1087
38.0502 36.4678 34.0213
35.0189 33.1579 32.1942
38.0834 35.8883 33.5702
32.6675 29.8074 27.822
36.483 36.5717 35.8624
35.8047 32.3515 30.3689
36.2677 35.3109 34.0733
34.3477 34.6182 34.0439
35.3862 34.7956 34.1379
35.3497 34.3727 35.2581
35.0342 33.3943 32.2206
33.877 33.7862 33.2695
31.6928 33.8918 37.727
48.3504 44.8856 41.1643
31.0562 32.1739 34.4933
34.3272 33.8549 34.3098
34.2214 32.4062 31.2909
31.0503 31.1591 31.6359
31.9609 34.2886 36.7742
34.1441 31.3926 30.2861
32.1222 31.5998 31.4742
33.9885 36.0663 36.923
32.9661 34.0456 34.9744
33.5336 35.7587 38.8302
33.5847 34.4221 35.7548
37.6617 37.2849 36.9425
31.5048 33.1412 34.9839
32.7125 33.3028 33.5776
28.5631 30.8602 33.149
31.2964 33.7873 36.2965
29.8606 31.5396 34.8151
33.938 35.4312 37.1632
34.5782 35.3245 36.5373
29.6674 31.9583 34.4071
31.3097 33.5064 36.3756
33.5241 36.1194 39.1024
31.7918 32.528 34.459
27.779 30.9547 34.5885
32.4219 34.9749 37.3728
27.1364 30.6236 36.1148
30.9702 33.7291 37.1425
32.2629 35.2628 39.7096
30.1406 30.6233 32.388
29.7931 33.7788 38.2807
31.1766 31.8349 33.7368
28.3154 31.8287 37.071
31.5429 34.9327 38.0973
29.2262 33.7405 38.7417
29.3492 32.4664 37.0998
32.4071 35.2653 38.463
28.9874 34.467 40.6053
29.1415 32.59 37.7838
27.3892 32.9169 39.8321
33.6226 38.2993 44.2502
32.8797 35.9037 39.2474
27.0094 32.1655 39.1753
28.5789 31.7816 36.7457
28.2662 31.7129 36.2286
26.3258 32.172 40.7196
32.7329 35.6109 40.5842
28.3771 31.5057 35.7082
26.34 31.9184 39.1016
26.689 31.142 36.5379
26.9847 31.8599 37.573
26.2098 30.28 37.0029
30.3382 35.8479 41.8951
28.7948 35.7889 42.9502
26.6811 32.3118 40.1549
28.9808 34.9759 42.3248
29.2163 34.7736 41.1201
24.1807 28.7021 35.6201
25.9437 31.6519 39.3084
29.1619 34.47 40.5249
25.3572 30.5453 36.0944
24.0623 30.974 40.1556
26.9205 32.0852 38.8029
27.0427 34.4089 42.9043
23.38 28.302 37.6463
28.6294 34.1874 41.3778
26.7904 33.3807 41.5416
24.7632 31.107 39.9133
24.3531 30.1022 38.7909
27.9292 35.6523 46.2234
27.5829 33.2355 40.0154
23.4437 31.3706 42.8874
29.4375 36.3946 43.1935
26.4558 33.7572 43.7145
27.6296 37.2846 49.2968
25.6818 32.3142 42.6242
24.708 30.8361 40.9293
26.2675 33.7923 43.3725
25.4648 33.0421 42.2119
24.0833 31.3762 41.2438
25.1998 33.7686 46.4798
24.7113 30.6801 40.5916
26.1722 33.3234 43.0381
25.8412 32.7963 41.3948
23.6386 31.9625 43.5336
25.7008 35.4373 48.1946
24.0488 31.9399 44.309
25.5687 33.8007 45.3208
24.6655 29.8003 36.8504
22.0785 29.6855 39.4227
22.4407 30.322 40.9293
23.5779 32.9801 46.2517
22.6657 29.2288 39.5403
22.2864 31.0679 44.7944
23.3656 30.1522 40.9967
24.789 34.702 51.2644
32.719 44.5102 56.9081
22.7359 30.5614 43.5693
23.2521 31.6217 43.7329
23.2034 30.37 43.39
27.9126 35.7774 46.2005
19.4862 26.0964 36.5905
20.5273 28.1996 39.1862
23.0497 32.4577 45.3163
23.8864 35.2714 50.327
21.2099 30.0823 44.4204
22.6576 31.6173 43.9897
22.9034 34.3697 51.5658
21.5488 27.919 40.5795
24.7587 33.9097 44.5957
18.8594 27.7831 42.5591
20.9192 28.421 41.1439
21.3473 30.6868 44.9134
23.286 33.4549 46.3753
20.6399 31.4615 46.9093
21.0222 29.8712 45.7811
20.7976 28.5504 41.7302
21.8532 31.3617 45.0299
20.1759 29.1916 43.4482
21.2376 30.4652 45.7344
20.6936 28.4555 41.4342
22.938 34.1495 48.737
19.9068 28.8676 44.6609
22.4869 31.1831 43.5568
19.7877 30.7804 47.3966
22.0384 32.878 49.9043
24.0595 34.5695 49.369
21.9323 34.3791 53.9853
22.1967 32.2407 47.4019
18.363 28.1977 46.5558
23.9868 33.9232 49.5739
19.9306 29.2136 46.3061
21.1596 30.1338 45.1757
19.1869 27.5458 41.3094
19.1595 28.2474 42.4143
18.9795 29.4088 44.9191
18.7109 28.2424 43.6039
19.7164 29.7325 45.0734
19.1337 31.2481 49.1363
18.0138 28.0552 46.2942
19.9176 29.9464 48.6175
19.063 27.1938 42.7948
20.7109 32.2819 47.5948
17.6977 30.3991 52.5395
22.1176 33.0913 49.6201
20.4212 31.9984 52.9104
20.6524 30.4367 47.336
22.5287 35.2238 53.6858
18.0783 28.2746 48.2736
21.1364 33.2121 50.5623
19.6746 31.2828 50.1807
17.8622 27.5915 46.3583
19.9733 30.3577 48.3783
19.4772 30.3213 47.4761
18.127 29.8659 51.1515
19.2101 29.8914 49.0104
19.3059 30.6729 49.0557
18.8799 30.2563 49.9547
18.9556 29.3704 46.028
17.8289 28.729 48.5459
19.3152 29.3064 45.4827
17.8263 28.9327 46.8426
19.9902 32.0019 50.4583
17.7356 29.2359 46.7477
16.7996 26.5558 44.0408
16.8365 29.744 52.8085
18.7749 29.5834 46.9431
16.7634 28.719 49.9226
17.4445 27.4176 44.8743
17.258 30.0199 49.6816
16.557 26.3584 44.0914
16.7766 31.0555 55.6738
18.8611 31.8993 56.695
18.8627 28.9139 46.7516
16.8156 29.1335 51.2333
18.0735 30.5272 53.1243
16.0212 25.3286 43.6526
16.4716 28.2564 48.4505
14.8515 23.153 39.3249
15.7663 28.6161 51.5739
17.1748 27.3762 46.7363
16.7822 28.4085 49.6541
17.297 30.8216 53.7036
17.3531 28.4999 49.9346
17.2123 28.211 47.8535
16.5326 27.1891 47.8267
16.6949 29.7559 50.6526
16.6133 29.1551 53.3653
17.4178 28.6347 48.326
16.755 29.949 52.4017
16.6135 29.8004 53.8489
15.1855 27.6317 55.269
21.4446 35.5103 58.1589
16.1407 27.485 46.9623
13.8258 23.7106 43.7443
15.2451 27.8083 50.7856
17.4596 31.0175 54.7982
15.2944 26.9188 48.8235
13.437 23.2665 46.1365
16.457 28.8218 51.9942
15.555 25.7509 45.2222
13.9841 25.9673 47.5002
14.6907 27.7811 53.0153
15.8551 27.0621 50.3987
16.123 27.5282 48.0419
14.6912 26.6899 48.1382
14.1178 26.9011 52.6959
16.6986 29.3165 51.2924
14.3056 27.1513 50.2387
14.4303 26.6261 51.3625
15.9203 28.6315 53.8595
15.5574 28.24 51.9616
13.748 25.0689 49.9663
16.4152 28.4804 50.137
14.4712 26.67 51.1035
15.7892 29.127 51.742
13.5668 25.0916 47.6159
13.8701 27.5019 51.435
13.329 24.8941 50.8946
15.2046 29.6703 59.5912
17.3922 29.786 51.3245
14.0675 26.6198 53.2036
14.3914 24.6612 47.7629
15.5601 29.9784 53.7479
13.3035 25.9975 51.4601
15.172 29.8574 57.4541
14.0568 25.9461 49.881
13.3482 24.2815 46.88
13.5747 26.2684 51.9785
14.3511 26.3035 47.5869
13.2981 26.8674 53.757
13.7025 25.7925 52.396
13.2382 25.1793 47.584
12.8335 26.963 57.8319
14.1953 23.3152 44.1973
12.309 23.6216 47.7425
14.2744 27.7937 53.4852
14.0505 27.9564 58.2431
14.2483 25.6052 49.1287
12.5234 24.9515 55.6098
15.4756 28.5335 54.6649
13.8423 25.2863 48.1542
13.8035 27.5916 57.3496
14.7109 26.8921 52.2542
14.5338 29.6458 56.3322
13.019 27.0216 55.8111
13.0241 25.2313 51.5808
14.0925 28.0405 54.6232
13.6775 27.049 53.4542
12.2693 24.3134 48.228
11.6329 22.5404 45.8347
11.817 25.1077 55.0127
12.9714 26.0421 54.9662
14.23 27.9565 53.5545
12.2094 26.4397 57.9206
13.6841 25.3979 52.3978
12.5581 24.4739 48.7336
11.8061 23.8798 49.7587
11.7606 26.2077 59.9039
13.5928 24.8324 50.5489
13.0091 25.5601 50.5039
11.416 24.4071 51.9688
11.438 23.0919 51.4577
13.3402 26.7832 53.0341
12.4634 27.0847 57.6348
12.2036 23.5157 51.6603
12.7399 25.262 51.9754
13.083 27.7837 57.3221
12.2115 24.8905 52.3842
13.5994 29.8288 61.3817
12.8582 27.2485 60.4801
12.5353 24.5318 50.5623
12.47 24.6692 50.2949
12.0266 25.1833 51.1809
10.827 24.5541 55.4671
12.1645 25.4343 57.9693
13.0077 24.7638 52.5082
12.3745 25.7749 55.3235
11.1466 21.8313 46.1141
12.3371 29.5372 65.544
12.2097 24.4018 51.311
12.718 27.6588 58.0715
11.4559 25.4289 58.8949
12.1694 24.0009 51.2191
11.854 26.5121 56.7389
10.4674 22.1855 53.6255
12.4767 24.6431 50.0525
10.1358 22.9567 59.6651
15.6948 30.312 54.6332
10.5223 23.9204 53.5846
10.4668 21.0263 46.93
11.4891 26.3313 59.7771
10.9739 23.0202 51.5242
10.1919 22.415 51.8307
11.9689 24.8624 50.0395
10.0274 23.923 58.568
11.6267 23.2628 50.069
10.0812 22.1985 51.3485
11.3417 25.2263 57.5993
11.8841 27.3171 62.6323
11.8247 25.416 55.7831
11.9503 26.1318 56.0735
10.7625 24.521 57.4121
10.7919 22.1054 50.9888
11.4975 24.7648 55.6309
10.7238 25.2791 60.9179
11.7541 24.041 50.8336
10.3017 23.0184 52.633
11.0218 23.1204 50.1257
9.11075 20.7746 51.3197
10.8197 23.8995 53.7169
10.3274 21.7967 48.7001
10.2547 24.7587 59.1123
11.1653 24.2139 57.2823
11.5585 26.1135 57.9181
9.4221 20.2125 48.3715
10.3134 23.2748 55.3943
11.3969 25.8077 57.7748
10.6042 23.4686 54.2745
10.0292 23.1452 56.8464
10.4561 23.0978 54.8311
10.3716 24.5892 57.6944
10.8971 22.723 50.1071
9.51845 21.6632 49.4817
9.64952 21.8977 53.3577
10.4305 23.3748 56.9375
10.0408 21.8598 51.8382
10.3439 24.0906 56.1009
10.6475 23.9191 55.9838
9.90917 21.2209 49.9602
10.5261 25.4589 57.9222
10.389 24.2902 56.3954
9.9856 23.4753 57.9358
9.6432 22.1989 52.4241
9.36425 22.7764 59.5882
10.8295 23.7388 54.926
9.45231 22.2468 52.163
9.00433 20.164 50.6432
10.4773 26.034 61.0691
9.27372 20.7214 51.1805
9.8508 22.5318 55.1112
10.0673 22.9871 54.0283
9.16044 22.8775 59.1431
10.2592 22.2901 54.675
10.0264 22.7317 55.1347
10.1086 22.5504 52.7661
8.87013 21.2349 52.1564
9.63389 24.3762 58.2699
9.06512 20.2626 50.6758
9.14032 22.2082 57.0643
9.50637 21.7318 54.7358
