# pn-170911/RbIIR-58-KOKB-1280-1959.psd
# Power spectrum* (dif=0,1,2) (really just |FT|^2)
# NOTE: only the first half! (symmetric)
# weeks: 1280-1959
# 3 clock-days, 0 excluded
# PSD: 1441
221.562 0.0258636 0.013029
15906.8 0.576131 0.000702424
109553 2.77514 0.000500368
10475.3 0.154683 0.000655183
61167.8 3.33638 0.000490863
4090 1.18363 0.000770335
2788.32 0.131492 0.000544297
4603.08 0.651896 0.000717385
3080.73 0.722261 0.000907266
567.262 0.423464 0.000834312
2219.36 1.11409 0.00140862
531.023 0.25927 0.000829315
1104.92 0.382146 0.000612439
1302.15 0.737356 0.00197337
936.205 0.455431 0.00136511
154.721 0.245756 0.00132652
466.322 0.195997 0.000866539
750.892 0.33763 0.00161859
338.363 0.142376 0.000982616
191.415 0.0739841 0.00121384
96.4816 0.117347 0.000765754
894.876 0.738926 0.00276053
529.062 0.433042 0.00105842
268.855 0.214788 0.00171051
135.44 0.247248 0.000898528
299.342 0.778164 0.00288555
211.428 0.53121 0.00116331
485.742 0.876249 0.00415455
472.52 1.19361 0.00570046
295.894 0.720039 0.00334675
359.953 1.55774 0.00589548
145.381 1.47647 0.00656983
275.107 1.45487 0.0080801
201.062 1.06545 0.00372427
147.254 1.08179 0.00921458
154.578 1.47971 0.00741438
235.445 2.07501 0.00941821
280.036 1.64131 0.0131382
37.325 0.324354 0.00473325
158.269 0.624085 0.00446119
545.674 3.01175 0.0207638
167.732 0.450071 0.00370734
197.722 0.737249 0.00684052
247.169 2.72727 0.0218569
417.102 2.2579 0.0228319
122.006 1.32755 0.0180842
368.077 2.33017 0.0216114
496.162 4.81545 0.0415472
115.929 2.05252 0.0235289
326.549 3.37469 0.0297273
202.224 3.56145 0.0394043
323.488 4.39047 0.053049
344.712 2.5899 0.0300459
155.742 2.51927 0.0311816
189.557 3.15721 0.0500747
234.056 3.58302 0.0432615
215.448 2.44171 0.0371099
478.119 6.44644 0.0993532
195.583 2.43305 0.039619
211.28 3.45396 0.0507485
56.6049 0.669121 0.0108837
242.452 3.85106 0.0742304
47.8343 0.909839 0.0128058
90.0081 1.6028 0.0344575
51.1192 0.594235 0.00873948
91.8638 1.4997 0.0270125
467.867 11.2705 0.234503
239.357 7.13703 0.173875
62.8008 1.16663 0.019402
123.955 3.99771 0.101112
49.5416 1.1284 0.0216499
194.255 2.95144 0.0670494
293.311 6.29365 0.154486
150.926 4.11069 0.119865
32.2564 1.6745 0.0569218
155.436 3.24938 0.101759
264.268 7.14582 0.18207
170.191 2.93758 0.081555
363.527 10.8221 0.313635
171.053 3.13168 0.0882059
121.445 2.72177 0.0776822
26.2578 1.36914 0.0475941
42.2073 2.7152 0.0977567
207.745 6.12292 0.195875
72.1847 3.70555 0.14201
81.8734 1.82397 0.0625228
177.887 5.32754 0.16338
176.073 7.13336 0.273227
44.2821 0.517882 0.0161805
146.059 3.9642 0.153935
98.5218 2.52514 0.108581
113.575 3.56437 0.155115
354.758 16.1322 0.656134
236.449 8.30338 0.364364
291.448 11.6496 0.463499
91.5497 4.20616 0.179066
258.213 10.8244 0.513613
40.7801 2.47808 0.137435
25.6907 1.24814 0.0525413
158.143 6.48755 0.281385
103.023 4.65545 0.245712
122.261 6.11268 0.325487
56.7391 2.08615 0.0803476
81.1104 3.88695 0.194981
191.007 8.28109 0.425382
73.2555 2.33616 0.118416
83.5106 5.09364 0.255314
253.953 10.9932 0.545105
140.661 6.18979 0.362418
178.279 7.26604 0.410817
58.3977 4.18903 0.232013
99.6656 5.49233 0.31156
144.445 9.74178 0.65615
72.7138 2.57882 0.106549
114.539 7.61037 0.509239
147.245 7.02083 0.351301
155.624 8.12457 0.48481
192.578 10.4932 0.618815
119.28 8.32901 0.519675
107.092 7.45578 0.51558
56.8276 4.64867 0.30056
78.7449 7.39726 0.574486
51.4245 2.88645 0.202649
99.627 6.97895 0.478908
237.986 15.9573 1.06213
237.379 14.6448 1.08547
84.669 6.41389 0.449948
185.002 11.4469 0.853687
289.444 22.7867 1.87895
115.572 8.39958 0.623417
32.7664 2.38179 0.220629
25.3653 1.35817 0.0955689
68.6014 4.73096 0.351535
80.5011 5.89492 0.481082
137.109 10.3787 0.946446
224.535 18.3602 1.66345
71.836 5.85098 0.61354
99.3509 9.95232 1.03315
251.055 23.3554 1.95538
133.88 12.7583 1.29062
74.7293 6.50006 0.623139
31.6312 1.92514 0.205384
138.735 12.38 1.28401
70.2307 7.67081 0.777673
140.749 10.0049 0.857457
229.436 20.2475 1.84313
45.4051 4.71874 0.464875
69.8494 7.31214 0.683076
70.7011 5.50386 0.491979
76.492 7.4563 0.795695
190.768 18.6627 2.22129
149.919 16.2421 1.63059
88.5113 7.84239 0.869035
41.1125 3.84232 0.451835
60.0095 8.76885 0.937931
126.351 15.4386 1.74042
96.7766 9.21734 1.10287
61.5086 6.30944 0.628031
99.6218 14.6858 1.63878
17.9281 2.14973 0.270962
80.4993 11.3347 1.38721
131.469 14.9849 1.71355
65.6962 7.41852 0.903307
152.213 24.4568 3.44537
135.833 14.9484 1.62942
75.4999 9.08337 1.16754
91.7883 11.7877 1.54847
98.8094 11.3265 1.48747
50.6299 5.5241 0.671767
219.448 27.0111 3.67866
153.066 22.5409 2.78959
125.356 21.4359 3.29949
20.9948 2.90475 0.35748
65.6095 9.92255 1.36649
50.4453 4.72962 0.603219
75.9835 7.76842 0.926453
159.781 20.4192 2.79772
70.2447 9.47808 1.32233
77.7043 11.7044 1.97363
153.168 20.4951 3.16352
109.056 17.9652 2.96725
44.0074 4.99683 0.666824
62.2511 9.65742 1.53274
61.9847 9.48993 1.33235
24.3205 3.37712 0.566886
110.427 17.4807 3.37592
115.923 19.0429 2.91738
36.2062 5.45837 0.824996
47.0149 7.17282 1.08028
29.862 3.69148 0.56028
146.217 25.8276 4.16807
98.2853 16.9941 2.95399
101.397 16.6359 3.02955
31.9847 5.45779 1.02663
130.762 21.5769 3.85214
82.1908 11.6534 1.85744
22.4741 4.33887 0.582704
30.5586 5.80707 1.16805
54.9381 10.1288 1.92554
130.907 25.4331 4.54824
44.4109 10.8076 2.49093
44.7053 7.18144 1.54683
187.084 30.6886 5.12362
87.9327 16.0541 2.70299
103.326 21.9304 4.61491
14.3101 2.25084 0.500473
72.1095 15.0765 2.56796
41.9246 8.32695 1.55374
80.7605 17.0352 3.79072
49.9512 12.968 2.57127
42.4786 11.2626 3.00009
49.945 7.88012 1.24321
87.6228 19.0936 3.97426
101.519 19.6955 4.4859
62.9484 11.4722 2.42771
39.227 8.01115 1.66881
67.4482 16.1676 3.56924
150.931 36.3323 7.44392
71.4996 18.1683 4.19762
138.794 27.4635 5.98478
60.7027 15.1686 3.4908
108.834 27.8914 6.37516
33.1192 7.46731 1.92196
133.591 27.4075 6.63417
72.0901 16.7044 4.10713
86.547 16.2256 3.36016
94.3127 24.3507 5.51122
104.307 28.4312 7.60169
83.0655 19.6112 3.9662
24.7389 4.73727 1.07183
85.6923 22.0308 5.48545
34.3607 10.9559 2.93684
82.4969 20.5094 4.83497
167.337 38.2341 9.72844
84.3856 24.4176 6.44425
87.6203 22.0415 6.15207
92.7649 24.3489 5.24103
123.069 37.1157 10.4403
47.5532 12.7628 3.26632
90.6057 19.9753 4.1187
90.5569 29.8681 8.11637
35.3883 9.33787 2.69426
7.649 4.54209 2.18557
138.558 36.0706 8.9636
117.144 35.0987 9.65856
39.5424 8.48825 2.0304
38.4912 12.3572 3.52999
83.2784 27.3636 7.92957
34.737 11.6664 3.46796
56.6086 25.2926 8.58584
36.998 6.13573 1.27407
30.7246 9.21627 2.92036
86.2526 27.1912 7.73054
36.4818 16.2692 6.27803
79.8623 20.0617 5.73819
29.4336 10.3607 3.44607
48.2513 13.5813 4.83726
169.436 42.915 11.3992
20.2443 7.53671 2.85727
44.8985 18.0705 6.24749
53.3498 12.9474 3.45061
74.3293 17.0782 4.42792
75.0184 26.7505 9.69686
74.6645 18.9577 5.5405
69.191 22.7998 7.18439
58.2343 19.9333 6.66059
56.96 18.7289 6.05286
135.047 45.9035 14.2884
54.3121 22.9124 8.68611
138.659 44.6727 14.4883
13.0519 5.29184 3.04231
37.1438 9.03998 3.50037
67.1429 20.6024 5.69609
25.1597 5.80893 1.51346
75.1418 29.9672 11.2126
51.1774 12.2672 2.66425
53.027 20.7981 6.74436
36.5126 14.254 5.79246
39.3132 9.47105 2.13881
57.9659 27.0917 10.1976
46.1473 14.6373 5.31557
69.6499 24.0076 8.69858
61.2506 21.0115 7.70251
35.6644 10.4564 2.87377
76.7874 30.9989 12.4846
54.6451 23.2887 8.86743
31.181 10.4732 3.85697
48.9053 17.1178 6.29366
14.5118 8.181 3.35668
19.9408 7.70696 3.5329
71.0575 33.3559 14.7428
77.0926 23.2638 8.35663
79.5928 31.1819 11.4509
51.5049 20.7362 7.98698
30.8839 7.47861 2.40372
5.69102 2.42915 1.56226
141.685 60.9568 23.5965
26.267 13.2363 7.41997
54.2059 18.5962 7.00308
66.456 29.7955 12.112
41.4062 14.8525 6.5332
12.8594 4.04883 1.87125
60.6909 21.9985 8.82015
11.3455 2.6593 0.857363
40.1706 18.7423 9.81803
72.1531 34.3259 16.7603
88.0929 33.8775 11.1397
30.8134 19.2065 9.43227
29.5031 15.0272 8.12096
65.5432 28.0538 13.4156
79.0529 31.0613 12.0686
102.416 34.5283 10.8455
76.8935 44.0873 21.6087
34.3731 10.9221 4.96016
44.4983 16.2984 5.51173
66.1966 36.8149 19.2555
47.8807 16.1247 5.51785
18.4877 9.28729 4.73828
72.3872 38.6304 17.6123
35.2554 22.9428 15.3691
77.8311 25.3445 8.12759
29.0032 10.9875 4.86628
15.369 5.87618 2.22161
78.2042 44.0788 22.183
19.0883 5.27523 2.63015
28.3875 10.7438 5.19639
68.4895 32.1071 15.1829
100.784 49.3502 26.3451
114.458 51.0124 24.5874
35.3816 12.0395 4.15336
4.46741 3.0101 2.63518
50.3785 23.8026 10.241
17.3821 10.7301 5.42824
5.41315 2.69218 1.9105
35.2216 15.3463 6.5847
71.7259 39.6843 21.1942
34.9185 19.9009 12.0549
12.3518 4.54979 2.72608
56.4407 35.321 21.8357
37.458 12.2736 5.6227
84.9917 34.2238 13.446
91.7385 51.925 26.524
17.4916 13.4911 10.574
45.3898 22.1804 12.8914
47.644 30.8682 19.0813
70.9701 24.8983 8.72988
47.0938 26.3907 13.751
43.1964 20.6244 11.0949
28.5355 13.74 7.06363
33.2151 14.6289 6.70223
22.1245 12.7223 9.02351
48.9837 21.2765 9.28704
29.4157 17.5213 9.78041
17.9175 10.1077 4.2535
17.4394 14.3471 9.27729
60.2818 31.6868 17.4747
15.6826 6.08918 2.67045
33.4139 19.8459 12.0562
49.9215 30.1422 18.9079
41.3919 27.0399 15.566
60.489 34.4199 20.2561
68.7662 36.6443 20.2185
11.622 7.33622 5.85607
83.0074 56.0843 36.6669
54.383 24.8922 12.6844
44.6788 23.0404 12.2731
47.2257 23.2271 12.0621
13.4968 9.92822 6.56549
43.0677 29.8369 21.3666
28.959 9.60381 4.27054
33.2483 16.2231 8.23822
60.5694 48.257 34.9144
35.9204 16.6498 8.7999
47.8386 24.321 12.3185
10.8851 4.15957 3.15085
150.577 104.508 64.1084
12.643 7.16068 8.12243
61.5602 38.4576 25.2402
34.5213 11.02 3.3417
31.0046 15.1209 7.80413
42.177 28.7756 18.3084
17.2611 12.8356 10.1913
52.9585 37.5778 24.6177
57.0765 29.9967 17.7299
75.9516 55.917 36.028
31.8814 19.3459 14.6965
34.5696 29.2152 23.6073
12.5204 6.12751 6.32016
45.6166 20.4659 11.1436
51.9461 28.2286 14.0903
41.1741 31.5108 21.794
12.5007 9.7652 8.95257
10.3877 7.04974 5.7126
27.5061 14.9529 8.9004
66.4688 46.9197 35.8296
114.845 74.3913 46.5295
12.5049 8.99498 9.21255
41.268 21.7053 12.3661
18.5308 13.0225 8.60207
20.943 10.4779 4.96085
12.6477 9.97309 8.46282
34.8856 22.9701 15.9114
43.5762 29.2935 19.3437
17.6938 10.525 7.04806
22.7428 21.2934 19.0118
58.1054 35.4221 21.3784
15.6408 12.5827 9.54842
13.0447 6.91743 3.82162
31.1751 26.7069 24.2519
20.7466 14.4447 8.67579
51.7904 43.3484 34.346
43.1769 34.9966 28.4857
28.5867 19.2789 16.5383
38.4541 24.6366 14.0231
15.3187 16.8485 17.9571
14.0316 10.0206 7.30869
8.9731 13.4667 17.8347
39.6963 28.9287 21.0725
23.5623 15.8209 12.9694
23.1711 14.6541 7.65976
24.7095 21.426 17.545
17.773 11.9825 8.49211
44.1775 39.8243 31.3847
27.9949 21.1559 13.1848
16.7916 14.6987 12.5627
37.671 33.157 27.7913
31.3388 26.5784 19.7287
30.5172 25.9416 23.3724
13.4296 8.49547 8.75078
26.046 19.7804 15.2099
36.7413 27.3128 21.628
30.4297 33.1333 30.7439
31.7462 28.8142 25.5845
53.9274 43.9198 41.9392
75.4459 42.1094 17.3184
55.846 53.7186 45.2799
36.6801 47.9095 56.3514
112.379 75.4427 45.1604
34.4897 38.5274 36.0413
34.0473 34.0625 35.427
24.2775 17.6056 13.6494
10.914 14.136 16.2508
23.1815 15.4193 13.2754
38.6511 32.246 23.5656
5.07045 10.9481 16.5805
54.9931 48.4406 48.1122
64.7676 50.1608 35.7475
17.3464 14.9347 14.7507
13.4985 13.6722 13.2523
8.37969 8.90452 8.49408
38.5993 39.3721 42.4934
35.086 28.7588 24.5483
29.5324 20.076 13.1572
11.3892 12.2766 11.8179
16.8888 18.1665 22.0411
37.7368 39.6233 39.4582
22.6898 10.2266 5.31559
41.8688 50.0059 49.2835
12.5104 3.54071 2.40333
5.08125 7.01021 15.8234
63.5721 52.7204 37.269
18.5246 27.3577 32.6395
34.6168 18.7378 9.04589
9.52416 13.6666 18.4054
31.0464 19.4576 11.5631
14.9747 18.3136 25.794
34.8216 24.1391 12.8384
18.524 19.0302 17.1683
36.1996 30.3938 23.0638
9.81504 16.6185 21.2165
48.5601 46.1115 41.0798
9.8754 11.9428 13.9096
29.4924 36.2524 34.8307
20.9653 25.7962 32.3065
10.5522 5.81718 10.1517
16.2034 8.72193 3.32752
12.1181 17.6507 23.4497
26.139 19.2819 15.7222
33.8924 32.5841 34.2604
31.8808 20.5582 12.1446
33.1454 29.0086 19.5519
30.0339 42.2863 43.6376
13.1865 14.5084 22.5953
28.36 23.2203 14.1913
20.3043 31.8679 36.5051
31.5101 20.8221 14.3101
23.7513 28.1829 26.7886
22.9523 26.7099 33.2479
60.6396 67.4791 68.787
18.1958 16.0014 13.1675
10.2164 16.5163 23.2501
24.3268 28.6364 33.9189
9.8397 10.0885 15.8212
40.1472 46.6039 52.2948
29.0293 18.9413 9.97569
22.7353 28.963 30.2422
25.1434 26.6 30.3168
30.2765 33.7214 35.4494
26.9516 29.8866 29.7567
21.2504 21.8663 20.3155
16.767 18.0599 16.729
7.09116 11.7557 16.0937
6.93011 8.12621 11.7102
24.6639 33.4385 36.5949
4.77472 9.83495 25.2469
31.818 25.9287 23.677
29.2768 29.118 29.4278
26.526 25.9404 21.9533
6.85888 8.29684 8.0408
48.5135 82.4281 109.074
60.5374 46.8265 45.1499
24.6348 19.4075 17.2051
27.8638 32.6809 35.6349
20.5234 21.5381 26.1463
13.1198 12.1249 11.7371
7.4674 6.26253 6.95911
8.01444 18.9949 40.7287
68.1427 60.0781 48.8792
11.924 18.2644 27.7688
16.2714 22.2963 28.2686
21.6731 22.9381 35.7234
38.2436 35.0915 30.7383
15.82 12.9892 13.6158
22.81 28.1752 33.9665
9.39125 6.03543 5.34027
10.1891 6.42991 5.03688
16.2393 15.8892 12.6579
6.84804 6.59681 6.32899
23.4025 26.983 24.993
23.9969 41.6341 61.7096
21.4935 14.8713 12.4974
10.8128 13.3851 14.8747
14.5048 22.2364 26.6725
18.0425 27.1795 40.821
18.1934 17.2757 20.43
10.0058 10.5242 26.8383
62.8854 64.4924 59.5208
14.2517 22.1976 33.8391
27.706 21.6929 12.1184
15.754 18.8599 19.8998
28.6006 44.2748 60.3672
18.4853 17.2984 22.3287
19.9696 21.933 23.5416
18.6312 21.0933 16.8413
43.5807 61.8862 67.1023
10.3994 21.9828 29.4307
15.6424 34.4724 64.7038
28.1458 25.1742 28.7433
15.019 18.445 17.6866
5.95233 11.4478 20.7421
3.9657 1.3867 3.16332
19.9134 29.7366 33.2285
4.57011 5.42639 10.5099
12.0745 18.1114 25.1835
23.8587 31.0485 37.1756
19.8634 22.3375 27.1314
15.5913 18.4743 20.8893
17.1825 35.5928 63.2843
16.9712 20.5579 42.1042
35.969 37.2262 40.298
21.2667 29.1943 34.2654
16.4114 21.6159 27.3323
12.7653 14.3005 16.085
15.1431 17.9335 15.6359
5.7048 14.8715 26.6931
13.3791 14.3728 15.1125
10.9583 18.3385 28.4728
10.0973 12.0308 20.6145
18.7671 19.4476 18.6385
6.15609 13.9124 26.318
17.5693 14.6278 10.9879
12.4918 21.5554 23.3054
13.9922 29.9401 44.7541
6.26614 7.37676 22.1613
32.2425 35.3267 30.8456
5.30456 22.2134 52.3386
31.5591 38.8729 46.6431
12.9926 14.4411 22.7254
13.2565 17.0998 21.7777
15.9391 23.9463 28.0748
12.1213 24.0966 37.5537
7.79918 15.1908 42.3187
38.0152 33.1798 22.9925
4.8189 7.66093 10.4836
13.5281 27.0777 40.2349
5.09627 10.2073 34.0202
26.4338 28.7136 30.9654
20.8165 27.3169 38.4537
16.472 24.6524 46.9939
37.2758 49.8427 67.1706
30.194 39.7626 52.8748
21.1634 23.5889 24.2324
15.3906 22.0393 28.5513
14.1385 20.6408 37.5479
22.8343 31.3081 39.7376
20.4963 30.4083 31.5946
4.41592 15.4941 37.0891
9.36737 15.2435 34.1936
19.4241 13.2181 8.67091
12.9224 19.5335 32.8732
28.4253 39.4581 52.3571
11.8386 17.0883 29.0136
18.2022 24.78 30.1756
8.56229 8.8812 11.5922
4.35696 6.15205 12.2757
20.454 26.8933 34.9192
13.4873 26.7865 49.2257
21.2012 23.0607 23.2668
5.86208 11.1104 18.5551
11.6684 14.4659 17.1622
15.3434 36.6698 66.9242
15.158 21.4636 39.9317
13.3667 18.0347 26.7834
14.0531 23.0026 40.4755
14.8658 19.3765 24.5023
8.82673 12.8319 16.426
3.90939 6.86093 10.0104
6.43602 10.6307 19.1371
11.051 21.2166 31.182
4.99911 5.8902 13.7847
7.21512 12.3075 23.9098
12.6049 13.8375 16.8996
11.9088 20.5251 41.8647
23.8692 34.4983 40.0629
14.779 34.4689 67.3848
15.4621 17.9226 30.6378
11.5364 9.59086 21.1401
33.7184 43.6683 32.8121
10.0827 28.9792 50.8343
11.444 33.2828 81.5278
37.8731 40.7943 42.3684
13.3584 28.2704 39.7102
8.52216 23.5022 54.432
21.5983 24.7601 29.1774
6.63118 9.99837 22.8177
15.4284 29.101 50.6305
14.3057 15.3475 34.7591
38.3521 60.1742 70.3584
16.588 25.8123 35.9098
9.58754 23.7337 52.1555
12.2903 19.6173 36.9079
30.5928 54.701 71.0887
7.54739 22.9806 51.9077
5.45318 5.88511 20.4579
10.6904 8.07599 7.49601
6.24846 13.1545 28.5542
6.06458 6.39013 11.4074
6.11648 10.4069 19.633
8.43399 20.1668 62.6542
36.5673 37.242 22.7167
6.36661 12.685 16.2468
11.9695 29.0839 54.0073
7.28481 5.99222 6.79055
1.85661 10.0606 33.2678
13.3351 17.1972 40.9985
30.6266 39.8176 40.9939
20.6858 38.2012 50.4449
5.43033 16.8335 38.2484
7.1931 11.3651 18.4912
3.9773 10.6256 21.6296
6.47264 12.1664 28.7719
5.7639 9.97863 29.5885
11.0497 14.524 20.562
12.9102 20.0392 41.7885
35.5567 63.4594 90.3827
9.03566 15.3688 30.3147
9.40635 18.5029 30.9574
8.25901 16.5671 40.6351
11.8753 15.7341 16.0362
6.15524 10.931 19.5855
14.4483 32.2893 51.5831
4.39 9.98188 28.9488
9.17827 21.3454 56.0651
13.0621 12.6954 22.0199
12.7885 21.378 31.0371
14.6173 26.3288 37.1529
5.38216 10.8196 27.4662
9.69737 17.7795 30.9712
11.4497 27.7096 49.6459
6.85352 4.35241 2.23461
2.8138 3.9519 3.11545
16.4232 52.49 116.613
14.9645 21.2723 59.9835
23.7702 30.4837 34.3779
8.19743 16.487 31.4393
7.17339 12.7366 24.5999
8.47786 12.8031 19.7312
14.7356 39.8384 75.7959
9.95872 11.0815 18.5586
9.49119 26.7529 74.6544
23.1883 30.1381 33.263
7.98618 20.3953 52.7391
12.977 15.9053 12.9843
3.52474 4.46655 6.76487
10.7704 23.9265 41.7942
16.6751 46.1814 82.339
7.48987 8.70431 22.2961
5.23421 5.83992 20.3786
15.5979 32.6215 70.1818
15.6842 12.1476 7.18243
25.1954 51.0547 54.2641
9.31919 49.1308 121.56
24.8415 57.6262 150.592
26.6639 25.1648 25.0409
8.71076 15.658 32.5965
12.64 25.7096 43.7454
8.87679 13.3191 31.2428
20.0626 53.4967 103.242
9.07225 11.1893 37.2999
14.0686 16.1381 18.9285
10.3569 20.149 34.8018
10.8238 22.1962 35.2888
8.73966 28.2938 82.5458
26.3918 43.0979 49.975
4.21996 11.0996 25.5072
4.62922 7.31336 10.9526
2.62871 14.209 44.0238
6.34357 19.3817 72.0913
25.8012 35.0586 46.575
5.06302 3.88893 11.1953
12.7133 31.3871 60.9804
15.6182 24.9886 42.1066
6.81157 10.1268 17.2689
8.81542 23.5333 50.7543
9.23997 16.0397 35.2829
9.18534 19.8287 32.9449
5.17476 10.7454 30.1898
11.4385 20.4825 34.9311
5.6758 13.7704 27.5765
5.93979 17.3155 65.6697
28.8272 50.3668 67.7888
1.52439 1.45193 10.7668
5.03691 11.1744 35.1995
12.1823 17.0614 29.8462
13.0455 21.5106 31.7795
5.73132 15.578 34.1657
4.26029 11.4979 47.5351
15.6597 23.9995 24.6431
2.45247 7.98434 24.2852
8.59723 20.718 37.6951
6.53502 18.0937 48.2596
6.23255 8.83266 50.6079
30.9299 48.9773 58.1688
8.8756 20.4058 41.1402
7.60695 13.4266 22.2458
10.6865 33.4092 77.2663
7.58036 12.9989 34.4987
15.3108 30.7107 57.6151
19.0103 51.3224 123.839
14.5389 17.8697 21.3748
3.11203 9.46807 15.9481
1.41368 15.2265 82.2273
23.7245 34.2169 46.2621
12.4949 29.7583 51.5277
10.1543 24.05 44.4864
4.07861 9.26447 24.0719
7.73527 18.9984 62.8429
13.8864 20.4385 14.3461
4.11604 22.5769 74.8886
15.4448 27.0013 35.2818
2.67691 5.99873 21.2074
11.2902 34.5038 85.7628
8.69007 7.99682 19.7844
11.5117 28.9816 43.1015
3.14675 12.8359 45.5017
10.031 14.2859 24.5082
4.78526 6.14037 11.1148
8.27105 24.8212 71.2621
11.351 17.1534 17.0236
4.28967 10.981 17.8991
3.96545 19.7139 55.3497
11.4201 22.6504 53.3652
11.0368 19.9468 39.3741
12.05 28.257 57.7784
3.98851 11.374 38.9812
8.86836 14.006 51.502
22.2731 55.8034 88.1845
7.56872 14.2389 48.0663
14.2663 25.7663 45.8004
11.5268 27.721 53.6798
9.93608 31.8918 76.3935
6.75756 8.12456 28.2398
6.42409 9.92988 22.4573
7.09148 17.355 48.2354
8.6982 21.4934 49.906
9.67188 18.6039 30.4194
5.46692 16.1743 30.9684
3.7364 8.7606 29.3324
7.59469 15.3904 30.9071
3.90517 9.51866 35.8905
5.99052 12.7101 30.2023
5.82579 6.80605 10.1991
7.49682 15.5707 18.5326
10.7702 42.4588 81.9275
5.42548 12.4047 35.6146
6.1247 17.0017 50.2967
4.66268 5.4969 7.13759
1.17757 6.55898 23.486
6.58656 22.3091 46.984
2.40193 3.39732 29.3275
14.8971 33.5193 65.1972
3.52669 6.35857 21.6624
3.00211 14.7475 70.0061
17.2832 41.5481 84.7847
9.55664 12.0939 32.5279
10.5697 19.4089 43.615
9.85999 27.1716 63.0588
11.8814 26.5608 48.6872
4.22015 7.95379 13.7726
4.09095 24.7328 77.9061
13.0296 24.7807 51.3384
5.26681 5.70494 23.3429
6.17686 11.9619 34.8475
11.8084 26.0987 57.7843
7.52512 17.9251 51.516
9.49566 17.1281 30.7627
8.54199 23.3254 35.0367
3.32711 8.96917 21.8196
6.32126 24.0834 59.4334
3.136 4.26151 32.9519
11.0969 18.3852 26.8906
3.09002 6.12607 19.4394
