# pn-170911/RbIIR-51-AMC2-1280-1959.psd
# Power spectrum* (dif=0,1,2) (really just |FT|^2)
# NOTE: only the first half! (symmetric)
# weeks: 1280-1959
# 499 clock-days, 45 excluded
# PSD: 1441
337.555 0.104518 0.0353812
15013.9 0.368235 0.0750908
61756.1 1.23497 0.0788684
16195.6 0.672081 0.0823496
39308.7 2.98771 0.0784836
5581.97 0.629606 0.0754471
4717.49 0.779567 0.0793254
3376.51 0.750085 0.0737662
3343.71 0.983132 0.0723222
2231.12 0.789854 0.0804911
2100.87 0.967953 0.0776563
1814.17 0.97263 0.0695521
1504.17 0.988422 0.0740866
1457.6 1.1075 0.0808482
1350.33 1.20286 0.0838918
1273.34 1.32528 0.0702199
1164 1.31427 0.0732561
1153.26 1.54066 0.0774781
1252.21 1.91617 0.0729485
1142.46 1.86885 0.0778465
1110.84 2.09347 0.0895042
1171.02 2.37858 0.0845452
1038.26 2.29619 0.0802546
1050.91 2.64625 0.0802768
1208.98 3.19661 0.0873119
1046.09 3.02501 0.0743529
1036.89 3.35843 0.0847975
1098.45 3.76995 0.0902254
1142.06 4.14463 0.0956245
1098.18 4.29635 0.0883092
1153.79 4.8344 0.101272
1069.56 4.72995 0.0939041
1071.22 5.18821 0.100287
1079.53 5.42941 0.104445
1100.63 6.09017 0.105037
1039.73 6.08762 0.0984145
1055.31 6.43498 0.113724
993.726 6.37373 0.116824
995.829 6.76055 0.114886
1060.27 7.57831 0.140137
1080.4 7.98947 0.1347
1060.68 8.45458 0.140745
1037.38 8.77235 0.136349
1098.61 9.48057 0.163632
1009.4 9.22879 0.164319
1086.34 10.3233 0.167887
1011.07 10.0674 0.164018
1014.99 10.513 0.185819
960.336 10.4315 0.18479
1011.56 11.4544 0.20472
939.075 11.2736 0.195155
1010.95 12.4833 0.230729
1042.82 13.3368 0.242695
971.228 12.9457 0.250985
882.975 12.206 0.25127
912.117 12.9377 0.264839
971.262 14.3151 0.284264
890.132 13.6473 0.268781
894.144 14.5111 0.307907
904.181 14.8186 0.304809
852.851 14.3464 0.322225
864.323 15.083 0.336675
812.55 14.7031 0.339979
884.301 16.6201 0.392283
790.511 15.2351 0.344012
839.586 16.6826 0.39468
832.802 16.9454 0.423992
776.878 16.3964 0.424245
797.398 17.1759 0.456166
709.43 15.9024 0.438747
766.459 17.5664 0.490726
726.518 17.446 0.477328
674.434 16.4203 0.485668
702.413 17.7818 0.529598
702.415 18.1959 0.549802
630.437 16.6772 0.529206
695.129 18.9566 0.574786
675.541 19.1528 0.606647
672.06 19.3967 0.609909
666.014 19.8061 0.637321
708.145 21.4102 0.705304
626.351 19.7056 0.688824
582.15 18.5661 0.648236
600.026 19.2491 0.664548
573.88 18.9024 0.682944
561.519 19.1083 0.702243
583.156 20.2071 0.769343
580.641 20.802 0.806718
507.775 18.7803 0.74887
539.417 20.0528 0.821332
544.449 20.7292 0.872834
456.696 17.7826 0.773712
473.309 19.1541 0.800646
494.346 20.0724 0.870347
470.208 19.3071 0.86308
461.722 19.6382 0.917398
495.318 21.5298 1.00549
492.845 21.8734 1.01309
444.257 19.9818 0.960416
445.46 20.5897 0.998223
444.476 20.9052 1.01435
415.811 19.9182 1.01782
412.308 20.3191 1.04178
404.666 20.1837 1.0709
377.525 19.3149 1.02677
420.056 21.8109 1.1872
416.632 21.9575 1.22953
378.805 20.4618 1.14361
382.804 21.1977 1.23642
356.125 19.7846 1.16844
361.383 20.9265 1.25451
360.687 21.198 1.28039
325.806 19.0315 1.20226
336.821 20.0144 1.24557
340.143 20.8011 1.29406
344.463 21.3078 1.33376
318.671 20.2749 1.34237
310.21 19.9405 1.31085
301.635 19.6815 1.32515
299.042 20.292 1.40904
302.901 20.3359 1.39663
304.449 20.9007 1.48436
289.157 20.2234 1.45208
281.753 20.3417 1.53544
266.125 19.263 1.45838
291.237 21.4404 1.61106
254.597 18.8869 1.44689
263.175 19.8994 1.55973
273.304 20.9476 1.64394
285.297 22.1021 1.76114
251.786 20.2122 1.63537
256.984 20.7344 1.68818
245.439 20.176 1.68582
242.025 19.915 1.71647
237.323 20.1034 1.72049
248.285 21.3788 1.86944
207.088 17.9274 1.59803
226.562 19.9355 1.81413
229.512 20.5524 1.87456
216.319 19.6266 1.84303
215.767 19.871 1.84566
201.854 18.8693 1.80234
206.254 19.4698 1.83131
199.023 19.0874 1.85743
205.271 19.9259 1.95866
183.62 18.2564 1.85954
192.51 19.0715 1.92546
207.94 21.102 2.18236
189.948 19.4099 2.03968
186.624 19.4591 2.04147
193.081 20.3458 2.20507
189.198 19.979 2.14954
168.136 18.1488 1.96192
166.393 18.0344 2.03096
183.12 20.4117 2.3172
174.883 19.6759 2.25039
160.952 18.2834 2.15367
157.5 18.0606 2.12642
176.606 20.5518 2.41476
159.964 18.5407 2.17414
155.723 18.7761 2.25541
166.14 19.9921 2.45435
150.907 18.6092 2.31599
143 17.945 2.25337
153.617 19.3969 2.55771
157.101 19.9352 2.59674
142.114 17.8719 2.33358
137.435 17.8162 2.37982
140.287 18.4619 2.47358
147.039 19.5331 2.59587
130.275 17.4173 2.39139
134.307 18.5183 2.5863
125.298 17.6658 2.47326
129.372 18.1534 2.58347
136.502 18.9395 2.69495
142.736 20.093 2.86217
132.556 19.2068 2.7918
134.526 19.381 2.87014
124.974 18.74 2.80423
111.09 16.5716 2.57315
128.259 19.2903 2.9777
127.518 19.0251 2.8578
110.708 17.0229 2.63757
121.082 18.9161 3.01113
120.704 18.8283 3.09855
111.573 18.0285 2.93683
121.376 19.4553 3.16828
103.082 17.0307 2.8228
115.372 19.149 3.23683
113.285 18.9143 3.11712
116.338 19.6277 3.31138
110.667 18.4914 3.0991
117.24 20.3349 3.53638
106.19 18.6032 3.30184
110.274 19.0884 3.359
100.195 17.5011 3.12417
112.273 20.0036 3.54236
103.052 18.6515 3.42601
94.5778 17.5982 3.23316
100.636 18.3442 3.40517
101.416 18.9781 3.55747
109.071 20.6619 3.9684
96.1556 18.2182 3.48384
97.6096 18.559 3.5771
101.102 19.4244 3.76391
91.0028 17.6307 3.49273
98.0004 19.3559 3.86637
91.2679 18.237 3.64403
93.124 18.5199 3.71856
93.4946 18.788 3.79338
93.5049 19.1743 3.94637
94.7052 19.6384 4.13194
87.9633 18.4262 3.91034
90.0128 19.1067 4.10038
93.1782 19.8965 4.26735
94.3979 20.5704 4.4668
95.2803 20.3697 4.38054
83.5682 18.3893 4.04974
83.0302 18.4033 4.0838
85.6545 19.007 4.28287
88.9221 19.8139 4.38936
89.8571 20.4529 4.6873
89.6084 20.5179 4.70373
85.1316 19.4199 4.40197
81.8778 19.062 4.4331
74.4323 17.5386 4.13981
83.3975 19.3999 4.58019
78.942 18.8282 4.60515
82.3024 19.5549 4.69423
78.6725 18.6215 4.5034
87.5329 21.6924 5.25082
75.7097 18.7955 4.69548
78.5288 19.406 4.76094
80.0379 20.3798 5.12257
81.7999 20.5977 5.29243
77.035 19.6067 5.03968
77.6116 19.9594 5.12418
73.7854 19.0085 4.93947
70.9625 18.7075 4.98907
81.102 21.8389 5.81361
78.1259 20.3636 5.36254
69.0466 18.7622 5.11249
72.7532 19.7043 5.42879
79.7082 21.8238 5.95599
70.0262 18.937 5.19702
71.9127 19.8849 5.56424
66.8176 18.3928 5.23197
73.6844 20.5162 5.75947
70.6181 20.454 5.95871
70.022 19.5701 5.47877
71.2071 20.7037 6.04616
65.0671 18.836 5.43986
62.7702 18.3183 5.40309
69.4684 20.5963 6.17073
69.3542 20.3793 6.01912
67.4239 20.2344 6.14795
61.3046 18.6679 5.63745
66.9218 20.4986 6.30167
65.326 19.8445 6.07167
65.3163 20.0974 6.2815
63.8421 19.4263 5.95493
61.0884 18.8542 5.84987
62.1072 19.5677 6.22148
63.7477 20.1446 6.52552
58.7959 18.7257 6.07878
59.23 19.1387 6.29863
61.5333 19.8679 6.51561
59.6933 19.4444 6.43811
60.167 19.7581 6.63597
64.6409 21.1704 6.97649
59.2566 20.0018 6.79912
57.4115 19.848 6.79128
59.3359 20.3157 7.11534
60.8587 20.8117 7.12602
62.5001 21.0726 7.23274
54.8337 19.2929 6.84883
55.498 19.4361 6.91226
60.5801 20.8846 7.3129
58.9138 21.1892 7.71608
57.1063 19.751 7.0106
55.8286 19.9883 7.16829
58.7089 21.2331 7.7155
55.5743 20.7427 7.85737
57.2595 20.8888 7.61534
56.2248 20.1991 7.48998
55.2538 20.8844 7.89515
55.0747 20.369 7.69401
55.7955 21.1421 7.89571
56.384 21.2911 8.08609
52.8549 20.6308 7.98395
57.289 21.8809 8.36855
53.6039 20.7807 8.07444
52.5248 20.2117 7.90018
53.8901 21.2549 8.40478
51.774 20.1666 7.95976
49.1799 19.6972 7.99546
51.5472 20.4652 8.17974
51.5707 20.7366 8.39717
49.3652 19.8527 8.21987
53.377 22.2584 9.21844
56.0249 22.9004 9.29678
48.8704 20.3331 8.5937
50.0881 20.663 8.6875
48.9157 20.1534 8.45039
52.1872 21.9806 9.2421
47.8568 20.0761 8.56934
47.3074 20.319 8.93354
47.9067 20.1015 8.56267
50.89 21.954 9.42957
46.3307 20.1717 8.90399
52.3098 22.8905 9.82032
46.1951 20.2998 9.03372
47.3028 20.9135 9.34128
47.9134 21.3804 9.76236
41.8048 18.7014 8.26088
44.3232 20.0687 8.96107
44.1259 19.9762 9.22703
45.769 20.836 9.55758
49.405 22.8907 10.6045
44.7727 20.4826 9.64516
47.889 22.3205 10.3778
47.2718 21.9654 10.3091
47.7721 22.5194 10.6619
43.8366 20.1773 9.59952
44.5989 21.4643 10.3753
45.2837 21.6678 10.2816
42.7213 20.4894 9.96396
45.4992 21.7043 10.502
44.0679 22.0905 10.8852
40.9063 20.351 10.2755
42.5528 20.7607 10.4332
44.3376 21.7912 10.6967
44.386 22.1992 11.0867
41.7214 20.8984 10.5892
42.2601 21.5003 11.0864
42.0485 21.2265 10.9229
42.9077 21.5874 10.9991
41.1687 20.9883 10.9844
41.6525 21.2525 10.9096
40.5102 20.7686 10.8378
40.5047 21.0671 11.0562
41.0483 21.2766 11.1177
40.5377 21.4904 11.4872
42.9298 22.6779 12.1526
39.5897 21.0689 11.3529
42.7686 23.4358 13.0574
43.0061 23.1104 12.4929
38.0531 20.228 10.8833
38.2991 20.8051 11.3259
41.1684 22.7544 12.6197
40.9675 22.6738 12.668
41.3707 22.4028 12.3125
38.5998 22.0972 12.6271
38.0148 20.8756 11.6957
36.9843 20.8866 12.1434
40.9905 22.9447 13.0904
41.6712 23.3188 13.0457
40.4559 23.9414 14.0674
40.6497 23.4668 13.4818
37.6482 21.3972 12.5377
37.269 21.3127 12.5559
37.1623 21.5636 12.5386
35.6987 21.159 12.6554
38.0611 22.6953 13.462
41.4059 24.708 14.7527
35.6168 21.5405 13.2404
37.2786 21.8735 13.1549
38.5834 23.2836 14.0728
36.3438 21.6614 13.1562
37.4915 23.0744 14.0395
36.2901 22.1059 13.7528
37.4845 22.8991 14.1594
37.9095 24.1428 15.2662
38.0275 23.5399 14.5885
36.6796 22.6739 14.0581
33.5512 21.6071 13.8142
36.3826 23.0703 14.6395
34.1633 21.8102 13.9029
33.3778 21.2311 13.8112
35.3645 22.6766 14.5287
33.9282 21.9089 14.0977
34.5315 22.7138 15.1056
33.8539 21.3764 13.8817
34.3744 22.0201 14.3615
36.0315 23.6394 15.3225
34.3066 23.0465 15.5927
34.1686 22.7373 15.4742
33.5092 22.6742 15.4869
34.0313 22.7614 15.2285
33.6846 22.8527 15.7787
36.4614 24.3609 16.387
33.3891 23.0906 16.0863
33.1809 21.9278 14.6523
31.2082 21.8852 15.3501
32.6067 22.6011 15.8574
30.4721 20.9216 14.663
31.8734 22.2959 15.8122
35.326 24.4414 16.7819
28.1733 19.9815 14.4779
33.0352 23.33 16.6757
32.4149 22.6748 16.208
31.6052 21.789 15.3054
31.4566 22.6703 16.4199
32.0109 22.4419 15.943
31.4889 23.2881 17.1253
28.6189 21.0842 15.9557
32.2131 23.1428 17.3232
32.6926 23.2354 16.5018
30.778 22.4996 16.6705
30.4695 22.3666 16.7628
30.5045 22.777 17.2568
30.7614 22.6727 17.2183
28.9008 21.1024 15.7167
31.6341 24.4435 18.6129
30.0228 22.5075 17.0133
29.587 22.3327 17.1036
28.4402 21.3248 16.2528
27.7684 21.2434 16.4152
30.419 22.9356 17.2718
28.3507 22.2464 17.7462
27.831 21.6843 16.9436
29.6109 23.2045 18.2575
29.2011 22.6732 18.2356
30.0885 23.105 17.9289
29.3076 23.6769 19.1523
29.4761 22.324 17.1752
28.2986 23.0918 18.6464
29.0843 23.3633 18.6854
29.059 23.5247 19.1183
28.5437 23.3119 19.4503
29.1671 22.8918 18.4095
28.5895 23.4952 19.2994
28.713 23.9865 19.9513
30.643 24.3878 19.6083
26.6911 22.1267 18.4767
26.3726 21.3931 17.8505
28.4841 23.819 19.9325
26.3465 22.0082 18.3849
27.7176 23.6939 20.5461
26.5289 21.2763 17.7065
25.7446 21.908 19.1058
27.8285 23.6685 20.23
26.6572 22.4126 18.9822
26.0444 22.4546 19.5895
29.4488 25.2771 21.3455
25.6974 22.0099 19.3353
25.7674 22.2471 19.3881
26.8961 23.5404 20.5942
26.2133 22.7524 20.0314
25.4412 22.8283 20.7502
26.3694 23.1632 20.457
26.3149 23.3552 20.8912
24.4932 21.7358 19.7639
25.264 22.1941 20.2535
25.3642 22.4806 20.4155
24.5788 21.9409 19.9431
25.4916 22.5439 20.4235
27.2479 24.3564 21.8805
24.5049 21.7956 19.7385
24.25 22.6234 21.2833
24.6786 22.0532 20.4757
24.1238 22.0773 20.4925
23.1765 21.1952 19.5911
23.546 22.0365 21.0783
25.0531 22.5665 20.4655
24.4246 23.1165 21.5263
22.4702 21.5039 20.6444
21.443 20.2165 19.7084
21.5419 20.0298 19.5572
23.4581 21.4531 20.1301
21.665 20.7822 20.1035
24.6638 23.2371 21.7777
22.7264 22.2288 21.7552
22.2795 21.3139 20.7261
21.8393 21.4237 21.2898
21.1664 20.3566 20.4027
22.8535 21.7227 20.6532
22.1622 22.1221 22.2674
22.4968 21.8362 21.6864
22.9158 23.0669 23.4753
24.0552 23.0185 22.7095
22.7073 22.8294 23.2689
21.6522 20.8397 20.8636
21.1147 20.4805 20.3271
22.7372 22.5442 22.4153
20.4511 20.4183 21.2372
22.6567 22.4115 22.4755
20.9896 21.3636 21.9888
21.3788 22.1649 23.2689
23.3047 23.2624 23.4843
21.5029 21.8039 22.4304
20.2036 21.3248 22.8279
22.1781 22.6089 23.1421
21.8697 22.5132 23.424
19.93 21.4584 23.923
21.99 21.8945 22.4309
22.0641 23.5825 25.2261
21.0034 22.0341 23.5918
19.5111 20.5389 22.3877
20.4715 21.695 23.2194
20.7043 21.6745 23.1161
20.6567 21.812 23.1994
21.5233 23.2575 25.4893
19.8824 21.0316 22.8219
21.0122 22.7305 24.7928
20.3884 22.2394 24.6021
20.508 21.4979 23.5038
20.2558 21.921 23.7821
19.2648 21.4362 24.2176
21.5118 23.7505 26.4307
22.2488 24.1334 25.619
19.056 21.4982 25.1273
20.9444 22.661 24.9687
19.4586 21.2449 23.7863
18.7246 20.7251 22.9107
17.5763 19.8319 23.2955
19.353 21.6091 24.7802
19.9246 22.5795 25.5247
19.4365 21.8847 24.711
19.0039 21.7627 25.1913
17.4468 20.6812 24.718
19.244 21.1436 24.3244
19.7687 23.3959 26.974
18.9778 22.1976 26.5012
20.6581 23.5494 26.6239
18.2127 21.0913 24.9218
19.0575 21.8694 25.8213
19.8352 23.2522 27.2578
17.5368 21.1957 26.2236
20.4706 23.1062 26.4011
18.2947 21.5278 25.3222
18.147 21.9323 26.1142
17.4517 20.8829 25.8352
18.3799 21.6149 25.6791
17.7589 21.3998 26.279
19.044 23.1553 28.2355
17.5005 20.1786 23.781
16.4704 20.1672 24.6679
18.3729 22.863 28.2283
18.0261 22.0747 27.3395
18.0818 22.4965 27.6854
18.3017 22.8608 28.9077
17.6055 21.0314 26.5168
18.2259 21.8735 27.0141
18.0027 21.9416 26.8468
17.4384 21.5361 26.9108
16.1144 20.0038 25.1595
17.1916 21.961 28.6057
18.5387 22.7717 28.3153
17.6428 22.1363 28.4795
17.7726 22.0662 27.4259
16.4969 21.4917 28.2034
16.8205 21.262 27.5597
17.2508 21.388 27.2582
17.3367 22.4834 29.2857
16.5127 20.6483 26.7254
17.3681 22.6028 29.3673
17.0713 21.0497 26.7511
16.895 22.0025 28.966
17.5402 22.221 27.7171
14.7657 19.5615 26.7385
16.9011 22.1772 29.7228
16.8291 21.6056 27.836
15.4722 20.5917 27.853
15.4989 20.0756 26.5432
15.5403 20.3952 27.5135
15.6096 20.8516 28.2791
15.9627 20.5043 26.5149
15.0299 20.2508 26.7689
15.0868 21.0457 29.8462
16.1436 21.2303 28.7563
15.7019 20.8301 28.3527
16.0559 21.4338 29.6681
16.1045 21.1798 28.2446
15.6318 21.3959 29.4384
16.4549 22.6597 32.0566
17.617 23.279 31.4487
15.8816 21.2471 28.8305
14.6219 20.4269 28.7241
14.3007 19.6705 28.4066
14.8635 19.5353 27.3179
16.1585 22.1068 29.8733
15.0774 20.883 29.4337
14.949 21.2568 29.7935
14.7512 20.6843 30.0344
15.0627 21.0599 30.0412
14.6346 20.29 28.8105
14.9211 20.9467 29.5718
14.3411 20.3941 29.6401
15.2505 21.5552 30.5428
14.5652 19.9577 28.5597
14.4222 20.8915 30.0089
13.3855 18.0313 26.0331
14.6508 21.5731 31.4868
15.0871 22.0792 32.4243
14.5863 20.4899 29.7259
14.5808 21.8126 32.5774
14.4227 20.2319 29.7018
14.052 20.1321 30.0715
14.9544 20.9898 30.0322
14.9179 21.8483 31.3792
13.9999 21.3939 32.0036
13.9374 21.0889 32.4771
14.274 20.9896 32.0903
13.3243 18.6416 27.423
14.1877 21.2814 32.2291
13.754 20.1027 30.8006
13.8877 20.125 29.798
13.2167 20.3903 31.4757
12.8054 18.9286 29.5186
13.6393 20.3941 31.8229
14.156 21.1827 32.1998
13.7618 20.044 30.4358
14.6241 22.357 33.4663
13.5557 20.3631 31.5905
13.7965 21.3619 33.3336
12.8985 18.1545 27.5572
13.9572 21.5961 32.8431
12.4733 18.7048 28.9193
12.0287 18.5931 29.0117
12.2648 19.4785 31.6826
12.7625 18.8478 29.4742
13.0535 19.5635 29.6834
12.7858 20.2586 32.2871
12.7631 19.6957 30.9031
13.2904 21.113 33.4676
12.8836 20.4057 32.4377
12.5962 19.157 29.8135
11.6972 18.648 30.9065
12.9999 19.8734 31.4965
12.6183 20.2065 32.7438
12.7603 20.1211 32.5877
13.2355 21.195 34.5061
12.5548 18.9771 30.1077
12.3511 20.0456 32.2301
11.6856 18.9853 32.4107
12.7447 20.2771 33.0279
12.0803 18.5712 30.2578
12.0339 19.4454 31.4294
11.3318 18.4756 30.7911
12.0072 19.7114 31.5519
12.0147 20.4132 34.5971
11.5209 18.6239 31.5745
12.2699 19.6004 31.8809
11.4125 18.6706 31.983
11.8561 18.9462 31.6694
11.8181 19.4899 32.3085
11.3191 18.6996 31.6525
12.0395 20.6443 35.2689
11.3399 18.2029 31.4015
12.732 20.902 35.4125
12.8909 21.3686 35.1863
11.231 19.0887 33.5352
11.9315 19.9452 33.4205
11.651 19.4489 34.574
13.8139 22.6329 37.4197
11.8994 19.3994 32.2453
11.2898 19.8068 35.4226
12.4648 21.2698 36.5224
11.0568 17.9469 31.248
11.4314 19.4953 34.3406
12.5034 21.2136 36.7347
12.3777 20.662 34.5611
11.1233 19.7549 34.5566
10.4943 18.3598 32.9427
11.0618 19.2128 34.236
11.6791 19.6974 33.4832
10.4414 18.4634 34.1505
11.449 19.639 34.6302
10.8379 19.0459 34.3915
11.0963 20.0509 37.4515
11.3564 18.3686 32.7774
11.7404 20.5899 36.3833
11.8841 20.6665 35.722
10.7483 18.9275 33.6105
10.3469 18.0503 32.3569
10.487 19.0574 34.2887
10.6711 18.5542 32.941
10.6237 19.3657 34.9441
10.7092 19.2512 35.0011
10.1767 17.8786 32.7605
9.85726 18.129 34.3498
10.7456 19.0445 35.3341
10.7887 19.051 34.2934
11.0061 20.2974 37.0525
10.6322 19.2715 35.5556
10.305 18.7292 35.5431
10.8841 19.3214 35.5233
10.5244 19.2195 35.6774
10.2773 18.8018 35.0678
10.5754 19.8096 37.7649
10.0119 16.9344 31.2729
10.2616 18.8596 33.6959
10.3323 19.7711 37.1479
10.2526 19.2651 36.5965
9.98279 18.3157 34.9152
10.1286 18.0694 33.0257
9.72588 19.3505 38.0841
10.3794 19.3169 36.8119
9.86039 18.5698 37.2036
10.4832 19.0949 34.8916
9.90935 18.8427 36.2131
9.81508 18.238 34.5601
9.60595 18.1837 34.6855
9.51341 18.4296 36.8343
9.90155 18.2472 34.824
9.68733 17.8202 34.5978
10.0629 19.4375 37.1341
10.0543 19.2917 36.6132
9.91721 19.3718 37.6605
9.66043 18.7275 36.9812
9.59381 18.7503 37.7865
9.44371 16.9747 33.1884
9.53859 18.2017 35.1782
9.26892 18.1296 35.8305
9.67829 18.1183 35.5395
9.89323 19.5508 38.5819
9.13062 16.463 31.098
8.24468 17.0921 35.5279
9.11096 18.3135 38.3146
9.72029 18.1473 34.3479
9.12137 18.8508 36.8727
8.52523 16.6572 34.5313
8.70766 16.7874 34.2155
9.11163 18.1028 36.1091
8.74661 17.6209 37.2983
9.92433 18.3989 34.8796
8.84182 18.8038 38.5588
8.85722 17.545 36.1466
8.47036 17.2826 37.3026
9.59751 18.5239 36.5288
9.33844 18.8126 37.2385
8.70513 17.5025 35.517
8.81413 18.3348 38.7081
8.89785 17.5116 36.1811
8.9394 18.0941 38.0479
8.75002 17.4117 36.6875
9.32727 19.2484 39.0097
8.8385 18.3077 39.1328
8.7739 16.7486 33.4684
8.5397 17.3569 36.5035
8.32866 16.6022 35.8831
9.14055 18.4898 36.8802
7.9936 16.7156 35.8196
8.70966 18.0575 37.5766
8.89576 18.3686 37.6705
7.78787 15.5601 33.5614
8.22522 17.433 37.3085
8.65727 17.7248 36.9352
8.4878 18.2605 39.3807
8.43424 16.9964 36.0779
8.41181 17.518 36.6275
8.23298 17.1754 37.1993
8.57574 17.6729 36.6413
7.7439 16.1378 35.4251
8.45378 18.2122 39.5611
8.76433 18.1463 37.7379
7.90665 16.9211 36.1955
7.57533 16.4576 38.3111
8.04991 15.8408 33.5596
8.05915 17.1431 36.3195
8.06647 17.671 39.5195
8.48273 18.1041 39.4894
8.43025 17.2938 37.3463
8.0817 17.5308 38.7703
7.87409 16.9383 37.6622
7.907 16.4753 35.4493
7.29449 16.1651 38.5416
8.14783 17.1682 37.692
7.79686 16.5669 36.9021
7.89802 17.1592 37.8004
8.09366 17.2151 36.762
7.38846 15.9539 35.5631
7.01766 15.0431 33.2048
7.40952 16.7574 38.0556
7.95646 16.9442 36.3936
7.69219 17.1373 36.4202
7.21565 16.3132 37.0799
7.12906 15.5481 35.7126
7.69203 17.1247 38.3608
7.12237 15.8054 37.5334
8.08189 17.8006 39.4012
7.6297 16.8236 38.0079
7.63272 17.0592 38.0566
7.79041 17.1936 38.0696
7.06299 15.9143 37.0941
7.0972 15.7281 36.5921
7.30217 16.766 39.8811
7.86289 16.9241 37.2416
6.79065 15.4338 38.0138
7.8241 16.8374 37.4298
7.43744 16.2529 35.7012
7.11351 15.959 35.6403
6.54505 16.1124 38.4837
7.5252 17.1174 39.6601
7.27421 16.1072 36.5641
6.99218 16.1765 38.7455
7.0397 15.2856 35.6615
6.51812 15.1165 36.0434
6.69206 15.2896 37.0951
7.26637 16.0769 38.1999
7.85656 18.2016 41.8511
7.57571 17.1289 39.3832
7.43006 16.4889 37.8799
6.67626 15.7045 39.1501
7.11019 15.4923 35.5382
6.49603 14.6252 34.0937
6.8541 16.8147 39.8562
6.8612 15.8283 39.4371
7.36586 16.2686 37.5694
6.98979 16.0188 38.2344
7.17086 16.7409 39.6486
6.86753 15.9188 37.7052
6.69587 15.3076 37.0547
6.87568 16.5319 40.4609
7.07889 16.031 37.1012
6.75636 16.4282 40.9765
6.99795 15.2658 36.1188
6.72235 15.4929 35.9121
6.35086 16.0019 38.8609
6.43593 15.0294 38.1269
6.69937 16.0277 38.6897
6.05894 14.6684 38.1633
6.94995 16.9557 42.3429
7.12273 16.4253 40.5588
7.34939 17.094 39.8604
6.72912 16.0614 41.2588
7.16799 16.7459 39.6293
6.75217 15.9393 39.268
6.61335 15.3701 37.4722
