# pn-170911/RbIIA-av-WTZR-1280-1959.psd
# Power spectrum* (dif=0,1,2) (really just |FT|^2)
# NOTE: only the first half! (symmetric)
# weeks: 1280-1959
# 35 clock-days, 10 excluded
# PSD: 1441
19330.6 0.728007 0.0116525
402069 10.7156 0.00382214
2.37099e+06 42.5782 0.0046887
181676 5.34065 0.00397828
139460 6.34788 0.00385214
65231.3 6.54728 0.00477635
34081.9 4.39496 0.00380865
37280.3 5.95517 0.00487189
40411.2 5.71451 0.00473951
26832.7 5.73453 0.00561974
20103.5 6.20797 0.00484008
16360.1 5.09191 0.0068893
15687.1 4.64763 0.00739505
9766.72 3.67408 0.00764833
10083.7 4.48477 0.0063042
9371.14 3.68399 0.00664846
7462.14 5.47181 0.0100893
4731.93 2.78552 0.0078997
6765.88 4.43697 0.0100687
7339.94 4.6976 0.00949553
5084.93 3.52613 0.0110211
4658.52 3.7243 0.0110105
4445.21 6.22773 0.0186173
3872.49 3.95701 0.0120263
3473.39 3.6789 0.0144779
4075.98 5.41466 0.0189665
3104.03 3.83372 0.0164942
2995.34 5.25565 0.0219608
2374.48 3.64944 0.0202431
1890.73 3.88501 0.0184894
2206.91 3.775 0.0183128
2604.4 5.39351 0.0324498
1313.07 4.33997 0.0211244
1982.41 5.28965 0.0345068
1754.46 4.43669 0.0276783
2393.33 6.84905 0.0442557
1508.39 6.13398 0.0459738
1980.22 5.16081 0.0364277
1152.06 2.71794 0.0221114
1039.87 3.92876 0.0291905
1146.66 4.12215 0.0421808
1059.13 3.84788 0.0408334
1234.56 4.32624 0.0354513
1098.93 4.75153 0.0440562
1278.47 6.22987 0.0571638
829.538 4.11778 0.0454935
1217.34 4.87539 0.0530817
884.212 4.57344 0.0451002
886.976 4.26422 0.0532123
948.083 4.82922 0.05579
875.287 4.4134 0.0539054
985.293 5.51177 0.0709949
709.266 4.06118 0.0548485
750.013 4.16431 0.0570683
964.649 5.80073 0.076482
758.199 4.93034 0.0745789
772.355 4.48431 0.0662111
752.955 5.28688 0.0882502
576.201 3.68383 0.0622228
482.603 4.00133 0.0732647
640.346 4.30514 0.0699747
611.238 4.03068 0.0786375
425.528 3.81606 0.0756375
476.88 3.98092 0.0784175
439.505 3.80721 0.08338
414.727 2.73866 0.0591076
480.924 4.0601 0.0931673
422.082 3.36561 0.0761968
558.432 5.19525 0.118876
388.606 3.71071 0.0843433
424.025 4.1433 0.103043
396.278 3.39899 0.0820678
306.713 3.21427 0.0859284
427.632 4.74721 0.121551
319.621 3.93688 0.0974264
449.876 6.04199 0.150632
331.306 3.03226 0.0845036
294.123 3.38655 0.102363
350.975 3.582 0.0991805
380.224 4.84148 0.158494
333.909 4.75073 0.143528
283.957 4.14355 0.130099
319.241 4.77388 0.163481
242.471 3.64979 0.119802
263.604 4.12911 0.132946
282.957 5.33807 0.189702
251.755 4.58033 0.149557
242.726 3.82999 0.13698
224.533 4.7113 0.163957
298.962 5.63324 0.232316
230.766 4.25326 0.158536
273.213 4.40072 0.167506
239.312 5.0939 0.21147
261.311 4.451 0.187469
184.088 3.75947 0.154213
211.899 4.74145 0.21169
191.891 3.87267 0.179366
216.746 4.81954 0.214331
231.669 4.95181 0.225294
211.751 4.7201 0.231684
152.139 3.68532 0.170632
155.433 2.39438 0.125013
136.799 3.87735 0.206552
175.198 4.19352 0.225807
233.2 5.43246 0.273418
186.445 4.66605 0.253397
216.857 4.33722 0.227071
151.17 3.20175 0.184493
173.502 5.70134 0.332895
156.581 3.34281 0.19958
203.98 4.89505 0.279823
171.951 4.65337 0.266008
158.957 3.71694 0.20711
202.876 4.63763 0.288153
202.656 7.19371 0.454295
151.651 4.89849 0.312228
152.024 4.3937 0.265787
137.191 4.06414 0.27651
128.66 4.28772 0.294553
168.244 5.53953 0.363006
105.746 4.31551 0.306016
146.684 4.56244 0.301009
122.247 3.32889 0.229755
134.792 4.98736 0.373032
119.913 3.19628 0.245121
126.47 3.77086 0.265058
119.251 3.09964 0.233613
93.5178 3.96025 0.302086
122.446 4.08161 0.326323
94.9933 3.75658 0.29364
108.408 3.0655 0.254484
123.502 5.06922 0.427645
110.493 3.55218 0.286996
126.463 4.04506 0.349719
99.0598 4.07863 0.346783
103.98 3.28659 0.296355
136.001 4.90892 0.431544
77.8169 2.42421 0.209494
113.726 5.5874 0.504909
123.665 5.24379 0.501718
97.9774 3.30182 0.295609
104.535 4.07105 0.424319
80.9619 3.17144 0.298857
87.0197 3.69639 0.363349
94.4389 3.59536 0.358145
89.7355 3.93545 0.389545
101.761 4.15687 0.410582
108.146 4.70559 0.513956
83.0244 3.83424 0.391708
65.5027 2.99817 0.333508
94.5213 4.68228 0.497975
103.864 4.07935 0.451483
123.895 7.73036 0.842718
108.454 5.26731 0.620535
73.4096 3.798 0.413705
77.5746 3.73524 0.435628
87.0316 4.88087 0.594111
77.2333 3.25717 0.404666
70.1771 3.81557 0.460229
61.0647 3.33779 0.415271
75.3083 5.02599 0.64332
71.8057 3.51652 0.419751
86.7558 5.02342 0.671245
57.7606 4.0492 0.504194
73.9803 3.74709 0.524024
83.6421 5.5551 0.712344
98.1975 7.2384 0.931492
63.8392 3.48555 0.466715
81.5798 5.36551 0.725909
69.5977 4.24306 0.614986
69.1995 4.08911 0.586681
70.9896 3.70229 0.502906
62.5374 2.98498 0.447207
63.0913 3.86186 0.517951
47.3414 3.37649 0.441592
51.473 3.83093 0.540735
67.0821 5.04521 0.712888
60.6958 3.7516 0.556613
86.1473 5.70826 0.809104
68.4195 5.28571 0.786593
62.5593 3.72264 0.585732
54.5668 3.66669 0.543833
55.9396 2.97703 0.489909
55.9045 4.96099 0.733092
47.7711 4.53652 0.752436
60.7285 4.76463 0.778288
56.5879 4.37942 0.708286
61.4019 4.98659 0.799919
54.0796 3.3982 0.597603
60.5169 3.91908 0.652166
56.6531 4.36748 0.688933
50.7466 3.38954 0.599883
53.2254 3.97078 0.736375
57.5723 4.95837 0.869681
54.6861 3.82721 0.674694
55.3226 4.55912 0.851888
54.9671 4.57059 0.818109
48.1023 3.43129 0.667046
43.3701 4.02243 0.745948
43.6193 4.05872 0.79694
45.4918 4.07869 0.711974
47.4169 3.73314 0.693492
48.2782 3.74369 0.791759
49.6313 3.79162 0.707634
51.0961 4.14172 0.831238
43.0333 5.33748 1.03091
44.5302 3.54095 0.688479
57.3874 5.41236 1.05876
51.0447 5.14555 1.07921
46.4666 3.85531 0.797478
46.1507 4.19824 0.838069
47.4183 3.72447 0.760165
38.0499 2.725 0.575035
43.4526 4.57015 0.963219
56.1738 5.65371 1.20187
38.977 3.21611 0.715878
38.5424 3.645 0.834262
45.0975 4.47168 0.969453
54.8198 5.14985 1.10028
48.9686 5.51485 1.21208
37.1169 4.40265 1.02802
33.4499 4.40225 0.986426
49.8708 5.22223 1.10451
37.5718 3.77084 0.905526
36.1119 3.79915 0.932564
39.4591 3.29949 0.773008
35.291 3.54544 0.831564
36.1858 5.86228 1.40995
38.3797 4.42889 1.10754
43.6462 4.73103 1.09468
39.1687 5.53918 1.40331
27.7232 2.62239 0.742943
49.0849 4.91943 1.18644
47.5917 3.78603 0.962275
30.5418 3.32779 0.923706
36.4293 5.72685 1.45919
45.7162 5.84245 1.56307
31.171 2.54699 0.769046
43.6463 5.33298 1.32215
37.172 4.43352 1.17909
32.8619 3.26868 0.88618
36.1935 4.14092 1.13605
33.489 4.43455 1.21494
33.7164 4.65116 1.34138
31.6371 4.23003 1.15298
38.2113 4.43392 1.28185
27.0464 3.3509 0.926608
35.5714 4.74969 1.38169
35.3856 3.1755 0.896286
39.3673 4.61345 1.32867
30.6424 4.64089 1.29523
37.1771 4.4267 1.29592
29.7888 3.96078 1.12515
33.6109 3.23993 0.920363
33.6371 5.66387 1.70483
29.8458 4.01561 1.25858
25.2034 3.97637 1.23226
28.0224 3.6234 1.13523
31.1902 4.43454 1.36004
29.5245 4.09448 1.34121
32.0879 3.19736 0.962694
29.1929 4.12315 1.27552
21.7524 3.13679 1.0621
30.4484 4.64569 1.54497
30.0967 4.63966 1.48329
29.0875 3.70796 1.19901
27.1826 4.89173 1.58735
25.7985 3.06966 1.07524
26.8326 3.49594 1.19368
30.0975 4.97365 1.56716
24.9651 3.64915 1.26802
28.3617 3.98992 1.41145
26.8686 4.22487 1.34156
29.7434 4.11442 1.39747
23.9166 2.90951 0.985965
33.5454 4.97177 1.7983
25.7484 3.78141 1.32915
31.4051 5.06636 1.69989
30.0066 5.20369 1.79597
29.384 3.84029 1.39677
23.4108 2.64258 0.914549
26.0216 4.70794 1.84431
27.4747 4.36152 1.57922
29.0388 5.02494 1.85086
25.5698 5.95641 2.24637
24.8164 3.54789 1.22729
31.1614 5.74933 2.25688
32.7075 5.37685 2.04909
28.1124 5.0173 2.00057
30.4636 5.56531 2.04596
26.0368 4.60733 1.8466
27.8976 6.01874 2.37815
18.7068 3.13712 1.30902
20.2721 4.39671 1.6972
29.1254 5.64757 2.25554
22.7366 3.95256 1.50895
26.954 5.24346 2.13861
21.5656 4.72643 1.87066
25.8176 4.25833 1.81311
21.8214 6.19785 2.5295
25.7884 6.27746 2.55719
21.5334 4.70248 1.8395
23.8051 4.51991 1.90708
21.8895 6.5243 2.61486
22.5453 3.44101 1.57064
18.933 4.08681 1.61032
22.3564 4.46252 2.02027
19.8859 5.11263 2.2792
24.259 4.1842 1.91349
23.1798 4.48701 2.05726
27.7856 6.57226 2.98296
28.3024 5.7317 2.31961
20.4681 3.27046 1.45906
17.0872 2.56352 1.16932
20.614 4.57031 2.05467
23.9353 4.41429 1.97534
20.1271 4.97484 2.33299
22.3619 5.43702 2.20637
18.1581 3.44348 1.76257
25.5952 6.6244 3.13854
23.0649 5.97265 2.74645
18.761 5.67063 2.76301
19.7339 4.37325 1.98774
15.763 4.9544 2.33299
14.7449 3.76293 1.79965
22.6616 5.56339 2.98858
22.3354 4.44447 2.01617
13.5057 3.74426 1.87097
19.2746 3.55978 1.72779
19.5804 4.60347 2.22597
16.5219 3.87107 2.00129
16.4771 4.21918 2.06675
14.0814 4.06196 2.26052
22.3673 5.89674 3.05042
21.9167 4.42888 2.2548
19.1979 4.16556 2.06962
15.8554 4.25957 2.18667
15.4126 3.62005 1.7628
21.8188 6.06375 2.9516
18.6933 5.04044 2.58326
21.6601 5.58458 3.15071
17.8646 4.72895 2.51519
16.8673 4.75261 2.28178
22.2366 5.43667 3.1591
18.8912 6.16541 3.24903
19.5524 4.91374 2.8099
20.342 4.77352 2.65452
18.8735 3.62959 1.81306
16.3096 3.65626 2.16015
22.2665 5.74615 3.16542
19.8657 4.83683 2.4916
19.4106 4.91849 3.00377
22.4007 6.70053 3.58517
17.684 4.88049 2.57931
16.5067 4.08195 2.3902
14.5208 3.50566 1.92465
15.8756 5.28208 2.96478
16.517 4.04563 2.29414
14.0267 4.25631 2.55432
14.6221 3.59249 2.20876
15.3174 5.29828 3.4177
22.1411 5.25084 2.89275
17.2819 5.55934 3.13234
11.6497 4.66782 2.74654
12.7488 3.53959 2.6298
20.0783 5.11503 2.88408
14.1421 4.09098 2.38067
20.4512 6.72142 3.86363
15.0301 4.5239 2.84827
16.3301 3.41883 2.35625
14.3662 3.32592 2.28339
15.8599 4.41025 2.69834
14.5585 5.8408 3.36702
16.34 5.37699 3.53333
17.0352 5.65027 3.44714
11.6906 3.75435 2.5377
13.9337 3.11694 1.79083
15.2823 5.14566 3.5293
14.2097 3.28444 1.77434
12.991 3.6256 2.68361
14.1862 3.9608 2.69688
13.5981 4.55798 3.18007
15.8815 4.23363 2.88787
14.7816 3.77277 2.21107
16.3982 4.09422 2.48532
16.7181 5.40876 3.17342
17.4264 6.43479 4.11076
8.16347 3.91272 3.01519
20.8202 6.55069 4.0422
16.3179 6.56704 4.59021
14.1209 4.67452 3.0919
16.5791 6.49601 4.59018
16.2919 5.38996 3.58853
14.8806 3.83173 2.98454
14.6736 5.46005 3.79357
13.8217 4.51803 2.80629
11.7491 4.19939 2.99468
14.6837 4.68099 3.39115
13.2995 4.66185 3.29311
15.2695 5.66369 4.24138
12.7318 3.66566 2.7137
13.3759 4.89893 3.75436
20.2322 6.64264 4.86602
15.6614 5.24193 3.69391
12.3728 4.35267 3.39312
11.5477 3.8905 2.97483
11.3361 5.53734 3.89679
12.0186 4.79883 3.59777
13.3327 4.89413 4.16354
12.6683 4.18155 3.60901
12.3044 4.88245 3.28811
11.9367 4.87427 3.95428
14.7262 5.0449 3.7904
12.2736 4.47767 3.41279
11.437 5.28565 3.91225
15.0786 3.65622 3.166
17.1724 6.8727 4.90577
14.571 5.46213 4.49671
11.8602 3.60168 2.92904
11.47 3.82166 2.77767
12.8987 6.63485 4.60307
13.9375 4.28879 3.56816
16.0075 6.42502 4.68094
11.1637 3.87757 2.85527
15.0877 6.25518 5.0586
11.3476 5.51533 4.31675
13.2584 5.08349 3.92038
11.7709 6.88001 5.93422
11.3925 3.8857 3.41813
13.1248 3.70922 2.74842
9.3421 6.07558 5.29825
13.6165 5.35349 4.21106
13.9401 5.3618 4.10263
13.1672 4.15657 3.30771
9.25458 4.67329 4.59084
11.261 4.8594 4.44234
16.4478 5.66306 4.87747
13.5424 5.04298 3.26647
12.4313 6.04972 5.06306
11.545 4.07579 3.68196
12.8706 3.85216 3.42083
13.758 5.14768 4.33934
13.0953 5.4107 4.50721
11.855 4.30888 4.21172
13.3128 6.28719 4.68655
15.8708 5.35218 4.46148
12.6696 7.72888 7.13502
14.7517 5.23187 3.84308
13.7718 6.81418 5.82335
13.2614 4.99484 4.24268
12.4533 5.14285 4.24522
8.92188 2.62713 2.54567
14.2963 6.89391 5.86863
10.6836 4.15068 4.27177
7.94165 4.14475 3.99678
10.8444 7.18618 6.23028
9.52073 4.57413 4.31973
12.4332 4.68056 4.00536
9.49767 3.51921 3.42328
9.59439 4.54121 4.1045
11.3739 7.19976 6.93479
9.09796 3.14813 3.18813
10.5638 3.44125 3.21018
11.6703 4.80771 4.63294
12.9528 6.8341 6.69943
10.2524 4.74262 4.21226
9.38778 3.23641 3.55889
10.6379 4.98757 4.27792
7.31565 3.67471 3.60716
9.05732 4.40676 4.3815
10.7091 4.90309 4.48178
9.65218 5.16041 5.65862
12.4778 4.47257 4.30575
9.34192 4.71236 4.22538
7.5878 4.21989 3.97402
8.58196 3.96256 4.56668
10.825 4.93592 4.56696
10.9232 4.78585 4.21699
7.20269 3.12311 3.28158
10.9049 3.81131 3.57337
9.74065 3.92196 3.65661
8.36493 3.70483 4.1982
9.78977 5.77341 6.0747
10.2975 4.9209 5.38169
9.8599 3.6139 3.88515
12.972 5.74166 5.03969
9.09187 4.6703 4.41579
10.5955 4.71821 4.82819
11.2155 5.18846 5.39445
9.6618 6.02009 5.89516
9.11535 5.08725 5.40982
12.0531 4.61541 4.44541
9.31743 4.89564 5.21229
11.1212 6.56548 6.64364
10.6302 5.15447 5.33432
7.58622 4.0343 4.48985
7.06291 4.13237 4.99351
9.79885 7.64406 7.50474
10.1118 4.7423 5.4149
9.50237 4.3409 5.2496
11.3209 4.87598 5.20241
8.09091 4.18137 3.90956
9.73846 4.69465 5.03523
9.07784 4.2066 4.69266
8.05056 3.07768 2.83045
11.6186 4.66033 5.6177
7.72566 5.52692 6.23786
10.5043 3.84021 4.34302
9.1865 6.70355 7.55531
9.80691 5.56043 6.63132
9.27281 5.62709 5.52746
7.73042 3.23617 3.66864
10.0451 5.48744 5.52333
8.59795 5.75003 6.63866
11.0633 5.87901 6.33465
7.61937 5.22879 6.50149
8.99348 4.21931 4.71151
8.1513 4.90454 5.13519
8.65363 4.675 6.31831
8.69218 4.72721 5.85295
9.55468 5.142 5.53194
4.50978 3.49717 4.52112
7.77125 5.49001 6.1423
7.35568 4.62663 6.248
11.5318 5.91895 7.29065
9.22938 5.12952 6.07697
9.41032 4.69898 5.35804
8.4058 5.43522 7.99344
12.2486 7.24716 7.33762
8.96719 6.28537 7.41807
8.08751 5.46065 7.07339
8.96186 3.50674 4.0637
8.86852 4.79268 5.50326
8.01493 4.46998 5.2131
8.48527 5.16083 6.06665
10.7369 5.47836 6.09582
9.70393 4.33539 5.21673
11.2954 6.15758 7.21759
8.08669 6.09023 7.75168
7.92755 4.77047 5.45596
6.43705 3.97164 5.0231
7.70388 5.46909 7.48092
7.29301 4.61409 4.84086
6.58833 3.76675 4.95692
8.0553 5.27864 5.61318
8.59352 9.41703 13.0501
7.38759 5.51424 8.44763
8.56938 4.9295 5.57752
10.2861 5.92308 6.89378
6.259 5.49928 7.33192
7.18934 3.87722 5.67259
9.33481 5.27175 5.66313
8.00938 4.87603 6.72313
10.3923 5.10916 6.27755
6.73857 5.2264 6.2023
10.2662 7.03297 8.77554
7.10442 5.34671 7.72909
5.01785 5.04257 6.00121
5.03118 5.18459 7.65401
9.12974 4.63277 6.29594
9.63377 5.28356 6.58903
7.4174 5.01948 7.68397
9.84895 5.63678 6.70242
8.88678 5.13811 6.60417
10.1326 5.69686 6.37457
7.92891 5.31271 8.23613
9.38399 5.97879 8.11085
8.2936 5.87802 7.4965
8.43274 5.66359 7.731
6.9817 6.49567 8.12766
7.91547 4.16531 5.51885
9.39907 6.14689 8.53884
9.94274 8.95359 11.7643
7.90459 6.48104 9.67974
10.3451 6.77078 8.68229
6.6122 3.75974 4.98544
8.59376 5.85998 8.03843
6.39134 5.31785 8.04082
6.67063 5.03894 7.13
8.64504 4.371 6.04746
7.82568 5.97982 8.80558
7.97604 4.44485 5.43252
5.49233 4.28524 6.43485
7.488 5.98213 8.77881
7.29816 4.5742 6.56574
7.6865 5.65143 7.3371
7.87551 5.20096 8.54564
8.11942 6.17078 7.74809
8.74794 5.70958 7.68098
8.599 4.59226 6.56384
9.05137 4.47242 6.60715
6.98429 4.80007 7.15001
7.25105 5.28461 7.9847
6.03261 6.47145 9.52054
7.94287 7.24342 10.2117
8.54029 6.70196 10.0634
7.38052 4.16444 5.59716
6.55643 4.2955 7.27276
7.1472 7.08866 10.9472
10.6762 7.27655 11.3702
6.31619 3.35675 3.93246
6.6101 3.79388 5.0254
7.47411 6.27152 9.33374
5.93453 4.55164 7.06647
6.32482 5.9025 8.2929
7.97237 6.1294 9.103
7.54342 5.71837 8.64073
6.6597 3.15245 4.34625
7.59364 4.66764 7.55366
6.25447 5.78491 8.58342
7.08458 4.5456 7.95879
8.21015 5.77982 8.96856
7.86778 5.70353 8.1761
5.13753 5.07303 8.29392
7.30648 6.73826 11.5306
8.23347 5.14135 7.44602
6.82876 6.13406 9.19776
7.17839 6.40752 9.26272
5.40343 3.80962 6.96944
8.08893 5.99028 9.60359
5.83094 4.36258 6.10648
5.99842 3.73443 6.33638
7.63637 6.41082 9.59153
6.98592 4.63139 8.45964
7.08873 6.31036 8.78659
6.44709 3.99566 6.78561
5.6551 6.95463 10.2787
4.70219 5.34877 8.34613
5.39785 6.31227 10.3396
6.43606 4.58435 6.95737
5.14215 4.54833 8.60973
5.7917 5.40283 8.05604
5.56053 6.51766 12.382
7.3408 4.99717 8.39363
6.21376 3.74896 5.66428
6.87 5.23257 7.85088
6.78914 3.65624 6.99692
7.30445 6.06922 9.64102
7.18948 5.06598 7.59928
6.1655 5.78813 11.2394
7.90989 7.32554 9.92762
6.71567 5.62381 10.2788
6.68568 4.3529 7.66605
6.12581 5.35632 8.75604
5.8809 5.52118 9.05549
6.42618 5.09463 9.53033
6.80897 4.48745 7.11746
4.83188 3.32984 7.63531
7.29897 6.3612 8.35774
5.34589 4.73659 8.82424
6.08647 5.04548 8.59129
7.07613 5.37083 9.48699
5.5572 4.80298 7.36704
5.27791 4.04207 7.76275
5.13863 4.51704 7.91562
8.11969 4.29691 5.13286
6.02249 4.24188 7.15164
6.11449 5.5314 8.24087
4.47599 3.4385 5.92961
4.72844 9.20418 13.5078
4.70615 4.34725 9.3693
5.56683 4.30802 7.26244
6.33753 4.82718 9.76839
6.59719 5.51232 10.1166
6.4976 4.32683 5.91948
4.94367 4.12992 8.27126
7.70762 6.2518 9.93398
5.77124 5.60649 8.70529
6.42167 5.74446 10.0468
6.48166 5.82736 9.93772
6.1163 4.50039 8.12307
4.92182 5.30073 9.86313
4.57406 3.39918 6.68937
3.8738 4.13176 8.64867
8.12672 6.32377 9.14875
5.84395 5.58578 12.2011
8.68318 6.75301 12.4765
6.88551 6.54046 10.2235
5.76931 5.06352 11.9886
7.16318 7.5458 12.9943
6.12071 6.13098 10.9769
5.97262 6.78376 11.7386
5.01126 5.61667 10.2671
6.72433 5.63727 10.5131
5.89267 6.59835 11.471
5.67643 3.82875 7.27483
5.14911 5.32612 9.46676
7.87583 7.70526 13.4935
4.20043 4.81703 11.0254
6.96035 6.15225 10.4033
6.26746 4.9848 9.85018
8.03674 6.12521 12.0891
7.06853 6.5634 10.883
4.26573 5.24942 11.2766
5.01832 5.40943 11.6876
5.65856 5.91135 10.9352
6.26262 4.79675 6.36256
4.10252 5.47795 12.5529
6.21912 6.43461 11.1934
5.51935 6.16782 11.2584
4.97019 4.72201 9.77772
6.5877 6.0174 11.3004
5.10303 5.25969 11.4183
4.20483 4.57189 8.94991
4.81247 5.74732 11.4317
4.79693 4.15861 7.97851
5.15334 5.10627 10.423
5.41679 6.08466 10.084
3.64374 4.28481 10.8027
4.61776 6.51257 13.5479
6.4701 6.23047 10.1098
4.56601 4.45961 10.6117
5.77871 5.06256 9.20243
4.64809 3.85802 8.97613
6.70985 5.97923 8.82377
4.47403 5.37103 11.612
6.76695 6.69306 11.7959
5.44352 5.2488 9.3286
6.86618 7.04879 11.8124
4.36038 3.60397 7.24012
5.03988 6.86244 15.0529
5.59513 5.65592 12.0006
4.20164 4.91274 9.30513
4.56272 4.65262 9.25445
6.38231 6.86467 11.4182
5.11628 5.08222 11.1833
3.87346 5.03813 11.2453
6.51757 7.51398 16.554
5.672 4.51881 7.90089
4.69189 4.44902 9.87426
5.11259 6.64131 14.8834
6.55523 6.43726 12.4271
5.36753 5.93805 12.7031
4.5144 4.99073 8.86597
5.69055 5.25303 12.5214
6.02986 7.08582 12.7312
5.1016 5.89717 13.5244
5.40295 7.0708 15.4774
6.1976 8.97324 20.1956
5.69083 4.8241 10.7812
5.13718 7.71163 16.3178
6.03394 5.37305 9.24074
4.4391 6.56758 13.3006
5.2027 7.70102 15.2575
4.28746 5.46882 10.0483
4.27027 6.12426 16.1814
5.83931 7.60496 15.7093
4.96877 6.30262 12.4197
4.08171 3.87295 10.784
4.51247 4.78837 9.60007
5.01707 4.54184 9.61431
4.17966 4.34674 12.518
5.5915 4.41578 9.24355
6.63119 7.33968 12.6322
5.96891 5.88381 11.4921
6.10266 5.65734 11.3621
5.38865 5.48947 12.9387
3.84381 6.50354 14.4009
5.99903 5.09597 10.1939
4.61344 5.383 12.0183
5.37578 6.21091 13.3645
3.90739 3.70646 8.98574
4.48184 5.64459 11.672
4.6294 5.63213 12.711
4.67563 5.1102 10.3547
4.85902 5.36765 11.7707
2.63005 6.63075 15.523
4.57001 7.10684 16.2088
5.94245 5.27478 12.8422
5.37084 6.04796 12.1724
5.44104 5.88667 10.8727
3.921 5.72681 14.2762
5.96102 6.67223 12.8783
4.85497 5.41517 13.3861
4.66866 3.97162 9.70622
4.21324 6.12766 17.4704
6.1124 5.00761 11.1388
6.19312 6.18318 13.2083
4.59085 5.61555 12.025
4.87855 4.46741 13.9076
5.66952 5.37338 9.46014
4.07168 5.21467 10.562
4.46167 6.10114 15.3712
5.82182 6.5019 13.0511
4.93895 3.90216 10.2353
5.27045 6.88056 12.6541
5.36318 6.14964 13.2242
4.51489 5.01661 11.0247
3.85957 4.12168 10.4282
5.20915 6.64418 16.3624
5.44078 6.84864 12.5868
5.27268 5.48219 11.5353
4.36584 5.50534 13.6931
5.92515 5.27765 10.3922
4.79656 7.61623 18.4819
4.25205 5.48222 18.0841
4.50571 5.06255 11.8564
5.57752 6.7527 16.091
5.54987 6.14325 11.0629
4.49414 4.13125 9.80715
3.99107 5.22166 9.183
3.70675 5.15933 16.163
6.32402 6.53052 12.0283
4.90144 5.46889 12.3337
4.33503 5.11303 12.8345
3.94727 4.56973 11.3271
3.901 5.73306 14.4087
5.38332 6.3165 14.247
5.13432 6.57029 13.9972
4.88491 6.54216 16.6808
3.76325 4.62064 12.2041
5.27864 6.57583 17.2577
4.39441 6.10483 17.4271
5.65644 6.83404 15.0606
5.48683 6.39743 14.4997
4.07907 5.29449 14.7693
4.44772 5.40614 14.8701
4.10955 4.44109 9.98512
4.02542 6.07319 13.8586
3.79252 4.88899 12.7503
4.52049 5.85301 14.7625
3.58555 4.59236 8.86547
3.88729 6.31925 14.7475
