# pn-170911/RbIIR-58-PTBB-1280-1959.psd
# Power spectrum* (dif=0,1,2) (really just |FT|^2)
# NOTE: only the first half! (symmetric)
# weeks: 1280-1959
# 3 clock-days, 1 excluded
# PSD: 1441
2292.56 0.0479555 0.0244432
43985.5 0.533503 0.0104782
282456 9.23599 0.0103469
24909.6 0.188361 0.010593
73507.9 9.94386 0.0111503
7923.02 0.313886 0.0108365
14343.7 1.70401 0.00850238
8134.19 0.493515 0.0107305
6826.51 0.446375 0.0106379
3474.34 0.465165 0.0111919
960.86 0.188754 0.00989574
1847.37 0.503525 0.00955838
4022.69 0.943647 0.0114176
1240.07 0.123519 0.0099227
872.426 0.68856 0.0121229
3494.93 1.49257 0.0114861
852.847 0.388988 0.00781257
821.863 0.577168 0.0149415
535.231 0.463206 0.010891
914.895 0.80915 0.0117324
497.923 1.1734 0.00721866
1011.8 1.63518 0.0146209
1188.15 0.964135 0.012894
395.214 0.529618 0.0116453
329.874 0.285845 0.0107398
425.567 0.456502 0.0115536
469.165 0.343928 0.0119662
218.014 0.70453 0.0134276
612.975 2.57903 0.0141644
210.202 0.958436 0.0183847
290.462 0.675635 0.0147831
502.424 2.5298 0.0272184
258.075 0.998312 0.0192436
997.489 2.76094 0.0203818
246.907 1.52185 0.0235784
462.627 1.20044 0.0125998
264.078 1.44452 0.0215234
341.263 1.20808 0.0177059
241.111 0.93798 0.00548105
672.216 3.36748 0.0508703
196.626 0.312464 0.0125771
366.005 1.81393 0.00782542
235.248 1.31947 0.0200648
218.602 3.48325 0.0581006
19.1064 1.44537 0.0280937
344.062 2.3435 0.0224476
473.409 2.3846 0.0114968
255.444 3.50476 0.0651284
462.469 2.33551 0.0485649
267.859 0.915512 0.0182933
155.323 1.07876 0.0322126
116.889 1.03338 0.0352769
281.182 2.91317 0.0727127
76.254 2.49653 0.031634
308.574 1.66277 0.0413002
452.019 8.38475 0.133812
366.006 3.34014 0.0537143
121.095 2.439 0.023952
139.887 3.62595 0.0660946
293.458 2.90731 0.0395492
281.453 5.31246 0.083131
176.648 3.28476 0.0355735
157.198 0.773206 0.0276941
231.905 4.72126 0.104062
39.401 1.19393 0.0275549
552.682 8.21477 0.213668
185.848 2.4713 0.0409496
148.532 3.69139 0.117461
126.42 1.75188 0.0845508
354.594 5.32511 0.104978
133.409 3.96962 0.0889291
385.482 8.84465 0.184644
182.55 3.33185 0.0715111
64.6432 2.72557 0.105895
274.551 4.73532 0.121079
83.9043 0.879964 0.0289913
128.852 3.50797 0.133105
236.029 7.80188 0.164745
370.569 7.35918 0.277511
119.246 1.90166 0.0965558
157.512 3.06057 0.144536
165.351 6.86962 0.195199
274.097 5.60472 0.246491
184.996 3.72631 0.137964
325.385 11.5809 0.426923
270.591 5.9638 0.214208
127.106 3.46499 0.127084
199.01 8.8497 0.314169
312.343 10.3824 0.484671
84.4381 4.2457 0.179448
112.975 4.89763 0.131946
57.7532 2.75833 0.143475
167.684 4.49984 0.210719
51.2671 3.44023 0.172588
313.658 11.3078 0.389286
190.389 9.63526 0.395686
235.049 6.58101 0.266127
76.041 4.1036 0.195325
259.912 7.22317 0.365432
129.116 3.90791 0.237448
151.884 8.54124 0.369827
88.1109 4.36635 0.306331
95.0056 3.06398 0.140674
58.7553 5.0772 0.233064
140.814 5.65103 0.284703
111.584 3.57511 0.22733
239.315 11.5418 0.48638
227.074 8.89828 0.480834
104.987 5.38961 0.28569
304.738 19.1969 1.1492
91.2881 4.41831 0.362827
62.4076 2.16416 0.12008
254.707 20.1957 1.22167
89.2011 2.7377 0.127241
128.419 8.0884 0.469993
85.5706 8.37104 0.586805
229.194 15.6445 1.19476
36.9248 3.63282 0.312516
87.3359 6.98176 0.49021
99.6113 6.06947 0.574664
108.801 10.2505 0.702634
128.577 6.14252 0.507402
396.167 26.2259 1.57082
115.315 9.36888 0.680997
82.8209 3.87617 0.326345
123.975 5.94424 0.359018
67.8597 6.09844 0.38312
37.6159 3.34589 0.288691
259.126 15.3966 1.26589
177.477 11.6283 1.02952
125.739 6.56336 0.500715
94.4117 9.22873 0.899677
209.38 15.7869 1.13633
154.515 11.5793 1.12541
135.53 11.5853 0.921003
63.237 5.85727 0.508356
371.941 27.3326 2.51292
28.2243 3.06807 0.245561
85.9499 9.02893 0.821252
56.5287 4.22136 0.399303
89.9044 9.00418 0.752844
218.209 16.5119 1.42329
143.876 14.9187 1.3674
160.98 14.2805 1.53049
78.7651 9.67372 0.911055
173.65 14.5633 1.37659
229.456 25.1528 2.5315
136.114 18.1 1.92731
241.622 21.2611 2.34757
73.7392 7.91695 0.961819
66.2604 6.31538 0.521591
65.2433 6.90676 0.777395
125.155 11.0511 1.17477
92.3514 7.11125 0.792228
145.854 20.7296 2.30688
89.3493 14.7611 1.90871
171.338 18.7965 2.29659
70.726 4.86697 0.60095
171.764 18.0566 2.30257
60.1046 8.60576 1.11331
319.861 28.0498 3.2062
58.4008 8.42548 1.17024
74.5329 5.03282 0.676341
78.5541 8.46731 0.888212
53.2797 6.32636 0.659951
87.4363 9.05853 1.02131
40.7405 4.28725 0.591677
31.8915 3.48182 0.37457
105.586 15.858 1.99647
86.8506 13.6997 1.84255
120.993 12.9543 1.76482
57.1029 7.91102 0.932051
53.6658 8.60219 1.09604
101.046 14.2191 2.14877
159.514 17.467 2.32868
88.9271 15.6686 2.60462
50.7288 2.84 0.258537
99.8467 10.5888 1.45486
98.9613 10.536 1.73103
85.1958 12.5586 1.93461
223.287 36.139 5.12481
116.593 17.8195 3.00679
90.027 10.4262 1.40721
227.424 36.2128 6.28924
42.3077 5.20272 0.578275
87.3798 12.8949 2.49936
51.5063 3.65452 0.317364
321.504 46.8995 7.72568
97.6331 17.7449 2.94342
40.7285 10.8528 2.28028
263.065 43.3045 7.25587
128.447 23.1666 3.59334
88.9823 11.1618 2.08887
80.5811 11.4261 1.52467
128.471 27.2815 5.3037
84.3025 8.54754 1.39883
118.662 19.8241 3.39668
72.1062 14.1314 2.3176
9.48202 5.48627 1.41427
249.328 39.4244 7.0952
74.738 13.5117 2.70342
84.2492 14.251 2.37548
69.6198 11.5873 2.26211
115.122 24.4488 5.23125
51.6391 5.48344 1.05369
108.123 21.8453 4.13541
149.168 24.792 4.88915
22.8087 4.38258 0.773466
33.9227 5.60349 1.07555
167.575 36.2199 7.65942
97.5989 15.9901 3.69503
158.95 36.4978 8.20643
24.9218 4.36125 1.38013
124.897 27.0373 5.52572
130.612 24.1928 5.59733
77.7109 15.8943 2.56969
257.528 65.8823 15.5431
80.0249 22.3932 6.19805
32.5124 5.48264 1.20617
155.287 25.6129 5.68483
36.9893 14.3754 4.00214
182.075 32.3506 6.74698
51.6801 7.77564 1.05981
158.982 37.1289 8.96594
63.179 12.3432 1.89987
187.436 56.1964 13.4122
95.4436 14.9109 2.98617
49.7417 15.8554 4.36161
166.816 36.4383 8.89885
39.3289 6.39277 1.16773
73.8294 21.9094 5.77653
69.8755 18.4949 5.89569
166.127 36.1808 7.8463
113.726 34.6231 10.0511
172.648 38.8273 9.59813
138.642 44.081 12.3388
162.195 30.2177 6.81928
216.649 49.5331 12.2333
124.482 32.845 8.46878
37.1271 10.7914 3.15332
49.5469 10.2857 2.03113
31.6321 7.84283 1.95374
238.778 65.2948 16.7109
18.4899 9.82569 3.98055
68.8917 14.6065 3.46115
110.846 30.5996 9.48028
149.723 33.6769 8.11544
83.5424 27.6786 7.81243
81.8471 34.6079 12.5993
120.011 33.6008 9.87893
169.093 33.1082 7.39511
125.398 26.6856 7.11004
49.3918 17.0902 6.1395
35.5432 8.26492 3.3872
190.419 49.7192 13.1928
132.257 38.9224 12.1466
116.914 28.3514 8.2795
81.971 26.4184 8.78199
17.7808 5.49643 2.34627
99.2343 31.1472 10.2506
60.2613 15.5657 4.65914
175.787 49.335 14.3445
77.1691 22.646 8.97088
57.4666 17.5274 4.44113
23.2331 7.88889 1.96406
41.3851 12.9059 4.92085
173.084 50.9487 17.3853
108.644 38.8808 12.5426
26.7495 6.62234 1.28871
150.616 55.4849 18.2372
261.879 94.2471 34.1593
27.2656 6.43027 2.04798
59.585 22.0366 7.30252
192.811 55.9988 15.9955
89.3362 34.3412 11.9264
76.9508 21.6823 7.50326
69.9711 27.0116 10.3168
134.698 41.8359 15.4067
123.796 44.7847 16.7448
34.1386 10.2244 3.4489
12.5067 9.81296 6.11623
125.41 41.1498 11.6319
111.949 42.9089 16.0578
69.9786 22.4774 7.17
91.3049 29.7849 10.6238
166.596 61.8609 23.6243
53.9154 15.8402 5.78303
71.5184 29.5676 13.5636
128.416 47.5756 21.0475
112.595 41.1618 13.9803
86.295 36.0847 14.3623
103.428 41.0811 15.4743
27.3515 9.30889 2.72427
17.4496 4.98424 1.62987
60.0644 22.2078 8.80972
12.1936 7.26758 4.79078
52.5823 23.1168 9.66884
167.933 68.5303 27.9423
52.756 20.7827 7.54157
30.4842 9.76892 3.40356
67.8772 36.3872 14.7867
70.5816 29.2214 13.0568
50.1336 14.3701 5.0751
82.6151 36.1812 17.3664
84.5252 39.1589 20.1649
171.144 70.676 29.4176
71.5469 23.1916 6.5383
43.4125 25.9673 13.4711
67.9695 33.512 19.1315
94.0321 29.2502 8.99798
119.314 63.5923 29.7122
77.8829 27.4942 9.88628
49.4153 28.2004 13.9514
118.188 43.6717 15.0613
43.5017 30.6024 15.1171
45.6869 17.1053 7.56917
39.1033 24.1641 12.7142
60.5759 18.9459 6.45576
28.1987 15.3418 8.63912
47.5961 26.7703 14.3113
37.1988 8.64191 3.04793
73.2241 26.9152 10.7883
28.4891 8.59894 3.24616
37.3178 19.0245 9.61785
34.4924 14.96 7.52437
7.87953 7.11673 3.58028
45.61 25.6198 15.2442
19.854 16.1183 11.208
94.448 37.1098 17.42
40.823 13.2291 5.5993
63.9579 24.5277 8.20792
44.2516 28.5559 14.9517
105.707 47.4941 20.645
66.5987 40.4205 26.7887
113.485 56.5249 28.5111
149.855 70.399 31.605
21.9827 9.4575 5.24516
66.6485 31.0776 15.6396
89.726 52.006 23.7535
62.975 30.852 15.2511
17.0894 14.0273 11.6633
58.0105 24.6443 9.6426
26.1631 19.6967 10.2317
110.399 70.8442 40.2194
45.4099 25.8347 19.6264
89.2535 41.6263 16.8684
70.3641 51.8622 33.5028
217.842 98.272 45.3858
34.5843 22.4056 13.5788
56.1564 29.0475 17.8167
38.3118 20.3463 13.3702
53.0024 26.5241 14.8575
60.2163 29.8296 16.1059
73.3127 39.2404 20.6506
33.8519 19.9599 12.0517
45.1916 31.7088 17.6831
46.7646 32.0967 19.7844
121.731 70.8811 39.4426
62.1856 35.1664 21.5937
31.2426 14.3602 5.74926
21.6166 17.1922 13.1818
74.0422 43.6282 24.3416
57.0306 38.142 23.374
85.0856 56.9657 34.8503
35.5746 25.3285 17.7096
39.2276 26.7679 16.8575
56.9566 31.5289 22.6289
86.8035 45.4225 26.2062
75.7487 36.681 21.619
71.7471 42.8286 24.6676
57.3963 33.6178 17.4813
14.9597 6.98921 5.40297
41.7736 28.6745 18.3073
42.1076 25.6467 18.4946
105.044 79.8084 47.3736
69.584 47.859 33.3284
78.1355 43.8325 25.6907
93.1421 56.9994 38.2336
44.0814 38.5355 31.1732
101.496 59.1222 32.6807
74.7515 37.5195 18.2528
51.7956 46.8171 33.6657
35.4018 15.3486 8.99206
13.2334 10.2335 7.30789
33.2689 25.9533 22.1902
63.1479 42.5465 28.9844
63.8614 26.8594 12.7829
32.589 38.4921 36.7198
77.4454 29.5069 15.0761
52.6015 22.6171 11.4014
78.8529 46.5787 26.8236
54.8995 31.3334 18.4895
38.9511 29.7995 21.6773
53.5602 30.3423 17.4905
69.9163 52.8136 37.7268
51.0279 55.6626 47.1101
45.3737 57.662 67.0473
293.979 173.924 93.2087
21.7564 22.897 22.8209
67.9655 40.9165 25.2215
108.22 68.5947 42.9391
125.684 83.03 52.5856
82.8917 56.3886 42.9228
66.6941 57.3165 47.239
25.2693 16.9642 8.6042
26.1221 28.0136 27.6051
29.0043 22.6261 16.7883
24.6197 9.38699 6.31809
45.2504 28.1246 22.5306
66.6945 42.5885 28.2546
59.7636 55.5938 48.2493
120.179 85.1316 59.5334
46.2227 27.533 16.878
24.6087 17.218 12.5643
60.3632 56.6063 42.1621
47.0495 41.0393 30.1514
9.9227 14.3424 20.0095
33.8254 16.0881 7.42973
13.0668 7.78547 6.26587
44.5843 30.3647 22.4283
45.8859 41.7152 37.2677
67.1036 44.1789 34.7665
51.4261 38.2067 32.9686
33.9816 19.772 9.52945
11.8367 6.89099 2.2579
61.1949 60.8052 47.9538
28.9661 33.9785 40.3986
82.7805 59.3142 49.83
38.0333 14.9895 11.8152
102.173 76.7269 54.7644
43.4049 26.1728 19.4008
101.489 95.1146 70.2849
14.2975 11.2228 10.134
47.9496 60.5035 62.8292
60.0121 38.4574 35.0218
68.2896 35.2911 19.79
42.3013 31.9818 26.0064
83.2873 67.4094 49.9929
16.5753 26.2767 32.8606
32.917 42.1264 50.0126
102.271 63.4277 31.3578
19.1732 19.4853 17.7477
20.733 16.6923 19.9745
107.375 78.2995 48.1467
70.83 80.6512 83.0773
49.0125 35.8966 33.953
71.276 64.6471 59.0579
18.2511 30.4811 39.7343
37.6556 40.9436 59.2091
63.9659 33.2507 19.6294
62.6702 54.3224 35.3104
13.1026 23.8829 35.6572
101.105 73.1556 47.7799
47.5326 46.0144 42.1831
25.0971 19.9554 20.5794
60.2525 53.7665 50.2487
66.2768 57.436 59.4758
28.1084 18.35 17.7413
59.7683 37.2801 18.9391
60.6597 54.1766 37.2643
50.2764 53.1644 42.6382
42.9047 68.4328 79.647
20.2836 14.3313 17.6733
43.1039 60.3144 92.0017
115.122 78.0116 44.8304
21.8022 29.0354 29.7759
39.455 28.1572 18.9022
60.9148 69.3516 67.8404
65.2116 46.5522 38.9858
30.6358 26.7559 25.6823
36.4606 34.5692 25.5244
25.0604 31.6178 38.5618
15.2346 9.65966 9.89422
50.0726 55.0135 46.9601
56.6553 61.165 52.072
17.226 28.9745 39.4161
24.2158 15.6448 14.5724
12.2744 7.78199 8.87843
16.7373 5.83254 4.12048
44.2667 47.7669 48.2937
56.1221 47.1132 46.8636
25.5513 26.4079 34.3112
49.0049 49.0693 49.1808
54.8756 51.5303 47.8254
32.9969 27.2464 26.9568
41.9505 46.6745 39.9319
25.031 24.0964 28.2656
25.7782 20.9691 17.8541
7.76911 13.2814 22.819
19.9788 15.5503 11.9378
48.8229 50.6513 47.9081
46.8217 56.8392 51.1726
17.368 34.1711 48.6571
60.3492 62.7174 70.9004
74.8064 53.1984 41.1248
56.6928 53.574 46.8442
14.2063 23.5739 36.938
19.5761 16.4065 14.8128
28.3199 48.4092 75.19
82.2953 74.8397 63.459
18.7651 16.6701 14.7024
12.9777 22.1389 28.9721
26.6814 36.7052 46.394
35.5788 24.0863 16.5545
6.39683 6.01791 3.48574
28.499 38.9544 53.0155
27.344 25.3613 18.281
29.0773 41.5663 51.5888
36.6181 42.7361 50.1147
56.6968 59.4787 63.6661
51.7586 71.9309 90.879
26.7386 15.9891 13.4201
30.3831 29.2337 21.9445
17.9126 17.1022 14.3973
11.5465 21.01 34.4072
53.8455 61.5662 58.5403
44.6278 46.6757 48.5533
29.798 45.1788 59.9421
61.4478 71.7597 73.4632
33.1751 47.4632 62.0137
23.2497 26.955 29.8786
22.617 44.3238 67.7801
22.9798 15.653 21.4475
62.4033 74.9904 75.8806
46.8102 62.4844 92.8965
83.9766 76.1067 63.0387
7.84999 4.8962 5.74116
27.1446 38.2126 50.9593
15.5627 13.6212 17.1665
18.9215 21.4819 30.6437
37.1395 55.8515 65.4433
26.5626 25.3623 28.8778
27.4563 46.1638 77.0303
62.9098 60.113 68.647
27.1657 39.7323 67.2864
102.378 111.023 101.922
23.028 18.6621 19.8653
24.6018 26.2436 33.4458
16.9242 34.2374 56.5225
37.8266 31.5788 44.7382
40.4431 32.2465 20.1199
63.6481 96.2297 112.833
19.2874 17.5359 16.728
13.8693 34.0788 65.9482
47.4383 39.5398 39.7025
40.9968 64.1942 84.5718
47.6244 58.5945 89.3242
55.0677 50.8992 40.0855
8.26052 14.203 24.3818
11.3107 3.17987 7.39705
56.3594 70.8303 94.1481
68.3702 59.1242 38.7673
31.2941 43.3943 52.9393
20.6036 39.7042 61.8727
41.7237 60.7949 92.8156
25.9093 28.6208 34.6981
12.3227 22.377 40.6069
26.6521 22.3582 13.9977
19.613 35.0039 34.4124
19.997 39.1594 59.9321
31.6636 59.3682 102.147
29.9908 23.5413 22.1668
21.4392 42.9186 79.1675
30.7967 18.0875 10.9421
35.153 49.3353 77.8333
57.0435 67.7187 67.4425
25.5955 42.9355 59.1881
27.6494 40.475 57.5967
46.0099 65.1815 88.3941
66.1589 88.9436 99.8336
4.79075 22.8877 73.6245
55.1053 70.5901 112.617
64.4077 45.9983 27.9634
44.9386 70.171 85.1157
61.9724 84.5312 94.4245
11.6478 14.9762 32.0399
64.3437 94.7969 130.657
20.593 20.9469 22.156
21.2872 34.3832 60.1461
34.8872 56.6393 85.5205
40.8487 77.2661 138.046
61.9844 52.7154 53.9419
34.6378 66.8991 102.682
29.5362 31.4881 62.9226
76.4986 93.8855 106.552
35.0346 54.5905 91.6653
61.6401 71.4092 85.5763
10.5141 24.8961 67.7084
57.2437 51.3817 34.4756
29.7371 60.7124 121.837
67.4868 85.6291 74.9411
15.6168 31.6437 48.2451
13.6929 35.6097 64.8696
13.7387 15.441 46.3157
40.0573 42.0693 27.452
2.4179 9.23168 17.2794
11.1633 13.3616 12.9749
23.4184 42.53 71.5451
34.7282 63.4168 83.1494
14.1486 11.0572 20.7207
19.112 39.3512 73.7527
18.2116 18.1127 30.2408
20.9153 25.6733 33.0333
25.7727 30.2858 30.2894
20.8885 44.2522 81.3507
39.318 55.3859 78.533
43.645 52.3508 69.3667
28.8143 53.9012 101.543
25.6029 24.4026 22.2012
12.6532 22.3834 30.2362
8.68933 8.66598 13.3257
40.7978 76.3407 143.043
50.2067 65.9178 89.9253
36.6073 47.9435 52.6673
35.4685 60.7724 79.7423
10.3494 16.3267 35.5649
26.8671 46.3157 75.3779
30.548 61.3812 101.295
27.709 23.6835 27.5395
12.3546 15.5932 32.5036
18.8125 24.9341 45.2106
26.4011 38.7416 44.0015
17.976 31.1395 48.5271
16.2042 26.2827 41.9823
28.9771 49.4779 53.3425
6.7029 27.0672 70.5009
27.9783 26.4262 30.1378
22.1594 28.4839 42.032
16.5562 30.0835 45.4018
28.6184 60.8859 121.254
20.7198 19.3073 24.8895
3.91266 9.0104 33.9635
25.9243 30.9591 31.1655
4.87408 4.43918 8.14515
20.29 42.3016 73.7309
38.0214 67.3009 97.1754
22.417 26.2328 58.275
63.0385 99.2209 116.562
31.1754 63.3311 108.042
12.198 22.3134 37.7935
11.9379 29.7586 54.0119
7.6663 14.7867 31.1759
17.0869 44.4917 94.9428
25.4027 31.5089 51.2485
28.5707 35.2102 49.3839
17.1494 26.7564 57.2836
56.0799 99.159 180.841
29.9109 32.7307 33.9889
17.8047 31.0159 59.733
21.4201 36.7151 69.2749
54.5829 116.654 177.378
28.1471 30.1362 40.1022
7.78707 16.5986 34.8857
12.3905 16.1711 31.5588
15.2705 26.8333 49.178
14.859 18.209 18.5971
26.4254 69.7437 160.237
29.3513 27.8914 22.0129
10.5764 26.2254 66.7942
32.5517 43.1988 51.0606
8.52619 13.006 14.3564
21.4756 46.8136 78.9224
12.4029 25.6823 33.0789
9.20664 33.749 71.349
22.4435 42.7695 90.8507
15.7004 14.057 38.8414
29.778 44.901 80.7221
23.2852 32.7719 31.6374
2.32319 7.54711 23.3392
17.2787 34.5598 61.3158
4.82526 6.22857 26.0864
21.074 45.3065 90.7686
29.9878 39.2624 48.1408
35.3679 72.1083 121.427
10.5834 17.6509 22.2712
8.52706 24.6916 50.232
10.3643 42.067 110.922
26.2554 26.624 44.5852
11.6478 20.8691 50.6286
16.5899 23.2376 63.6279
30.8455 32.4192 35.5104
19.886 31.4787 35.6696
6.01037 11.7484 38.3465
40.4257 89.1893 149.509
9.30426 15.2685 40.3211
14.6646 23.0105 47.6582
16.59 39.609 121.623
51.9054 73.2436 88.5474
22.8482 52.1203 98.0268
15.2977 14.1772 23.4941
35.1809 92.7537 180.51
32.92 35.9203 70.1594
36.7166 70.4607 120.545
27.5516 53.2732 114.91
31.0591 50.216 84.5833
33.6161 68.3282 150.516
22.7421 33.1252 76.0676
24.3085 25.1806 63.8624
41.0212 55.1817 31.6761
31.5158 94.0365 175.788
20.7773 22.6095 37.7942
11.4966 34.4681 70.6425
12.5662 15.1789 24.5187
10.7907 29.082 67.9421
15.3677 18.2064 33.5918
5.64469 12.5319 39.3684
11.4352 27.0516 67.6991
32.5716 53.2089 107.76
28.2834 39.3765 47.9904
33.2132 78.9815 167.73
34.2642 46.5175 45.2455
7.82098 18.4536 32.303
14.2654 37.4707 89.3409
16.0682 27.9262 43.4327
14.6039 41.4003 88.6147
5.88836 12.0704 68.4209
23.1537 30.2394 27.5995
2.90703 7.008 28.4831
12.3222 20.323 49.2534
23.2113 40.838 68.4031
26.1299 45.8108 57.6972
15.1182 46.1565 70.6189
11.1493 40.6365 93.2494
6.29933 23.4966 90.1919
14.6546 8.92009 30.8668
19.0136 32.2226 74.0548
27.5667 39.2724 60.279
16.9288 34.4037 64.6044
10.0885 17.8343 50.9158
29.7782 73.1912 159.201
17.5691 14.2282 29.9001
22.3935 49.8222 68.9907
14.3264 25.4051 42.8245
9.97352 36.8584 81.2087
14.5428 26.4303 71.1875
35.1168 72.2783 133.409
23.0565 38.7839 75.4346
12.4757 24.3409 55.2839
3.41786 3.74195 33.7523
18.8223 33.4607 54.6285
15.458 43.1036 98.789
17.0795 23.7209 41.3346
10.166 18.4236 20.0683
5.28553 21.6422 77.9195
22.9906 34.1468 41.6318
3.79592 8.28018 18.956
13.1411 32.978 54.3443
10.0468 39.7224 120.585
11.5294 23.0666 55.9886
11.089 19.782 75.4257
24.0107 44.9722 60.693
9.21493 12.7858 22.1696
4.03318 6.01013 15.6832
4.24788 15.8374 63.4268
17.3082 26.6681 31.7845
5.24422 11.8268 25.9513
14.1436 42.7989 97.4614
14.5967 28.0695 66.0066
20.5023 55.1665 148.33
26.4811 41.6651 57.1817
12.695 36.3429 74.3307
11.7737 22.4664 45.6103
11.6289 40.0092 142.148
41.2365 80.8796 110.857
13.826 38.9716 91.8983
14.7998 36.695 105.879
31.5732 52.1782 77.7916
10.3034 26.2638 97.2619
24.7021 54.8401 95.1725
15.5125 26.4172 66.2959
19.735 61.3284 108.568
8.77381 26.2133 116.101
22.7555 27.1878 28.219
6.53972 14.3476 45.5045
17.1289 31.6002 39.3429
7.68559 27.2055 91.6549
35.7289 79.1571 150.75
15.4899 26.6098 46.0975
11.9414 46.6423 160.858
19.1104 25.4522 29.0461
5.63108 13.5943 29.292
9.50003 29.0377 48.0436
6.11243 29.4954 94.9198
19.8998 27.2368 40.4175
7.98361 22.3914 57.4281
16.2446 35.4186 79.2729
14.5388 26.031 42.7489
6.70687 22.0574 73.5579
15.2904 23.0374 45.1615
13.9137 44.6941 138.865
30.8276 59.1173 70.4363
3.59572 15.5849 45.6383
2.96025 4.19957 17.6829
10.4142 39.7252 90.3029
6.39149 7.85458 23.3956
6.9438 12.3585 29.477
6.5233 21.9996 93.4555
24.6909 47.9342 107.215
20.4608 58.8661 102.925
5.44357 13.044 90.0434
29.6407 46.2605 43.7732
11.7693 51.4474 114.041
15.1709 38.4417 119.301
13.0491 19.3192 65.5393
19.1867 24.8811 34.3442
7.02726 7.78295 6.06602
12.1412 38.9817 76.0958
10.1064 31.2768 55.8047
3.32118 21.8883 95.9189
19.7731 41.7337 82.113
10.0021 39.4662 151.96
22.3097 20.9213 23.529
13.1072 37.2093 137.639
32.188 67.9406 129.42
16.2404 28.6171 53.0628
8.11801 11.5779 15.4973
4.60454 17.1315 62.1515
9.10759 21.466 104.255
41.0919 105.838 153.228
12.5787 32.5277 60.9059
4.78521 31.3344 113.275
11.6603 18.2668 48.2012
6.70907 15.4963 52.848
10.2898 18.6587 32.7827
5.45872 19.1587 64.9099
