# pn-170911/RbIIR-47-PTBB-1280-1959.psd
# Power spectrum* (dif=0,1,2) (really just |FT|^2)
# NOTE: only the first half! (symmetric)
# weeks: 1280-1959
# 7 clock-days, 1 excluded
# PSD: 1441
458.364 0.0371755 0.00769486
13733.5 0.243029 0.0514605
73584.5 1.64907 0.029749
21249.2 0.707289 0.0450327
55502.9 4.18122 0.0360275
1390.72 0.224829 0.0379329
6123.34 0.87577 0.0457646
1135.92 0.431801 0.0297722
4141.97 1.29927 0.0554611
2930.4 1.25613 0.0292092
2234.58 0.786566 0.0551105
1938.39 1.03578 0.0292256
554.842 0.195343 0.0467949
769.421 0.405207 0.0411068
2010.37 2.25604 0.0376561
634.121 0.66426 0.0444814
1987.97 2.95596 0.0317311
745.729 1.25112 0.0517591
451.995 0.672452 0.0326908
617.17 0.882697 0.0507728
1065.25 1.82216 0.0411955
1182.22 1.99422 0.0594163
452.267 0.833884 0.0427844
661.795 1.33378 0.0416169
361.391 0.795859 0.0433515
1116.07 3.07078 0.0502399
733.723 2.28914 0.0372699
892.606 3.53727 0.0392917
1126.45 5.03963 0.035029
560.689 1.67331 0.0313899
1060.32 4.04807 0.0388912
198.457 1.12847 0.0400058
903.88 4.13242 0.0785602
703.686 3.09106 0.0388396
515.007 2.18419 0.045723
733.966 3.86935 0.081978
598.176 2.86982 0.0360494
900.175 5.49903 0.10593
545.828 3.33193 0.0549581
485.074 3.65512 0.0644178
738.112 6.31124 0.0773328
538.361 4.4133 0.044685
763.83 5.72946 0.107662
459.395 4.33911 0.0433945
281.73 2.47891 0.0999357
334.418 3.311 0.0683525
684.595 7.5553 0.105565
492.461 6.2724 0.122569
303.736 3.9913 0.044059
1079.69 11.2985 0.200237
402.731 4.72372 0.060345
1005.01 11.8335 0.138269
1099.86 13.5325 0.220508
639.909 9.06938 0.0888918
624.318 8.27068 0.157101
134.443 1.92178 0.0730709
324.429 4.58523 0.0768283
915.593 12.2248 0.36496
440.374 7.10198 0.0933941
588.217 8.48975 0.243859
412.437 7.81981 0.179668
389.439 6.23339 0.111996
823.604 13.9796 0.270933
510.933 9.55764 0.143342
553.625 10.5367 0.204614
272.432 6.03711 0.182437
725.17 14.257 0.430751
475.604 10.4609 0.352725
609.131 14.1925 0.333081
898.033 18.6376 0.544617
680.801 15.7484 0.358346
247.514 6.07103 0.197371
817.609 21.0521 0.533326
536.458 12.065 0.446166
163.862 5.16947 0.133808
489.373 12.4548 0.346954
657.955 16.4701 0.320253
594.985 16.8014 0.431843
717.84 20.1911 0.400418
408.779 12.2059 0.337582
531.389 14.9027 0.496501
281.118 7.31156 0.211676
416.915 12.6063 0.593395
299.295 10.1276 0.278672
418.825 13.5031 0.567612
549.146 19.1037 0.597565
442.57 14.8681 0.544148
680.266 25.0397 1.07431
514.556 18.4522 0.764502
470.216 20.1762 0.840832
209.195 8.85628 0.270413
316.018 12.0962 0.464389
484.397 18.6241 0.760258
304.132 11.4196 0.531667
101.859 5.02538 0.296936
224.653 9.49526 0.360306
497.9 22.2933 1.07423
204.056 8.59458 0.364892
588.17 25.1459 0.95191
591.241 26.8272 1.28844
423.203 22.0631 1.12384
518.337 25.2668 1.21633
113.755 5.96662 0.500807
240.362 10.1144 0.365631
370.186 18.9507 1.06625
166.548 9.96097 0.465712
507.258 23.7044 1.322
216.394 11.1176 0.724314
172.408 9.10216 0.623225
314.968 17.4835 1.01565
207.752 12.8044 0.814509
278.874 15.0103 1.10319
214.403 12.7711 0.745241
654.797 41.9761 2.72685
263.971 14.479 0.930021
210.025 12.8217 0.832272
215.837 13.1867 0.99561
237.508 15.4047 0.992579
162.717 11.8249 0.859155
150.35 11.5894 0.849001
180.414 12.8164 0.836126
313.286 20.0741 1.55826
267.314 17.8667 1.51008
166.024 12.1167 0.736617
134.613 9.97337 0.675683
164.265 11.9689 0.670087
360.436 28.2089 2.18261
127.142 10.7554 0.900975
225.491 15.3609 1.0526
248.073 19.4225 1.68875
197.352 14.3115 1.06565
250.322 20.7497 1.76043
240.483 19.4702 1.59134
327.669 26.83 2.05679
99.1688 7.69325 0.574595
132.224 11.7649 1.1977
163.316 12.5065 1.25685
233.045 23.0491 1.99134
146.109 12.0868 0.886771
183.388 15.9989 1.54045
128.006 12.0599 1.12875
146.647 15.0478 1.65951
244.876 21.5517 1.96704
118.441 11.1825 1.27013
208.988 19.3398 1.8466
148.995 14.4844 1.2131
121.523 14.5289 1.54951
163.929 18.0313 1.59667
98.6344 10.2344 0.871781
125.282 12.0871 0.897162
164.199 18.9953 2.08426
178.425 20.2669 2.20461
114.555 13.1495 1.20783
121.408 14.4554 1.62416
219.646 22.1175 2.45244
125.53 15.0114 1.69714
164.333 15.74 1.79003
270.542 30.6747 3.52889
106.428 15.6922 2.10188
233.32 25.0048 2.73523
205.808 25.6764 3.29139
143.349 16.3963 2.19571
156.636 18.2334 1.91205
151.828 19.0204 2.54608
134.856 19.1351 2.50329
149.38 19.8309 2.90111
280.291 34.7583 4.29803
214.482 28.8243 3.78251
131.991 18.446 2.37189
197.593 26.2728 2.95855
256.389 36.35 4.52035
215.224 30.1601 3.93174
152.348 19.5232 2.45348
85.837 11.544 1.87611
147.857 21.2004 2.97301
209.82 28.8384 4.0308
100.769 14.6488 1.98343
135.575 21.7171 3.05438
117.136 18.6147 2.64472
79.7715 13.3183 1.96022
100.295 17.697 3.01539
135.789 20.0483 3.13716
148.685 19.4246 2.92672
182.153 27.1778 4.42219
152.57 23.3501 3.48379
152.904 26.2015 5.04733
135.968 18.6622 2.5987
121.654 22.7685 3.87967
99.5775 14.5375 2.36351
141.829 23.861 3.91298
83.4901 11.6113 1.97079
98.1327 17.2043 2.85691
306.516 52.6836 9.08346
101.454 16.0737 2.85531
76.3955 14.2896 2.366
159.689 26.892 4.69248
119.41 24.4251 4.3797
110.703 19.7554 3.5037
82.558 13.0896 2.00545
170.748 31.2597 5.16539
82.9232 14.6137 2.88359
91.2183 17.2237 2.7936
105.829 20.3211 4.129
43.9425 10.2557 2.24951
68.8401 12.6618 2.6044
60.5053 12.1088 3.04217
90.8057 19.5235 4.28099
104.64 17.6342 3.01462
122.693 24.5812 4.6065
93.65 20.5767 4.49053
100.384 19.6539 3.78274
96.0961 21.4566 4.321
170.338 36.1905 7.57621
101.302 21.0274 4.92489
67.618 15.2968 3.21966
82.9707 17.581 4.15466
95.6624 19.7044 4.2756
76.3684 17.0533 3.40888
89.5807 22.6169 5.40968
115.672 26.0083 6.14546
71.9976 16.2835 3.95485
27.5099 4.52266 1.03116
68.538 18.2392 3.95866
115.29 28.2232 6.24669
126.2 29.6324 6.59003
84.1347 19.6952 5.10346
35.4218 10.2798 2.92879
94.1075 23.9015 5.35476
91.6109 24.0061 6.6033
125.693 29.3898 7.13416
83.6985 17.8181 4.00955
105.983 25.9384 6.28432
84.8212 22.2198 5.59231
73.8359 18.4303 3.99039
74.7951 17.5694 4.22586
52.789 13.4799 3.3479
79.7708 21.9049 5.68832
83.5267 21.2994 5.16263
70.8298 18.7176 4.21311
70.1531 21.4695 6.4827
59.4866 19.2619 6.17472
60.24 11.3112 2.1223
70.6924 19.2487 4.78048
93.051 27.5141 7.6424
96.7822 26.3598 7.4015
44.1609 10.5854 3.22986
34.9007 8.90971 2.08153
70.5135 20.1061 5.31262
58.4809 17.5766 4.49875
35.5915 14.2914 5.22561
68.2164 17.1091 4.7421
49.6318 16.9523 5.61145
91.5682 26.0074 7.06352
109.415 32.1413 8.48654
60.4656 21.598 7.71842
54.8058 16.2549 5.02331
148.112 44.1388 11.734
51.1876 17.1282 6.03454
53.5299 15.9717 4.67662
74.1992 24.1774 7.88012
64.1048 23.1883 7.70526
82.4325 25.5267 7.68823
45.0761 12.5132 3.59569
19.0303 7.83963 2.50298
73.384 26.5149 9.3259
48.2124 14.1794 4.36633
76.5476 22.5049 6.77108
66.4806 22.6599 7.66187
78.62 28.297 9.22522
31.5098 11.5635 4.59021
69.0116 22.302 6.94351
37.2987 15.2188 7.04512
72.797 19.1846 4.44234
72.242 24.4913 7.51989
69.1635 26.1057 9.26323
76.6876 27.5712 10.1164
97.2531 35.4197 13.0075
114.142 37.0871 12.3176
41.0732 13.1574 4.24651
64.8154 22.5158 8.16222
23.8441 8.55359 3.69235
52.0259 18.6917 7.09623
40.4492 16.7654 7.01611
60.0878 20.3187 6.45008
62.6099 23.8188 8.79372
94.6576 35.8078 13.546
80.8944 29.51 10.0894
49.7325 21.8098 9.47914
88.8753 32.215 12.2858
48.149 19.0976 7.48384
50.9893 17.4363 6.25114
59.4192 23.6229 7.97603
33.4788 16.2372 8.67097
56.8402 18.4003 5.98659
74.9334 31.1345 12.0663
39.985 13.3688 5.04509
57.5176 24.7005 9.1165
35.2678 14.5084 5.80317
37.8624 16.2784 6.70555
57.6928 29.8206 13.9333
46.9543 17.4144 6.43846
69.2873 31.9499 13.6473
28.2757 11.4454 4.70362
41.5033 19.4688 9.13971
69.1065 25.4135 9.3293
47.2159 18.3919 7.52607
20.2964 9.46722 3.54294
35.8854 15.2208 6.5555
36.5344 14.9616 6.54353
45.8499 18.235 7.93824
122.199 50.8795 21.0793
27.4563 14.1172 7.68294
34.0498 14.8502 7.72305
53.8346 22.8181 10.1102
55.1277 24.353 10.2149
24.9441 12.4291 7.97821
21.5404 9.39977 5.55893
36.6616 14.9357 5.89403
18.4666 8.43512 4.0229
43.4379 19.073 9.28119
46.3167 20.3135 7.11417
31.2964 16.9951 8.42044
34.1298 15.3935 6.62836
32.9993 16.6613 7.89843
48.6554 23.9336 11.12
25.5075 12.2446 5.97282
24.5153 12.063 7.59701
37.6575 18.5468 8.06363
39.9441 16.9762 6.6899
25.1437 13.7378 6.7966
40.9335 23.3287 13.007
49.73 24.0606 10.5305
44.2615 22.9515 10.7609
31.3608 17.4046 9.13616
31.5624 15.7271 7.96119
30.6429 15.0609 7.66729
24.7632 16.2286 9.5754
65.8023 30.1331 13.719
20.9037 16.0772 11.0423
54.5153 26.8107 12.4522
30.0377 18.8847 11.6596
23.3816 10.6006 6.36418
86.6534 42.1642 20.6313
50.7143 25.1278 12.0591
26.3703 14.4752 8.27468
44.6131 29.0469 16.6661
33.5372 15.4317 7.22485
26.9538 20.7024 14.79
60.1857 25.0076 10.9553
54.897 31.4525 16.4144
43.456 24.8579 14.2133
32.9962 18.7224 10.7211
39.3483 20.3432 12.2251
66.6781 39.1413 20.8443
25.7208 14.6224 7.24228
23.8343 15.6503 10.2282
20.2595 13.0024 7.81683
48.8338 29.1958 18.0773
36.9007 17.9124 9.84658
37.9463 23.72 13.5121
25.2869 15.3036 9.42156
52.8738 34.9399 20.4879
30.9859 20.412 14.6917
40.8177 19.4099 11.0327
29.6126 20.281 13.5835
33.8572 19.2785 11.2343
25.4521 13.7543 7.57078
23.3976 14.2694 8.12556
20.1483 10.7361 6.34034
34.8281 23.7694 14.6029
47.3321 31.6676 22.2428
48.9112 26.0107 14.553
41.3833 23.2368 10.4127
29.1791 20.3224 12.2199
50.7099 33.2854 18.8714
39.2837 27.4671 16.6956
15.3198 17.5618 15.1085
34.4499 17.1085 9.31518
14.6647 12.5444 12.5558
55.2234 32.299 17.7532
26.6551 17.4776 14.3337
59.2451 32.9199 17.8438
48.4394 35.3345 23.9206
38.4432 24.3933 14.3843
17.4861 11.8984 7.32539
31.7368 28.6058 21.8039
53.7685 35.9659 24.9406
26.1947 14.2783 9.32508
43.9982 31.036 20.0394
18.6008 16.5899 14.6225
23.2993 13.6588 9.75406
31.2537 24.483 17.4855
27.7888 17.6943 14.5878
50.1327 26.7251 12.49
29.0434 20.4023 15.4463
31.3851 20.1325 13.759
33.742 27.2364 21.4293
28.1961 15.6498 9.73038
54.538 39.6215 25.7527
27.0548 20.0021 15.834
38.8022 27.8721 18.54
39.6216 30.7298 23.6556
28.5048 16.5546 12.231
34.8187 22.6466 12.6154
50.9558 44.0513 32.5202
27.0805 19.7525 15.1512
26.3706 21.4428 17.8471
35.3439 21.4521 14.5529
28.613 22.2998 14.3531
17.8588 10.8246 6.93223
51.9332 44.3839 32.2511
37.3944 29.1372 21.5654
32.9289 32.3247 28.7664
42.0743 27.3974 18.2439
26.4815 21.4039 13.9962
23.6934 23.1206 20.6481
26.4 22.4075 19.3991
16.49 7.79855 5.08283
25.0469 19.7239 16.4068
14.7092 16.1211 16.4889
26.3065 14.2121 9.25523
18.5183 8.14183 4.074
38.8781 33.3231 24.7405
20.7496 19.2507 15.2856
23.64 18.8426 14.2462
17.449 17.4818 14.4679
6.51672 6.47037 7.83056
22.0752 18.0158 15.1701
14.995 7.86656 5.26792
18.8365 16.9868 16.5648
23.7742 15.4453 11.0861
58.5944 48.5896 37.6136
15.4796 9.67747 7.8321
20.4103 18.3957 13.7585
18.7169 20.7876 18.6165
19.8416 20.9952 23.2659
33.2272 18.508 10.836
16.2127 18.1247 20.4935
52.1998 35.4273 23.096
25.058 25.0578 22.1992
27.6032 23.3552 19.678
22.3663 18.9347 16.9747
22.8903 21.4942 20.2715
33.0104 27.2574 21.9365
15.6649 10.7567 8.93628
19.9999 19.1306 17.9795
10.0046 9.29123 11.9846
31.361 22.4201 19.0019
44.5397 36.9123 24.7651
23.8342 27.597 30.2472
38.9186 34.781 31.1664
14.812 10.417 9.09073
6.76223 5.12434 5.33779
35.8332 38.4696 34.3359
19.593 16.6491 14.8019
24.8187 22.7944 19.5053
15.8695 16.3435 19.3007
34.3842 32.6851 32.4133
28.7803 26.5542 24.3535
20.713 14.5133 12.9869
32.2213 29.722 26.4541
23.1214 20.9429 18.684
26.1044 22.4343 20.2373
20.6878 17.8083 16.4111
23.5366 18.6996 14.9102
22.9069 25.0674 24.782
23.3668 24.5717 26.1501
23.7837 17.7013 18.0991
43.9823 34.7773 24.8615
25.467 27.9463 27.8025
16.522 20.9616 23.9233
31.7403 26.5922 24.0392
21.3228 20.0546 21.9019
26.4465 20.3461 14.5677
17.1219 17.2136 16.9067
18.0561 19.5278 20.305
22.4177 20.3402 18.593
17.6679 21.7998 25.2437
19.4164 12.8717 9.04467
15.5493 20.0444 24.1575
40.0549 34.7507 26.6184
14.0994 18.8527 25.0427
23.6417 19.6755 20.4894
26.3234 29.5164 29.3117
17.0262 20.2866 25.1704
21.932 20.092 22.4456
20.1863 21.8003 24.2979
14.0761 9.08953 9.78067
30.9904 35.9657 35.7972
21.2949 19.1635 19.0336
19.425 18.1366 16.6601
18.4802 18.2176 16.632
15.387 17.6542 20.5479
17.008 14.302 13.8576
23.6139 27.1923 30.5295
22.6196 21.1536 18.859
22.7307 30.1392 37.1898
24.6328 22.3536 21.0197
19.0331 25.4169 30.4431
19.6957 14.9229 13.4289
8.51929 10.6817 13.9453
7.66346 12.7464 21.0317
19.529 12.2591 10.2319
15.3851 12.1841 10.2585
12.2453 12.4709 12.4359
20.5111 21.7428 24.7835
18.3989 15.6126 17.1817
19.4324 23.2899 30.3737
35.0984 33.6648 30.267
11.3822 19.207 32.9575
44.1002 41.3957 35.234
27.7849 34.3886 40.8038
29.2066 23.043 18.293
10.8116 12.3689 13.9754
20.3064 19.8488 20.2304
8.79499 11.3927 18.6901
40.8894 41.5042 35.8873
19.716 25.9148 26.4141
14.1155 20.2285 28.6164
19.0972 20.5277 22.9544
11.8997 17.5265 28.3103
26.6753 23.447 18.1022
13.5543 18.2534 22.7502
13.5774 19.9573 27.7201
24.1699 25.5074 23.9362
4.80003 5.89188 9.13573
9.92017 13.3244 17.8199
13.6437 12.8606 16.3962
19.1974 22.4187 22.6379
11.7815 12.5356 18.2629
21.6051 24.159 24.5146
16.8792 20.2499 22.2473
24.3676 35.1267 43.8426
10.8355 15.6415 31.2585
25.2204 23.1639 19.8943
16.2448 23.4643 29.5232
21.2277 23.2913 26.3118
26.4191 27.9546 27.0706
16.2368 20.3554 22.8457
9.04694 13.1258 22.3309
29.721 30.8751 26.6202
13.3435 19.3064 26.2269
20.369 26.8692 34.6236
13.0768 17.1294 28.2846
16.2052 13.4829 18.2691
33.0129 32.1196 28.5634
29.2646 40.0123 42.3477
8.27256 15.2612 25.2912
31.4891 38.4458 45.4827
9.36069 12.2122 19.8569
12.4314 12.6695 16.7375
22.8544 29.0892 33.1251
7.53764 6.52667 9.52532
21.8062 27.2986 29.4888
9.14437 12.7216 16.6323
12.2268 14.3996 17.7142
17.8212 23.2951 27.7318
3.65078 4.02784 7.28608
23.8301 37.6718 51.8259
12.7334 14.3805 22.0871
24.1128 33.8854 43.954
11.2302 10.6661 15.2168
12.222 14.7558 16.6859
7.80209 12.2747 18.0716
10.9282 15.9077 18.9724
13.211 18.7241 25.8032
17.4369 22.7417 31.1206
17.9144 23.9075 28.7268
6.36819 9.40638 17.528
15.2582 21.7517 28.7036
13.3343 18.1524 19.3716
12.1848 23.6698 37.604
9.59149 16.9969 33.0541
13.6296 19.7634 45.2435
45.1653 47.78 46.195
16.8454 17.7851 13.7566
13.4779 28.5549 43.3081
26.8689 40.4628 49.8548
5.92187 10.6131 24.7116
15.5131 20.7251 27.2358
17.1223 22.3514 28.5618
9.66862 13.6673 19.2941
8.55908 13.5567 21.9766
12.3072 15.5768 23.35
15.4713 19.0171 21.0957
5.10276 11.8433 29.3213
19.2437 25.8423 31.597
11.371 14.408 20.3241
18.9608 34.3791 55.2763
16.0198 22.0359 31.8166
11.8017 12.2259 15.4923
17.7027 31.951 43.728
7.2635 8.84848 12.8039
11.3194 24.892 46.3109
23.0623 35.3206 53.6852
18.8612 20.4806 29.988
11.0513 11.4084 19.84
16.9787 21.6067 23.4281
8.45178 13.2378 24.3352
12.1306 14.7879 22.9726
14.1507 20.5253 26.3051
6.97122 11.2282 21.5403
12.0149 17.1558 27.8985
13.9136 17.8067 26.1893
10.0045 15.7615 27.0596
21.908 31.9929 49.2027
15.2194 16.812 21.8951
12.28 18.4904 32.8669
25.715 37.1729 46.6257
10.4656 13.0509 19.9132
10.0617 12.1652 15.4497
11.9613 22.5808 41.9833
19.7207 25.178 31.4697
9.78419 16.1742 27.2039
12.5532 19.414 28.7404
7.72171 9.00997 16.4279
10.7819 17.7477 30.484
13.5369 14.9409 16.4918
9.63445 18.8233 31.2011
7.17315 12.0933 24.9461
6.11674 8.26082 17.4814
7.96558 13.4165 25.3128
13.6854 22.6893 40.3718
13.0688 11.133 10.3883
11.437 19.3742 31.3638
16.2368 22.9436 28.6802
8.84785 12.1819 24.7422
26.7301 48.7062 64.7019
3.99953 5.9414 17.5615
9.89337 20.5132 37.8003
6.98543 10.0807 25.6797
11.8661 12.8201 14.9219
6.01696 8.58116 17.7486
11.0827 18.9783 32.0088
15.0032 29.0538 57.2255
25.7323 32.7945 34.5489
8.74809 13.209 15.8616
6.31171 11.3611 20.4498
10.4356 15.0728 18.275
4.73452 8.44235 12.0154
4.99263 21.8734 56.1364
14.829 11.7344 12.6215
8.01953 10.2111 15.7213
11.4181 18.7167 31.5688
6.80745 8.61343 22.9282
20.5167 27.816 28.0627
6.23667 8.82345 14.4171
16.531 34.2973 48.7422
6.33324 11.3341 22.8252
8.89309 12.7455 15.774
8.87205 18.5721 30.1912
11.2253 20.8379 34.3584
6.21428 10.5683 19.4533
6.93795 11.9878 28.9604
18.6569 29.8227 49.096
17.184 30.6301 49.9516
9.77768 16.2302 25.81
8.85284 14.0489 23.1844
10.5341 17.4417 25.8788
6.26661 10.6678 17.7548
6.23764 16.6722 33.7343
9.45296 16.6873 35.9564
9.23524 15.1447 28.897
9.97613 15.3877 28.1624
12.0743 18.5718 37.2309
16.4979 25.941 39.3826
12.5144 17.0937 19.7219
18.9019 40.0721 63.7395
6.03004 10.7689 26.0333
6.51988 8.87965 18.7865
8.26368 18.6131 38.602
12.2931 18.6559 39.3474
16.8618 25.5448 32.741
4.94394 8.94041 17.5033
4.33746 12.034 31.9723
10.2007 13.9719 21.0887
8.78963 14.9017 25.1277
6.24003 10.4593 19.6319
6.00476 9.57793 20.2049
10.4767 17.407 25.7609
6.88355 15.6143 25.8013
5.47612 11.9888 31.1568
12.181 17.7136 30.0993
12.3733 23.5619 33.6386
8.09281 16.993 26.5901
3.43851 11.5845 30.5332
9.99195 20.2207 50.148
13.2047 12.1179 15.9644
14.4164 26.9831 36.9495
9.26721 22.5434 43.6317
4.01821 10.8716 34.7717
9.9231 12.322 16.2878
5.76475 8.56818 17.1692
8.31232 19.3547 43.0551
11.8522 12.8951 14.4559
9.98479 29.3553 64.7312
14.2571 20.8494 37.3738
11.4586 19.6079 39.8042
13.1817 16.6428 23.3743
12.6361 23.3723 31.1435
7.03647 16.149 28.8307
9.45214 22.6891 45.9258
9.92386 20.577 40.8449
6.89486 14.3287 36.6886
6.66618 10.841 21.6047
8.12122 17.6275 38.9067
4.07958 8.62551 32.3118
12.6579 18.3674 21.9626
2.12854 7.28894 25.9442
7.32531 15.7181 35.4578
8.33303 9.44785 17.2879
10.2755 21.6256 44.375
11.1659 19.3484 39.0678
7.81756 11.9698 26.1297
5.98836 6.12481 13.3016
15.4239 26.427 28.0935
10.9022 38.6891 90.7696
13.4754 21.371 48.7371
15.4668 24.718 41.7074
11.2115 24.6078 53.2756
18.8059 37.767 64.8338
11.3633 19.9373 30.4275
7.51191 17.8443 43.7547
9.48229 14.6067 25.8132
6.22627 11.568 26.8532
5.91753 6.92209 6.69998
2.11988 6.54264 22.6905
9.51744 16.1678 21.066
5.51858 17.9244 46.2631
8.60304 14.5444 36.2447
10.2231 15.1391 25.4898
12.1865 26.6977 58.5808
9.94426 12.37 16.9944
7.65883 18.1087 38.574
6.07824 10.1333 24.1625
7.65356 11.1804 13.8101
3.3074 11.9276 29.4514
11.1743 23.0455 39.6374
6.08449 13.6339 30.3104
5.53614 12.0432 22.873
2.60542 8.05834 30.4772
13.0933 26.1947 43.5929
4.23526 9.05661 27.8891
7.49152 8.99463 15.5165
6.50071 18.3978 40.5515
4.38729 10.0177 44.2122
14.6563 17.6318 23.1682
10.3997 22.8494 30.9827
3.30259 6.82019 18.2816
6.46329 16.2738 30.0488
5.43411 11.1996 27.5997
9.52076 22.0239 38.657
4.10924 10.3958 28.6626
4.94613 9.59358 24.6516
6.80287 15.7066 38.5474
7.56622 13.3846 27.2085
7.94234 19.6881 46.6963
7.18347 9.12171 16.7092
6.15378 13.5527 33.3834
8.5806 15.6127 29.497
6.04276 10.9342 19.8954
4.27116 11.911 37.8533
11.1852 16.3756 22.4568
5.33306 9.63116 19.2697
8.38221 21.5198 36.6745
2.75586 9.28421 31.5108
4.48521 9.12046 24.1432
6.7969 12.2893 20.6155
8.33803 18.3767 31.0483
3.36916 10.8389 38.3175
11.5117 22.8407 32.7031
3.88227 8.59248 16.727
2.24895 3.94173 12.6198
4.65806 8.62207 21.2661
9.43115 24.052 47.444
3.98921 5.63848 14.3563
9.44432 26.1386 55.4
8.48387 20.0588 49.1761
5.49525 9.63109 33.2474
11.2475 25.2554 44.9756
6.54104 18.4616 47.5824
8.28259 12.3841 23.9557
6.67662 15.2112 28.3843
2.17451 4.48978 15.3374
3.73059 11.7461 48.7749
13.8031 27.5653 45.5194
10.1364 25.1922 43.3857
5.06968 14.2035 46.2714
9.35105 17.9753 28.9
3.89024 15.1049 44.7737
6.62742 14.501 31.5052
4.0721 5.35637 13.3394
4.80237 11.0741 33.404
7.44173 13.6328 23.9699
4.16169 12.4946 36.9292
7.13605 14.147 28.5888
5.56762 13.9742 30.6915
4.04962 9.36643 21.14
2.88002 10.6636 33.6759
4.91336 6.6959 20.4175
6.61604 15.8251 36.5516
5.15151 10.1885 34.216
7.00434 11.5335 24.3972
6.392 14.2069 38.8057
10.7061 20.5374 23.9255
3.91438 16.3716 55.2304
10.5844 15.5129 23.0915
4.25977 7.15046 11.9211
5.70386 23.5932 52.8571
3.71952 8.92171 32.023
6.76338 16.3308 46.884
7.48044 11.4916 19.8862
4.56394 13.3864 36.8039
4.64854 6.41451 20.5916
8.6522 18.3751 30.6002
2.47111 8.40605 37.3129
10.5563 18.3361 37.5565
4.24428 10.4516 30.4947
5.97593 11.7809 20.719
2.88826 8.14117 29.1615
6.07905 13.0706 22.8021
4.03782 9.42907 25.6365
4.75191 13.0635 25.8868
4.74641 9.63499 19.3424
4.22539 16.7834 51.076
8.01795 15.1581 27.0406
2.87615 4.67872 17.1343
5.28406 15.1722 27.0362
2.4007 10.6014 46.3423
9.98421 22.0087 38.988
