# pn-170911/RbIIR-43-AMC2-1280-1959.psd
# Power spectrum* (dif=0,1,2) (really just |FT|^2)
# NOTE: only the first half! (symmetric)
# weeks: 1280-1959
# 345 clock-days, 202 excluded
# PSD: 1441
828.494 0.0878704 0.045391
22491.4 0.470362 0.0972532
92798.8 1.99107 0.0952976
17998.5 0.671421 0.100267
41528.3 3.10672 0.0943362
5855.95 0.593017 0.0956642
5253.02 0.860628 0.0969494
2812.65 0.581771 0.0973039
5451.09 1.55239 0.0997724
1780.97 0.620712 0.107646
3824.92 1.78799 0.0941419
1340.31 0.677173 0.0987117
2942.71 2.00711 0.0937158
1054 0.744501 0.109659
3164.96 2.94198 0.101298
822.407 0.822689 0.0892316
3004.31 3.5275 0.097741
757.496 0.948972 0.0985146
2592.59 3.85095 0.102076
832.63 1.28123 0.0943166
2308.21 4.35651 0.0991226
787.244 1.47917 0.101025
2163.23 4.97335 0.105791
721.208 1.66665 0.0995303
2063.23 5.55263 0.102005
747.257 2.01089 0.104826
1675.15 5.49783 0.111842
651.705 2.15986 0.101357
1711.83 6.24452 0.115957
719.882 2.76941 0.0993598
1529.98 6.43356 0.131025
662.81 2.94026 0.108864
1290.88 6.09323 0.141155
610.086 3.06078 0.106074
1259.47 6.72408 0.134457
501.466 2.93971 0.111437
1120.4 6.82023 0.143304
691.252 4.30514 0.119834
925.663 6.10231 0.129854
588.26 4.11304 0.11792
1001.3 7.55741 0.135331
493.714 3.85267 0.118199
932.982 7.73319 0.167421
540.932 4.66155 0.14087
689.203 6.22892 0.162632
601.534 5.59287 0.14427
810.844 8.05615 0.176378
527.74 5.59847 0.143818
729.238 7.74006 0.184681
495.538 5.40999 0.152915
623.799 7.17644 0.168857
439.901 5.18717 0.170081
590.421 7.41699 0.186093
489.745 6.30823 0.177101
509.136 7.02831 0.18366
410.686 5.83997 0.183667
523.332 7.75224 0.20523
395.186 6.13662 0.176148
510.028 7.86228 0.217533
367.659 5.99263 0.185186
461.19 7.60525 0.221933
377.66 6.55371 0.201975
459.732 8.10862 0.228449
389.875 7.39538 0.207431
390.03 7.45322 0.223652
346.094 6.6879 0.20019
397.395 8.2309 0.248144
333.9 6.88878 0.227532
339.231 7.4481 0.250868
358.621 7.96771 0.265001
365.537 8.22693 0.281523
304.587 7.10646 0.232845
350.525 8.47291 0.280253
318.446 7.90864 0.27175
322.882 8.1987 0.292274
302.504 7.92672 0.289706
326.439 8.59385 0.310035
322.504 8.8802 0.308539
290.177 8.39925 0.306009
344.748 10.1385 0.361271
287.562 8.63421 0.327891
270.526 8.51639 0.335383
242.923 7.4736 0.330687
263.79 8.57488 0.347297
276.784 9.25686 0.347886
272.766 9.2256 0.39205
240.814 8.3346 0.368494
250.065 8.80912 0.409164
250.572 9.01549 0.395978
253.072 9.23738 0.423704
249.366 9.78095 0.427721
221.83 8.38005 0.405074
248.845 9.61909 0.453776
239.882 9.66354 0.47197
222.325 9.08588 0.484886
238.299 10.1992 0.514667
317.233 13.6446 0.649026
212.711 9.36929 0.489939
200.993 9.09563 0.501906
223.253 10.2379 0.527545
235.565 11.1333 0.582573
189.548 9.11183 0.509756
195.744 9.67317 0.52977
214.288 10.4379 0.604322
173.216 8.94853 0.525102
170.035 9.07514 0.574853
178.001 9.40332 0.529674
212.828 11.7521 0.702413
199.867 10.8235 0.640925
186.204 10.2917 0.652387
182.82 10.1709 0.656626
198.119 11.4365 0.734125
199.909 11.5709 0.800154
186.891 10.8099 0.716686
174.815 10.4296 0.693538
175.983 10.8581 0.72197
179.283 11.0748 0.779451
141.318 9.31099 0.675437
163.794 10.6398 0.754901
165.29 11.1213 0.806293
154.653 10.4905 0.790052
157.772 10.7128 0.812968
145.379 10.1041 0.790401
168.698 12.1639 0.974154
147.645 10.6306 0.850226
148.14 11.1119 0.883164
150.603 11.0648 0.890425
158.834 12.0454 1.02705
154.11 12.0369 0.979033
138.741 10.7657 0.951863
148.835 11.6277 1.01434
133.314 10.793 0.983509
133.231 10.8092 0.925702
137.989 11.5656 1.04424
138.389 11.6472 1.07409
151.279 12.5132 1.18722
139.557 12.0388 1.10626
121.454 10.68 1.05095
135.782 12.0548 1.15791
116.5 10.3965 1.00983
126.473 11.4879 1.14911
120.161 10.8067 1.05996
128.332 12.0517 1.23971
120.553 11.461 1.18564
125.752 12.3029 1.28397
135.292 13.3644 1.40092
125.524 12.1747 1.22826
132.315 13.2968 1.39201
113.224 11.7273 1.21849
115.161 12.0388 1.36659
144.235 14.8612 1.59187
123.061 12.9159 1.46563
111.551 11.9502 1.37108
114.978 12.3834 1.41039
120.976 13.1382 1.48525
114.024 12.8033 1.57783
119.277 13.6757 1.58509
120.099 13.6072 1.61301
105.376 12.3811 1.52109
115.98 13.5977 1.66716
112.248 13.1847 1.58517
111.923 13.0548 1.70794
97.6191 11.9376 1.5634
96.4568 11.9486 1.5465
99.4426 12.5084 1.65425
100.427 12.8122 1.70517
99.8234 12.7798 1.64983
93.8364 12.1075 1.67575
100.24 12.9438 1.7619
102.575 13.3366 1.80441
94.567 12.9185 1.81208
92.5075 12.3875 1.74756
98.1308 13.2104 1.89809
103.225 14.4853 2.13622
90.6636 12.3446 1.78422
88.8016 12.5826 1.93731
100.407 14.3934 2.13747
91.505 13.1282 1.91445
85.2885 12.4482 1.87188
93.4637 14.0397 2.21009
99.2938 14.6677 2.31395
87.4172 13.3505 2.10029
94.3913 14.6331 2.36036
81.8495 12.703 2.02809
86.6064 13.5901 2.25919
80.1013 12.9529 2.16613
92.0714 14.8179 2.4899
95.2506 15.2653 2.56383
86.6482 14.5049 2.51525
96.3061 15.7271 2.67846
100.588 16.3067 2.81859
88.7851 15.0833 2.75896
163.808 28.0372 4.79257
90.1304 15.7618 2.86543
72.7603 13.0386 2.39157
79.2744 13.5524 2.43717
75.6345 13.5069 2.49309
85.2284 15.2699 2.84588
81.2627 14.4696 2.6992
76.5097 14.2678 2.74088
76.6445 13.8095 2.65347
78.3643 14.6827 2.83162
71.5285 13.169 2.58185
83.2837 15.8779 3.16804
76.319 14.4477 2.82192
79.1661 15.1339 2.98269
72.5288 14.3997 2.88629
75.983 15.2506 3.11889
77.2728 15.3287 3.20571
83.2387 16.9776 3.47425
80.4093 16.1447 3.31792
71.5611 14.5723 3.15849
79.9972 16.3765 3.49562
69.8605 14.8963 3.25921
76.828 15.9862 3.46943
72.8223 15.454 3.34409
69.1201 14.5594 3.2299
68.8405 14.6342 3.30747
75.0576 16.2238 3.63881
74.2824 16.7256 3.82593
67.799 15.0941 3.41726
62.2607 14.217 3.30052
74.4545 16.9277 3.90476
76.084 17.2338 3.97584
69.2884 16.2777 3.87474
74.8365 17.0547 4.01553
64.1562 15.4804 3.70755
74.1421 17.5489 4.27747
64.6384 15.7805 3.92801
67.9438 16.0522 3.93461
70.8288 17.2874 4.17888
65.6911 16.5898 4.12379
66.5779 16.7318 4.32443
69.4711 17.1902 4.43568
70.7272 17.5886 4.36402
71.5864 18.4522 4.86333
64.5337 16.5323 4.2883
64.6459 17.0124 4.56361
72.8106 18.5784 4.88108
66.915 17.6732 4.81417
64.1856 17.0112 4.56882
69.6572 18.6827 5.12957
60.9475 16.5843 4.68191
64.5241 16.9878 4.66245
64.8471 17.4771 4.85942
63.6781 17.6796 4.96771
58.2699 15.9052 4.52616
60.8067 17.2606 4.8314
59.2365 17.0532 5.09957
64.8144 18.4512 5.40902
58.4953 16.4643 4.81673
60.5656 17.0141 4.95988
64.976 18.4977 5.44717
54.793 16.309 4.92765
56.7949 16.8705 5.08092
60.3291 17.8571 5.48718
63.5154 18.8928 5.72075
59.7444 18.0264 5.57316
56.2892 17.154 5.32196
63.0728 19.5481 6.09766
64.3544 19.6463 6.10187
52.9733 16.5539 5.30448
59.3498 18.6753 6.03497
55.0925 17.2867 5.56002
57.7145 18.1095 5.83414
58.0663 18.9208 6.13175
57.768 18.9369 6.4457
55.1868 17.8985 5.77043
54.5457 18.1796 6.15308
58.2534 19.3167 6.49216
54.5174 18.7931 6.60404
53.8327 18.0395 6.13465
52.0787 17.3813 5.99394
51.3825 17.1552 5.9478
48.0439 16.3012 5.75614
52.6199 17.8074 6.25576
51.6873 18.0914 6.43714
52.909 18.9588 6.75288
57.9885 20.3186 7.30265
51.4031 18.3301 6.68179
52.0678 18.8113 6.9014
55.5662 20.0121 7.29677
53.1405 19.5025 7.26257
51.0402 18.3704 6.7211
44.8633 16.5598 6.4153
52.8538 19.7706 7.64255
49.7824 18.7953 7.28733
49.8095 19.1018 7.7672
117.995 43.0992 15.4369
48.1986 18.9194 7.68213
50.403 18.9753 7.4273
44.9787 17.4158 6.96967
50.6371 19.6492 7.78465
49.7477 19.2064 7.54595
48.9475 19.0673 7.6556
45.4707 17.9922 7.30179
48.8568 19.3894 7.88101
46.5365 18.4792 7.64468
42.7374 17.7542 7.48532
45.4399 18.23 7.61517
47.6415 18.7378 7.59634
45.469 18.8975 7.95943
51.5473 21.0664 8.86557
46.4849 19.4128 8.2771
43.3783 18.4583 8.02181
45.9039 19.4226 8.3137
43.2296 18.0705 7.60199
45.2833 19.2936 8.49965
46.8208 19.9244 8.51893
44.7781 19.641 8.7601
40.7956 17.6715 7.87721
43.1539 18.9377 8.18229
41.8375 18.6516 8.39355
46.7542 20.6777 9.366
44.3885 19.8576 9.10244
43.4931 19.4169 9.01958
46.0493 20.4009 9.12885
40.5818 19.0769 8.90408
43.5939 19.8834 9.35257
42.1547 19.1966 9.03489
39.407 18.1674 8.5717
41.1885 18.7705 8.81939
40.686 19.3242 9.41923
37.7212 17.8034 8.82316
48.1364 22.2821 10.442
40.552 19.1232 9.27203
41.2209 19.7824 9.65796
41.7148 20.3465 9.83438
38.218 18.5641 9.12436
41.3601 20.0881 10.007
40.678 19.3646 9.3203
43.4979 22.2262 11.3272
38.6967 18.7599 9.13944
39.8176 19.9835 10.2408
44.4823 22.7602 11.6234
43.1418 22.3075 11.6471
45.3038 22.7657 11.507
39.4989 20.0647 10.4987
35.9268 18.5754 9.86531
39.6778 20.9824 11.0233
39.3221 20.1467 10.5995
36.1419 18.5564 9.79176
38.4202 20.5624 11.0712
41.402 22.1163 11.848
39.6188 21.0316 11.2914
40.2436 21.3116 11.4358
36.2277 19.8901 11.0464
40.2826 21.126 11.4593
36.3944 19.6209 10.8691
38.7721 20.8214 11.2314
37.4266 20.4105 11.3514
36.6142 20.5465 11.6497
39.0406 21.1545 11.5615
38.9576 22.2626 12.9486
38.5983 21.463 12.2302
37.2323 20.5076 11.5621
34.859 20.52 12.1551
38.8278 22.1627 12.5752
34.6676 20.1611 11.5872
34.3454 19.8948 11.6499
37.8604 21.1665 11.9286
37.5168 22.5911 13.3795
35.1914 21.4923 13.1443
33.8051 19.8295 12.2707
36.1604 21.326 12.7632
36.4393 21.1631 12.4112
32.4069 19.7865 12.2339
36.3896 21.8947 13.1501
36.0423 22.213 13.3866
33.6111 19.9484 12.2271
34.8001 21.3151 13.1303
32.528 20.2255 12.5079
33.7478 21.0279 13.1899
34.0081 21.3037 13.5343
35.4125 21.9647 13.7434
33.2033 20.658 12.9809
35.7074 22.5181 14.2775
36.0891 22.8733 14.7008
34.6917 22.7092 15.0954
32.9737 21.1119 13.7813
34.7195 22.5736 14.789
31.8488 20.5425 13.6417
31.5382 20.3441 13.8111
31.2688 20.2979 15.1042
79.8576 51.4386 30.8467
30.9099 20.4575 14.0812
32.3393 21.6751 14.4557
28.466 18.8611 13.0926
31.0711 20.8271 14.0402
32.7276 21.6167 14.3056
30.4867 20.6429 14.1495
28.4148 19.4031 13.4488
31.4784 21.5244 14.7925
32.7742 22.8147 16.1437
37.2766 25.7299 18.001
36.5422 25.9388 18.6582
38.5184 26.2777 18.0656
33.7536 23.3626 16.8149
35.8495 24.5109 16.8952
33.9425 23.8624 16.8123
30.6732 21.5259 15.385
31.6179 22.7232 16.4406
34.3705 24.8662 18.1832
31.0025 21.4327 15.4693
30.16 20.9743 14.8326
31.7169 23.9281 18.1108
29.8143 21.1025 15.2715
28.7526 21.0975 15.7969
29.4508 20.7596 15.011
27.8185 20.842 15.9076
28.7945 21.2891 15.9314
29.9944 22.7319 17.1695
30.0496 22.7821 17.3056
30.1558 22.2122 16.4159
28.2022 21.6097 16.7598
27.5985 20.7847 16.0644
27.8997 22.1907 17.5091
28.1166 21.4455 16.2753
26.8779 21.5741 17.3412
26.6344 20.2229 16.4201
31.4846 23.4389 17.9271
29.8855 22.4862 17.3909
29.8489 23.3693 18.6186
29.1143 22.5744 17.9704
26.8237 21.1678 17.0851
27.3335 21.2719 17.1335
28.838 22.409 17.6602
26.8195 21.463 17.6498
27.5509 21.2243 16.2732
26.7659 21.9617 18.1986
26.5625 21.4683 17.7739
27.7883 22.0885 17.9444
26.6202 21.8846 17.8965
26.767 21.8209 17.8607
26.979 22.8541 19.6582
26.4657 21.5827 18.2551
26.1456 20.8187 17.1259
29.31 24.979 20.8973
26.8903 22.3626 18.8289
24.0854 20.2396 17.1
23.3002 19.9228 17.5703
28.7264 24.1682 20.7909
27.9698 22.6434 18.7195
26.6766 22.8231 19.3072
24.1893 21.0708 18.7965
22.8157 19.2202 16.6759
23.8111 21.053 18.8223
24.4646 21.0485 18.2224
23.233 20.1561 17.7854
23.7948 20.6766 18.3931
25.1424 21.6427 19.1345
27.1232 24.0015 21.0098
24.5953 21.9633 20.127
25.7284 22.6822 20.0881
22.7386 19.8485 17.9266
23.0059 20.5119 18.2944
23.4762 21.7254 20.6163
25.0072 22.0711 20.0846
22.6267 20.6259 19.7159
25.7934 23.2303 20.8132
22.7144 20.4719 19.3214
26.3182 23.5772 21.4983
24.7993 22.4923 20.5023
22.7312 20.4435 18.2327
21.5123 20.5996 19.9167
22.1312 20.1829 18.8972
24.1942 22.9866 22.2002
23.9617 22.3303 21.3413
23.9593 22.6484 21.5298
23.6563 22.9212 22.7018
22.96 21.1182 20.5442
25.1728 23.8703 22.9307
27.8607 26.7821 25.5627
25.7309 25.3298 25.4005
24.821 23.416 22.8069
23.6994 21.7598 20.9141
21.7531 20.8293 20.618
23.4357 23.0235 23.0314
23.1204 22.8365 23.4706
24.4082 25.1249 28.8966
52.7641 49.1514 41.9574
25.2421 27.2324 28.9961
23.2589 21.8252 21.5596
22.2114 22.3773 22.8526
21.9427 21.4043 21.5048
22.9469 22.4895 22.1742
20.7767 21.1041 21.2317
20.5191 21.9801 23.9046
22.9552 22.8393 23.4447
21.9399 21.7335 22.2387
20.0346 20.8451 22.434
24.2793 24.8918 25.4854
23.2379 23.9138 24.5804
21.9076 21.8168 22.286
19.441 21.0617 23.4014
23.144 23.1674 24.0132
22.8281 22.9477 23.3852
20.342 21.7929 23.2882
21.5324 23.1588 25.2707
21.9784 22.61 24.2334
19.834 20.9726 22.7036
19.9963 21.8398 23.9376
20.5323 21.7235 23.2101
19.7812 21.9566 24.2997
19.5625 20.904 23.1875
21.0624 23.3957 26.3888
22.2506 23.7858 25.4034
18.7148 20.2603 23.1786
20.8912 22.8515 25.336
20.7621 22.2466 24.5503
20.7224 23.4435 26.5716
23.799 26.8918 29.5763
19.8552 21.9064 25.4686
22.8979 24.8017 27.2653
18.9374 20.9483 24.9789
20.1914 21.7718 25.5153
22.9572 24.8362 26.8883
20.4694 23.2009 26.5359
20.0535 22.6327 25.7174
19.181 21.1362 23.3778
18.564 22.4814 26.7414
19.7093 22.8696 26.8992
22.0177 24.8926 27.8234
19.6051 22.7684 27.0768
19.5767 22.5913 26.6493
18.8741 21.1345 25.0792
19.1237 21.8896 25.5847
20.0383 22.7637 25.4096
17.9717 21.9479 26.8756
18.4734 21.3813 25.4085
17.9356 21.0255 25.6841
20.2022 24.3098 29.0261
19.2735 23.2771 28.1172
18.3408 21.8601 27.0811
19.1 21.861 25.4702
19.0548 23.4106 28.5977
17.6111 21.8937 27.997
18.2278 19.7485 22.7834
17.8638 23.042 28.1769
17.6807 22.1344 28.2604
17.9868 20.9841 25.5807
18.8376 23.2426 28.5683
15.5768 19.8714 26.6202
18.5804 21.7062 26.3487
17.3187 21.3379 26.0228
15.9536 19.5421 25.0248
18.2621 22.475 28.1466
17.1703 21.8235 28.2972
17.8719 21.2239 26.3082
17.1862 20.9743 26.1427
16.896 21.6764 27.4493
15.7044 19.9402 26.3783
17.0432 20.6913 25.5039
15.8503 20.6877 26.7653
15.9003 20.7231 27.1352
15.1124 19.7101 27.0954
16.3746 19.1756 24.0057
16.3057 21.7822 28.3829
16.7638 21.1489 27.3496
17.3099 23.1196 30.8111
15.6906 19.9576 27.0177
17.4951 22.9821 30.1083
15.4654 19.0317 24.5685
14.4598 19.0851 26.4458
16.113 21.0913 27.5328
15.717 20.6928 28.1467
15.9094 20.2715 27.0997
15.656 20.8167 27.388
13.8006 18.0329 25.1116
16.3567 21.2729 28.8541
16.3377 21.5695 28.7548
14.5725 19.562 27.287
14.8076 20.0504 27.8454
15.4011 20.4143 27.7214
14.7918 21.6533 32.1632
14.601 21.377 39.0463
40.3734 50.6035 54.3607
15.3106 22.1753 31.35
13.3734 18.8352 27.8962
15.0495 20.3336 28.6935
16.2177 22.3517 30.4946
14.5713 20.0646 28.5685
16.1734 22.5783 31.2238
15.3875 22.3152 32.0199
15.076 21.0826 30.1361
14.4596 19.8536 28.18
13.8317 19.2088 27.4948
15.846 21.983 30.3551
14.7163 21.2311 30.9996
14.7965 20.5251 29.4571
13.7232 19.7795 29.2928
13.5854 18.3881 26.5122
13.8645 19.913 28.4842
13.1224 19.5579 29.6767
12.6681 16.9462 24.9374
13.5972 20.2916 30.7558
15.6168 21.7745 30.8971
14.0809 20.0181 29.3676
14.3154 20.3791 28.8039
13.0509 19.8369 30.6782
14.6578 21.0548 30.1406
13.6003 19.819 30.4083
15.4121 22.8481 34.321
15.3772 21.657 30.705
13.3684 20.7984 32.9088
14.1288 19.8088 30.3961
14.3095 20.056 28.9664
13.5404 20.9364 32.9278
15.079 22.1892 33.9285
15.12 21.6719 30.8749
13.8457 21.4157 33.2073
14.3185 21.7428 32.6747
12.6992 19.0161 30.1084
13.7258 20.2581 30.7404
13.4695 20.0276 30.0936
13.019 20.4249 32.1424
13.1802 20.3207 31.913
12.3436 18.4608 29.3533
13.1511 20.4619 31.8491
13.1147 20.2617 31.9317
11.8492 17.273 27.2476
13.4718 20.8056 32.2829
13.1954 20.4452 32.1611
13.1944 20.4013 32.974
12.7523 19.1119 30.0161
12.5931 19.2254 30.5134
13.4448 20.2335 31.22
13.6489 21.5949 33.7752
12.6249 19.586 29.5293
11.7625 20.3981 34.8446
12.986 21.0922 34.4004
12.2486 19.7228 33.5635
12.6436 19.21 31.0496
12.5349 19.4197 31.2084
13.1382 20.7824 32.6927
12.355 20.1807 32.9693
11.7112 18.8863 31.1869
13.094 22.2172 37.6853
13.6262 21.6214 35.3456
12.6579 19.7881 32.5381
12.6896 21.4506 37.367
13.9612 21.4159 34.4362
13.4742 21.9703 35.5767
12.557 20.6964 35.7012
12.3518 18.6127 29.9192
12.2947 19.9437 31.9494
12.0355 20.4586 34.659
11.8708 19.2519 31.5979
10.6965 18.1445 31.2719
11.0052 17.9041 30.9803
11.2587 18.0816 30.5428
11.5279 18.3854 29.9843
10.6808 18.3068 32.0531
11.6424 20.0356 35.0996
12.2936 20.4258 34.9401
11.676 19.0265 33.3348
12.2606 19.8396 33.1183
11.6533 19.3464 32.3479
10.5136 17.9871 32.4215
11.6095 20.0699 35.7158
12.0148 20.2162 34.5436
10.6682 17.9938 31.9884
11.8434 19.7245 33.0473
10.9778 18.7391 32.4986
11.1048 19.0207 34.1402
12.0207 21.7841 38.2265
11.5593 19.1115 33.606
11.003 19.0122 33.1043
10.6865 18.7227 32.5251
10.145 18.0798 33.3998
11.3135 20.146 37.1877
10.6699 20.9865 53.1565
28.5842 46.051 62.6956
11.1395 18.6691 31.7986
10.1347 19.2609 35.8182
11.2437 19.7925 35.4074
10.7994 18.6161 33.2087
10.4118 17.993 32.3942
10.5983 18.8672 33.5694
10.1004 17.8526 32.4613
9.93363 18.0856 34.3126
10.8368 18.0423 30.9126
9.36712 17.6809 32.2129
9.68997 18.0709 33.532
9.92522 18.3654 34.622
9.54757 16.3841 30.9766
11.0811 20.4736 36.1244
9.69493 17.5395 33.3975
9.81895 17.4329 32.9595
10.4394 19.2855 36.7057
10.9927 19.0106 33.8408
10.4902 18.8631 33.7169
10.0158 19.2421 36.903
10.2662 19.1481 36.3318
10.0993 19.0097 35.2065
9.85366 19.0735 37.7754
10.0787 17.8876 34.8273
10.4072 18.9862 34.7998
10.2797 19.2644 36.0596
9.26392 17.7104 35.3253
10.0164 18.2845 34.9519
9.68582 18.9424 36.8222
10.5315 19.678 39.1716
11.1794 19.4406 34.7065
9.74344 18.4654 35.2341
9.95788 20.7855 42.7515
10.1265 17.7776 34.7188
10.788 20.5757 38.6436
10.0807 19.2558 37.1356
10.0307 18.5847 35.6297
9.79622 18.6666 36.9279
10.1903 19.6156 38.6527
10.4574 20.2834 39.9352
10.6111 19.9313 38.9995
10.832 20.2812 37.6871
10.4859 21.5447 43.496
11.5078 22.2252 42.2811
10.6837 21.8022 46.4765
12.0226 22.5968 43.1234
11.6233 23.3405 46.2471
11.2511 20.6937 38.8849
9.6413 18.214 35.5717
9.73902 20.1715 39.9609
9.03149 18.2718 37.8363
8.60857 16.8299 35.7594
9.32771 17.4085 34.3562
9.02111 17.9025 36.1042
8.99474 18.5124 37.5649
9.07283 18.0253 37.1042
9.47539 19.037 38.9202
9.30453 17.9265 38.2158
9.39075 16.9182 33.0699
8.69284 17.7537 36.2643
8.99165 18.1702 38.3962
9.46655 18.9486 39.6507
9.43005 17.5396 32.5971
7.70162 16.6622 37.281
9.15446 17.3862 37.1682
9.50309 18.4695 35.4573
8.53933 19.4407 42.365
9.89454 19.3865 37.5299
8.48679 17.4955 36.3785
8.39835 16.9504 35.3748
8.18492 16.9637 36.6667
8.35997 17.1345 36.9372
7.87777 15.7752 34.1179
8.98782 18.6521 36.852
8.15971 16.7571 34.9665
7.96963 16.6536 36.1818
8.97632 18.7037 39.0017
8.45804 17.5598 36.8109
8.33981 18.0749 39.4735
8.56432 17.8211 38.273
8.37451 17.8472 39.132
9.11031 18.6904 38.8117
7.91944 17.2419 38.1455
7.83167 15.5019 33.515
7.31182 15.1465 32.8626
8.07263 17.3769 36.9351
8.0918 18.2019 41.0629
8.43705 17.1853 37.8794
8.87561 19.0114 41.1917
8.77057 17.9346 39.9504
9.2333 19.9751 41.3306
8.23585 17.5517 40.0992
8.15452 17.3527 38.6208
8.24719 18.0782 40.4063
8.11092 21.3977 70.0101
22.4254 42.8126 66.106
8.23809 19.1693 45.1766
8.84514 18.3428 40.3599
7.78567 16.6628 36.8154
8.03637 17.7802 39.1979
7.98227 17.5304 40.0197
8.18069 17.9663 40.1951
8.38449 17.8383 38.2852
7.76701 17.1883 38.7352
8.16941 17.6739 37.9986
7.49717 16.7649 39.2164
8.24662 18.49 42.4138
8.07291 17.0822 37.5451
7.66139 16.5184 36.6248
7.39875 17.1572 39.7988
7.886 16.5264 37.963
7.71351 17.2634 38.2866
7.80781 17.9323 44.0159
8.75377 18.5314 40.3196
7.73924 16.4599 37.3057
8.59845 20.6544 47.313
8.23929 18.4372 44.181
7.98071 16.1791 36.8469
8.17265 18.7866 41.3609
7.62541 17.3879 40.7777
7.49049 15.972 36.4152
7.24052 16.5016 40.6238
8.06745 18.3105 41.4011
8.04569 17.5747 39.8867
7.40402 17.051 41.4008
7.78924 17.3001 40.5316
8.19734 18.1872 39.8885
6.74098 15.5588 37.8815
7.39947 17.144 37.1743
6.89097 16.9864 43.9463
7.96495 16.6266 37.5579
7.53142 17.4275 39.4998
7.08156 16.2463 39.3481
7.08338 16.5954 40.3413
7.61971 17.1355 39.1432
7.27189 16.5716 39.5898
7.37091 16.6622 37.2452
7.02813 16.9607 38.7427
6.53726 15.9817 39.0992
6.9068 16.9 43.9468
7.26949 15.3169 37.0885
7.61217 18.316 42.9565
7.42942 17.2427 41.7555
7.49427 16.6355 39.4045
6.93004 16.1036 38.2576
6.72127 15.5812 37.4648
6.7461 16.1839 38.604
6.63063 15.7301 40.0737
7.33231 16.5383 37.8544
6.56339 16.4023 41.3816
6.69753 16.2022 39.2268
6.77998 16.5095 41.8177
7.46 17.906 42.0501
6.5476 15.4748 38.6647
6.67303 16.5688 42.2461
7.10727 16.824 41.0139
