# pn-170911/RbIIR-51-KOKB-1280-1959.psd
# Power spectrum* (dif=0,1,2) (really just |FT|^2)
# NOTE: only the first half! (symmetric)
# weeks: 1280-1959
# 7 clock-days, 0 excluded
# PSD: 1441
398.626 0.0893145 0.0331293
11916.3 0.292492 0.026248
67279.9 1.09197 0.025275
12403.4 0.721575 0.0256897
33063.3 2.75312 0.0268868
7462.17 0.940391 0.0249101
4435.74 0.507009 0.0255805
2405.72 0.506235 0.0271284
4577.11 0.982311 0.0261369
2646.57 0.992728 0.0247005
1329.2 0.658981 0.0276821
1709.27 1.00422 0.0273117
890.466 0.405864 0.0291131
1344.05 1.05919 0.0271623
786.81 0.415585 0.0284082
887.616 1.01179 0.0288457
890.992 0.708026 0.0261716
711.136 0.890392 0.0280007
473.168 0.807391 0.0279987
390.977 0.591048 0.0276468
689.884 1.49064 0.026688
1192.11 2.23116 0.0335796
434.282 1.02704 0.0298734
618.786 1.0505 0.0308719
440.439 1.31043 0.0376982
570.1 1.58724 0.0218442
310.791 0.982679 0.0348752
341.067 1.13158 0.0289335
705.906 2.72903 0.0426747
791.636 2.96938 0.054843
754.495 3.02604 0.0443488
577.723 2.50924 0.032154
561.162 2.48773 0.0426644
396.177 1.71321 0.0341035
897.409 4.3482 0.0394517
642.855 3.22957 0.0549692
357.537 2.19238 0.0471094
319.718 2.30014 0.033621
280.656 2.1324 0.0227356
837.037 5.19554 0.0636885
344.501 2.4761 0.0628762
688.677 4.96507 0.0589981
304.376 2.821 0.0323647
250.742 1.96135 0.0430849
602.939 5.00029 0.0806653
960.098 10.5207 0.169
898.064 8.85982 0.172907
445.802 4.35524 0.0642416
826.143 8.53688 0.156513
786.204 8.89709 0.11271
453.605 5.75373 0.133367
716.517 8.34304 0.136589
486.247 5.51628 0.0846928
674.917 8.87896 0.165788
344.207 4.70741 0.0762947
221.173 3.32259 0.0858848
577.806 9.96029 0.150216
223.325 3.38256 0.0746134
565.674 7.8846 0.125917
1063.57 16.7089 0.371046
494.389 8.10148 0.119424
426.834 6.69743 0.195714
432.896 7.15274 0.175713
479.215 8.14779 0.235305
527.563 10.0038 0.272779
394.764 8.37802 0.194125
361.947 6.92876 0.176915
450.19 10.613 0.294401
417.907 8.68173 0.21454
823.225 18.2935 0.573417
210.412 5.00429 0.179793
336.541 8.51439 0.295013
439.302 10.6882 0.221348
694.345 17.0015 0.579275
393.66 11.3561 0.298861
308.217 7.98778 0.187793
741.078 19.1833 0.623148
386.398 10.482 0.288125
365.277 10.0081 0.31571
325.939 8.52817 0.324965
614.523 18.9252 0.617028
308.118 10.1584 0.415713
421.898 12.4276 0.365223
250.489 9.51501 0.347723
177.258 5.8319 0.282592
563.644 18.9373 0.641827
225.525 7.56703 0.260968
238.212 7.92185 0.327235
220.255 9.15908 0.290064
312.056 12.6073 0.45933
462.307 18.8051 0.73751
273.711 10.5479 0.4372
193.21 7.31993 0.348787
98.0545 4.11666 0.233666
182.19 6.17505 0.340428
374.85 16.1673 0.841321
543.767 22.6577 0.953613
277.416 11.3893 0.447289
186.517 8.61923 0.485666
452.092 21.5461 0.897812
429.665 18.4689 0.746515
324.069 16.4456 0.834315
309.388 14.7255 0.757676
305.798 13.3803 0.622392
180.963 9.29352 0.431482
180.173 9.62842 0.591632
370.935 19.3543 1.12929
337.755 16.9689 0.807183
382.504 21.1317 1.33714
165.908 8.78802 0.55434
188.136 10.1819 0.67097
188.278 10.58 0.643464
231.569 11.9042 0.720305
244.822 14.4101 0.843328
142.449 8.31136 0.589222
119.445 7.4872 0.584101
349.879 21.5752 1.29287
214.524 11.3834 0.62847
432.81 27.0352 2.00214
255.491 16.5009 1.12921
238.248 16.4973 1.11739
161.495 10.8575 0.783999
145.922 9.00401 0.494839
328.66 23.2686 1.79614
171.639 12.5773 0.911029
260.039 19.7173 1.47999
173.799 11.9785 0.893373
92.415 7.07451 0.697236
78.7984 5.87197 0.574013
261.457 20.6198 1.48998
138.28 10.2643 0.67131
135.744 11.8639 1.02973
189.457 14.8688 1.30361
218.977 18.8867 1.57916
88.9435 6.54642 0.520763
106.969 9.12979 0.77575
240.267 21.2039 1.7894
197.688 17.2434 1.88302
71.8393 5.88225 0.516796
240.55 19.7202 1.74242
110.535 10.556 0.963896
178.527 16.6927 1.53988
188.617 19.5672 2.08421
182.007 17.4879 1.87205
96.4841 9.82805 0.821022
71.0108 6.81104 0.678126
164.716 17.688 1.99413
73.7621 7.00758 0.93115
67.7094 7.21528 0.6705
116.33 11.7058 1.24225
115.208 11.8323 1.25222
202.309 23.589 2.77357
142.866 13.9245 1.41313
211.003 22.2712 2.20754
107.701 13.8272 1.62027
50.5243 5.12034 0.547544
67.2215 7.99169 0.956214
124.717 11.6737 1.33627
84.0984 10.3461 1.34308
111.967 12.0554 1.29736
64.1621 8.17773 1.02953
118.897 14.3386 1.78918
104.652 13.0975 1.56046
111.963 15.6781 2.38961
113.912 13.5293 1.5212
70.1076 8.93557 1.2359
34.8067 4.88052 0.760774
117.944 15.2535 2.07394
117.063 14.0932 1.92255
84.4033 12.3682 1.5998
77.6343 9.49863 1.33782
62.8997 9.47615 1.46967
181.786 23.5442 3.30304
118.164 15.5981 2.37416
93.7965 13.3274 2.06941
92.7355 11.9888 1.86113
123.539 18.3691 2.89
89.6121 11.3279 1.42214
106.905 14.2134 1.69414
68.6997 10.6949 1.64568
57.8948 7.94997 0.989639
32.8713 6.10351 1.1702
106.37 16.5812 2.17166
93.9024 15.5355 2.48155
81.979 12.8768 2.22603
91.939 14.5407 2.11484
100.297 16.812 2.83193
55.0774 8.08559 1.21513
37.8021 6.37002 1.3684
74.7841 11.8045 1.75577
85.166 14.1289 2.25028
120.752 20.4211 3.60136
61.5523 10.87 1.82577
84.5119 14.994 2.87713
60.1138 10.0939 1.91589
67.708 12.271 2.39274
42.8432 8.57924 1.85269
62.5766 9.52957 1.34934
115.846 20.8892 3.84103
94.0031 15.3867 2.61932
53.5778 10.1509 2.33441
66.7463 13.4796 2.88573
133.228 25.9069 4.36578
79.88 15.0337 2.41922
52.6434 11.3908 2.19869
25.5161 5.27688 1.16571
54.7669 10.0795 1.98332
79.1617 16.4699 3.46685
31.4728 5.7206 0.89463
99.4821 21.5633 4.37458
179.279 39.3544 8.93885
53.0265 10.1981 2.17232
117.086 23.5718 4.73212
56.9905 12.693 3.26809
137.592 28.9293 6.6649
140.648 27.9293 5.53134
76.2803 15.1782 3.35248
44.5073 10.0791 2.22988
20.1485 4.56466 1.01092
67.1873 14.5785 2.78531
88.5201 21.2516 4.40304
56.8372 12.0296 2.97248
73.637 18.9747 4.6046
63.8234 14.0236 3.14521
82.8504 19.4346 4.25571
43.6227 12.5117 3.19501
114.848 25.4825 5.73421
72.5643 18.4769 5.1711
55.0428 11.8129 2.22489
60.1525 15.8943 3.93233
71.1573 16.256 3.50342
75.1218 19.6921 5.02391
58.8348 16.6405 4.52691
84.803 23.5684 5.98697
83.1736 19.2219 5.29139
55.478 13.0826 2.9042
81.1288 20.283 5.07344
36.5803 9.20241 2.35837
57.3823 17.6983 5.07941
42.9119 11.5648 3.1486
85.5593 21.9467 5.46739
32.46 9.98546 2.74967
47.0609 14.0829 3.63647
33.6696 9.64143 3.02622
22.36 5.78338 1.49876
54.0423 18.2186 5.30339
19.0979 6.0148 2.44638
75.6544 20.4186 5.36293
108.216 27.7601 6.86085
21.8608 7.73177 2.31782
41.7528 14.1668 4.43555
55.9534 19.0315 6.26836
33.4946 6.504 1.66641
58.9014 16.5009 5.4439
65.5297 16.188 3.9646
49.6072 14.961 4.87189
41.6372 11.1269 3.51796
38.636 12.1206 4.06361
67.2228 20.4937 6.3333
46.1462 15.1775 5.26129
19.3944 6.15173 2.10439
42.7328 13.002 4.31373
28.2568 12.0182 4.98904
77.6495 20.685 5.58351
72.6569 22.3685 6.38311
41.8497 15.4598 5.12425
20.053 8.16482 3.14827
40.2876 13.3271 4.27466
55.8367 18.0843 6.28501
46.5295 15.7441 5.44565
38.8845 16.0494 6.84822
42.0711 15.327 5.26908
57.1707 16.7414 5.24049
50.1365 17.3411 6.73753
85.1584 24.9178 6.91553
36.8405 13.8439 4.69394
64.2963 20.5415 6.80605
40.4203 17.0631 7.53061
57.8981 17.3403 5.28118
39.7913 13.5358 4.66792
34.3118 13.8323 5.59665
31.8058 12.2809 5.57624
30.1276 9.88725 3.6522
63.1859 23.218 7.32242
38.0857 14.6051 5.81281
40.4253 12.2397 4.12174
58.7257 18.7902 5.85636
67.3839 27.4863 11.2774
32.7173 11.5882 4.53415
58.3679 26.0302 10.6405
72.5398 30.4216 12.9899
36.2668 12.1148 4.6157
30.9985 12.1596 4.32049
38.7661 18.1596 8.5999
29.2447 10.8035 3.98096
33.8086 11.5618 4.53431
28.3829 10.6537 3.98152
34.94 15.2505 6.66405
24.1208 9.99119 4.55472
26.4063 9.1882 3.19819
53.071 21.7013 9.06204
37.9453 15.8126 6.62499
43.7745 18.6042 7.57723
35.595 14.1342 6.20754
30.3205 11.7999 4.47093
37.9818 15.7746 5.69625
58.2476 24.3553 8.92134
57.531 32.399 15.5722
35.6485 14.4989 6.64711
36.0249 13.2574 5.11357
35.843 18.7237 9.39368
41.9605 18.1333 8.14876
29.9053 11.1187 4.05079
32.9533 15.3399 7.40041
31.1224 14.2792 6.71548
31.7966 13.2752 6.29901
33.0346 12.7669 4.69927
36.6118 15.6427 6.15272
28.2757 13.1269 6.23604
31.8253 14.6755 6.55813
20.59 11.3584 5.69232
11.287 4.69038 2.2672
41.0346 21.0273 9.4404
40.2751 19.0735 8.89342
43.6854 27.4418 14.7491
45.7222 16.3759 6.88969
47.8034 22.2176 11.4653
43.6745 21.7944 9.96981
19.4056 8.63633 5.01119
18.0756 8.55704 4.3546
36.9299 17.9713 7.88636
36.4622 19.5702 11.044
52.4798 23.2378 10.3544
34.6712 18.9767 10.8718
42.4688 21.7088 12.1755
52.2496 23.8903 10.298
23.8968 14.0603 7.21651
25.2122 14.7532 8.37292
45.1492 22.6168 10.929
35.4612 18.723 9.5517
36.714 17.8494 8.54325
26.7365 13.6528 6.58977
19.786 13.8529 8.71241
26.0702 15.2519 8.87475
26.8848 14.5288 8.21369
23.9822 10.8245 4.77699
22.5988 14.1874 8.223
29.7588 17.3623 9.54769
41.3511 22.2122 11.6583
41.7146 30.402 22.7396
27.8842 10.4306 5.4939
54.1681 27.3054 13.4403
56.2556 25.7724 11.79
38.6951 22.7215 13.2505
31.9214 16.2639 7.18812
21.4359 13.067 8.3238
25.9287 15.6555 8.6714
21.7214 13.305 8.04973
38.2999 21.7206 12.8419
32.9772 17.1109 8.84845
22.6678 13.4278 8.16114
20.6043 11.7904 6.20926
35.4059 23.1313 14.0727
9.87362 5.54948 4.10219
45.7412 30.9573 20.789
35.6939 16.7038 8.35481
10.0864 7.2439 5.79721
21.5349 11.1109 6.57292
38.1443 19.4656 8.58107
18.002 13.8043 10.6387
42.8486 25.3296 14.0034
32.4099 20.8849 13.0005
30.0592 15.8679 7.99959
25.2682 16.9384 11.1313
11.2916 6.53641 4.63554
19.5433 13.1136 8.10279
36.8577 21.5208 12.2018
25.093 20.2079 15.1507
41.5019 26.9187 16.0722
13.6175 7.89049 4.92378
22.6521 17.2477 11.9565
11.779 7.27812 6.44422
26.5228 15.851 9.40824
10.3384 5.71441 3.90591
32.1453 25.1815 17.1617
24.5343 12.3299 7.52403
33.5741 20.9877 11.6791
29.329 22.9521 15.646
18.86 15.2572 14.0103
43.408 29.6539 19.8005
25.4924 15.8549 10.0023
21.9489 12.9603 8.50511
15.3343 10.8158 7.92181
19.8382 12.3936 7.64874
23.7799 15.4023 9.79846
14.8923 10.1524 6.87394
10.1624 7.67393 5.66146
30.6999 22.9338 15.2028
20.3113 13.6785 10.414
40.7984 28.289 18.2648
18.5984 15.2038 12.1632
12.7311 7.43707 6.59297
32.3172 18.9755 10.3994
33.6419 25.5202 16.8035
11.7023 10.6257 9.36231
14.8834 12.3783 9.65797
22.609 15.1274 10.1169
25.5318 18.7135 12.2854
20.9843 16.1215 11.7879
13.8702 13.9421 13.091
21.1337 14.7383 11.0479
20.9647 17.9685 15.3842
15.0546 8.63947 5.66212
20.8912 14.006 8.97027
27.3915 22.6467 17.7235
31.6737 21.8312 14.7752
20.0831 18.8119 15.291
19.0515 13.6729 8.55326
22.1556 22.9669 18.9507
27.6215 25.3534 23.1734
18.1226 9.7821 7.31477
25.4389 22.4565 19.202
17.9705 10.6035 7.37937
18.4366 14.047 10.4264
17.1766 16.9376 17.6526
26.1541 17.0814 11.2372
30.3099 25.143 18.906
22.61 21.2713 16.829
13.1989 8.72438 7.52675
13.7958 12.9086 12.0837
20.7789 14.794 10.6253
22.2306 18.2558 16.2907
16.7766 12.2863 8.63864
29.5469 25.3713 20.8422
19.5325 16.7611 15.9117
25.908 18.9425 14.4153
31.9376 28.4808 24.7192
13.5646 7.91897 6.75173
31.0433 25.2382 18.6616
19.3957 14.4266 11.2038
13.681 12.0488 11.4043
14.5228 12.8488 12.262
27.5795 25.8628 24.6187
11.398 6.74052 4.26134
14.7824 12.6902 10.4101
17.7078 14.9866 13.5913
14.0976 11.9228 9.81808
12.875 11.0626 9.44228
29.0739 27.3302 22.5433
11.1259 12.7195 15.391
22.6748 16.908 14.9953
44.2355 38.6573 30.0688
9.70359 13.4798 16.1083
13.1 8.30039 7.45625
19.6618 16.9562 15.2728
11.9378 15.2809 18.9923
25.039 18.6638 12.7201
9.92499 10.0346 12.0706
15.2329 9.60514 5.48718
22.2205 22.8349 21.5791
18.5526 17.6034 15.0357
16.3993 15.3543 13.9
16.1269 14.0249 12.9686
10.0746 11.0242 13.8293
25.0109 22.7857 20.542
22.5941 21.0659 17.1642
12.6172 9.02725 5.95058
13.2735 14.1788 13.574
20.2371 26.2182 33.7943
37.1774 30.1289 20.39
13.7135 13.9323 14.2165
20.6923 20.3227 19.2601
14.6948 15.0066 13.6071
10.6466 13.2476 16.5222
18.3319 14.7899 14.8154
24.6747 24.9309 23.4335
12.9743 14.1284 17.6273
29.7326 28.6905 27.0393
21.5469 16.1026 12.2172
10.2901 8.8203 7.93302
18.4589 20.5508 22.2994
38.6555 37.8882 31.3192
9.00291 10.7687 11.0344
6.87761 11.3758 17.6455
16.0369 10.3045 6.17107
9.72375 10.0947 9.24526
11.497 14.9321 16.5465
19.2227 20.7564 21.8264
11.4833 10.8761 9.54254
13.7168 14.0709 13.1678
14.1948 18.4542 20.2513
16.4633 15.8061 16.2483
9.94029 9.90934 12.329
14.7544 12.9114 9.58488
8.41496 13.1315 20.9821
31.5501 27.9633 18.4043
23.514 33.4954 34.3134
12.1845 15.2829 16.9774
6.16441 7.26859 11.2017
17.7556 16.6275 14.9245
4.65222 6.73708 7.90898
9.69614 13.3978 16.2545
21.5236 29.8772 36.7565
20.3568 17.9855 16.8558
12.9656 16.0728 20.5667
10.5898 10.9761 14.0312
16.3079 17.978 20.1213
12.8976 14.1621 18.5932
13.2369 11.7502 12.8915
21.4119 22.07 23.8497
21.08 22.6422 23.1503
11.4577 11.0469 11.8649
12.9645 17.0354 21.881
26.6904 26.0226 23.9506
5.64139 9.0766 13.2531
14.4082 13.6353 14.2289
14.1778 16.3482 18.2777
8.11001 9.38549 12.8818
12.387 10.7035 9.96443
9.40959 10.3506 11.8246
12.7271 12.3919 10.9788
13.3507 18.2434 20.8275
10.5397 16.4488 23.3074
13.1825 12.8074 14.257
14.4241 18.838 21.7264
11.8684 16.5637 27.222
15.404 12.5183 12.9298
14.952 15.7898 17.2097
20.2624 24.298 25.4337
14.3189 14.8542 12.9996
5.54909 5.50152 4.81759
16.3395 24.3989 30.1437
10.0595 7.73004 9.86133
21.1958 24.974 23.5522
7.49229 12.3364 17.3671
8.98089 13.2512 18.1891
16.4455 18.6775 20.2508
11.6989 21.2865 32.4189
10.026 8.79593 11.7819
18.8537 22.3789 24.5221
8.12203 11.5763 17.0413
19.624 20.7253 18.7205
6.70213 11.1173 16.6911
6.79963 7.31242 7.95786
5.41858 8.27029 16.1838
17.3481 21.4279 19.5377
6.30869 10.5355 16.2527
13.3561 15.5072 14.9295
9.14343 13.9634 18.4117
9.38125 13.7064 16.6274
4.43985 6.52596 10.0803
4.14655 7.68945 15.3937
13.76 12.4107 9.5577
5.81903 14.0354 25.2321
11.5772 11.4276 16.3908
13.497 13.973 13.466
6.21304 9.87581 14.1693
4.64651 7.04417 14.6861
19.444 26.8065 34.3062
16.5376 15.5824 15.6579
10.7181 13.839 17.1389
9.20404 11.1371 12.738
10.154 18.1141 28.2372
7.45708 7.56386 13.3058
13.4548 16.9586 19.7589
11.7323 14.3151 20.1451
11.9012 13.9716 14.3632
8.13833 12.6222 18.1522
7.1092 6.76831 7.75832
10.3947 17.4416 25.8648
8.3387 8.91496 13.0554
12.8579 14.8199 20.425
16.3011 20.6077 24.7366
9.72522 10.5873 11.3691
5.46344 11.7131 20.3831
6.09399 8.16521 15.3911
13.1501 12.9699 12.7105
8.22124 10.8392 15.6935
14.3451 19.9441 25.8006
4.94232 5.8771 7.87642
7.17074 9.10926 9.76098
8.52787 14.5721 23.2885
11.2199 13.4515 16.814
9.25579 10.4357 12.8297
11.1722 17.953 25.7001
16.5897 29.8434 42.5607
6.20482 6.48827 12.6551
13.7956 24.7184 41.4445
10.8541 11.7478 14.6175
6.86706 10.2643 17.3779
7.58779 6.50166 7.39832
10.3095 12.7415 13.7523
6.43721 11.0268 18.3599
12.0618 17.4197 24.6721
16.4723 26.1497 35.5111
3.61317 2.86665 7.58344
10.5865 13.319 16.4924
14.0255 24.8012 32.01
13.4136 30.1031 56.0388
10.9959 6.22798 8.05063
14.0097 17.3141 15.9589
4.20977 9.25317 14.5107
5.86669 11.3128 20.2239
7.8682 12.6496 18.9716
5.34301 9.42616 22.2515
12.1381 16.1577 19.6364
8.00268 14.6316 26.2513
9.38404 10.412 12.9856
15.4593 26.5477 38.1928
8.0091 12.877 19.7234
11.104 18.1107 27.3806
7.19276 14.1779 24.8485
7.29849 10.5853 19.3873
8.45274 14.4405 27.8194
15.1491 25.8018 44.1884
9.54192 10.8297 22.2423
17.024 23.6052 35.971
17.3091 22.2715 25.6989
11.7342 19.5655 23.9097
6.81476 16.4848 36.2068
13.7427 15.8519 23.328
12.8935 20.9811 31.107
7.93252 11.3857 21.4216
14.1947 18.3757 20.6352
8.63881 14.8978 22.5507
4.34682 6.74061 14.0123
5.9337 8.80795 15.5971
11.6756 21.2282 31.9561
8.04998 9.60925 13.971
6.90091 13.1904 21.8847
15.1739 25.7391 38.205
2.55138 5.79314 19.6494
8.7059 9.64093 12.9538
10.5243 19.6562 31.624
9.98928 12.2184 17.3348
6.05622 7.65071 11.2089
4.73442 8.22799 15.3335
6.38544 8.19587 9.99622
4.58465 8.7 14.7082
9.71283 16.7283 24.4925
5.35077 12.0015 22.4664
4.00946 3.80964 8.75718
6.22246 8.96704 13.7948
6.09174 10.2263 17.783
8.94341 15.1798 25.1114
6.41979 9.51782 17.8491
8.1658 14.2226 24.2504
8.27331 10.2434 13.6841
9.51702 18.6845 30.899
6.68691 13.4847 28.9012
8.229 11.7783 19.5689
6.86966 9.65441 14.095
6.51669 10.3839 18.1528
9.07604 16.5754 27.3102
7.89256 11.5304 19.8877
10.0489 15.7818 22.2413
6.63509 15.5677 33.2102
8.82418 8.51733 9.77717
7.08063 15.1209 25.1839
9.17708 12.0173 15.6501
6.30163 13.0608 21.0142
4.93925 10.8938 26.3778
8.28021 14.1685 23.6632
8.48003 14.5453 22.5605
2.31191 3.5575 8.90486
6.22984 11.9677 20.6767
3.93155 5.05765 8.09776
6.2818 12.2116 20.023
6.84674 12.5148 24.1475
10.5607 22.1885 39.7287
9.93601 16.9228 31.2414
7.91183 11.7058 18.0313
6.03669 14.2927 31.1806
12.1819 17.2161 22.503
4.05473 9.49673 25.7921
10.2452 14.9044 17.4155
3.67725 8.07413 11.5835
5.04039 14.7852 36.0441
9.36541 11.8007 13.5368
4.66725 11.5704 27.3083
6.18949 7.89482 12.6342
12.8315 27.9617 47.5054
7.44084 12.4788 23.9863
4.12244 6.17081 11.5231
3.95536 7.43728 17.8915
10.2749 17.2963 28.8825
7.77897 14.5711 25.7352
3.66154 7.45582 17.4514
8.38661 15.8891 28.213
8.06234 14.3944 23.4178
4.62763 7.78468 13.0477
5.04001 13.2185 30.4569
10.2074 18.4606 36.4139
8.6491 14.5436 25.9693
5.15842 7.97062 16.2346
8.46668 18.9237 44.7004
12.5122 18.8842 26.6469
6.49797 9.66652 12.4943
3.76023 10.5965 27.3689
5.18081 6.35395 12.6009
8.23823 14.6451 28.0116
11.9744 20.3848 30.1429
6.12777 12.3155 19.8068
3.02905 5.78373 16.0588
7.62281 15.6042 23.1509
4.20971 12.6842 32.9085
8.1658 14.5434 23.9461
6.58777 16.4293 40.3246
10.6751 20.248 38.5119
8.08728 13.5053 22.0623
3.79797 9.01516 23.4073
4.8992 9.65867 27.504
12.5377 21.0207 29.9947
6.79819 17.2523 40.1412
6.98861 11.4523 24.8835
8.3955 15.23 22.3637
4.1157 9.65007 18.0787
7.68267 22.2361 51.6386
5.89374 5.22291 9.46971
4.40608 13.1065 43.2503
18.4767 30.7892 38.8313
4.68827 10.563 18.9574
2.79522 11.962 39.7163
9.46165 15.3714 28.7449
5.48874 5.43807 9.26978
4.88673 10.7975 21.0687
3.34859 3.92155 11.5904
7.64146 17.3072 34.458
6.86243 8.98538 14.0126
7.59855 13.2107 17.7438
5.19711 14.4342 26.229
5.50177 17.0673 44.8115
10.922 18.459 33.0748
3.40309 7.18829 19.021
2.93216 6.49322 23.5934
7.70715 14.135 34.4696
11.1024 18.3967 29.7949
6.30427 11.7765 17.0027
5.62434 17.4155 41.9919
6.78619 13.4247 33.5611
7.50519 12.2164 17.6431
3.9447 9.60716 23.7818
7.30672 17.731 35.2656
4.08641 6.29269 17.574
6.54348 16.2445 36.7186
6.72831 10.7907 20.2077
6.31927 16.7561 42.4141
10.0777 19.1386 36.5845
4.90907 7.24608 14.7441
2.91889 8.98566 28.1179
6.40251 8.98257 14.695
4.73733 11.9319 35.8111
8.26667 14.2446 27.2879
6.42108 10.7539 17.9095
7.28002 18.8675 42.0045
9.38792 20.8595 39.9596
5.81617 9.71166 18.9332
2.72084 4.85432 11.2111
2.37481 4.18484 7.4373
1.13911 2.04181 6.46983
4.76306 13.0751 24.5187
2.80244 6.5111 18.5241
6.13846 12.4389 21.3991
3.94074 12.0709 32.8674
5.90724 15.0171 34.6677
4.78025 10.5263 32.9652
6.16773 13.723 41.0078
10.3131 13.8905 14.4674
3.2475 11.3406 34.3155
5.7351 6.65021 14.844
8.63326 22.5713 45.9171
8.90313 18.9202 30.579
3.97065 8.79526 17.9567
5.06135 14.3191 34.9132
7.29508 21.7532 51.8954
6.14491 12.4406 35.127
4.52912 3.373 8.27537
5.77241 15.1534 27.2323
4.02648 7.17099 10.4169
2.21038 9.18613 32.3605
6.43897 10.4321 18.1067
5.30152 15.031 29.2274
3.75143 9.31937 27.1505
7.72437 16.5678 36.2151
4.91847 8.33123 16.8266
4.90498 13.255 27.2927
4.12746 8.51875 21.2517
6.18065 16.1709 38.3642
6.07322 12.9524 27.2405
5.7111 15.1958 33.9387
5.33553 8.61311 17.8493
4.23696 9.10268 14.9599
3.29328 9.57376 22.5213
4.52241 14.0607 40.0587
3.77659 5.48966 15.8102
3.54173 9.83373 36.0548
7.9024 13.5239 16.7811
2.71603 13.2206 50.2204
9.80006 17.8729 32.2893
5.39318 11.6497 22.6785
5.14962 13.2767 31.7343
4.68058 10.5164 20.1149
5.23636 15.6695 38.9455
5.06548 10.961 25.7121
4.06118 11.4582 30.269
5.37669 12.3447 27.3071
4.17158 7.49912 15.6542
5.59664 17.8493 39.0707
5.24512 11.1462 27.2823
6.809 16.9364 32.0039
2.67413 8.33979 28.0247
5.21309 12.8153 40.0359
6.20215 10.9173 22.5193
4.86944 11.9584 27.134
5.03246 11.3858 25.8053
3.90693 11.3848 39.9201
6.94774 9.58751 14.9451
5.51662 14.2617 21.4364
1.83116 6.10881 25.1905
6.20337 11.1251 18.6534
5.70119 14.8978 23.0535
3.83552 15.888 34.0063
2.56557 6.56361 20.7384
2.26587 6.00037 24.1168
5.33142 12.2027 20.2348
2.65889 9.4417 32.6875
6.77576 17.6857 38.7704
3.90796 5.37335 8.30073
3.20227 14.174 36.0884
