# pn-170911/RbIIR-54-RbII-1280-1959.psd
# Power spectrum* (dif=0,1,2) (really just |FT|^2)
# NOTE: only the first half! (symmetric)
# weeks: 1280-1959
# 332 clock-days, 6 excluded
# PSD: 1441
60902.1 1.22432 0.0484117
2.17604e+06 53.3107 0.0831239
3.3064e+06 59.3451 0.0840439
814167 16.5278 0.0841371
553455 18.8535 0.0852973
333412 9.40029 0.0835834
227142 9.22301 0.0908846
158179 8.26912 0.088012
128210 8.42196 0.0859708
104978 8.36595 0.0922658
75317.4 6.59102 0.101794
72824.6 7.14317 0.0840724
48645 7.362 0.0899863
51092.5 6.56513 0.0882581
43598.7 6.77395 0.0893996
41265.7 7.28801 0.0921632
31839.9 6.57046 0.092611
30747.5 7.14487 0.0961316
29050.3 6.85443 0.101079
24148.2 6.89885 0.099352
17179.7 6.9123 0.098689
25917 8.31353 0.0952412
21314.5 8.09659 0.102318
15876 8.22176 0.109597
13779.8 7.09788 0.0948275
13366.2 8.22514 0.114426
10895.6 8.98624 0.120244
11912.2 8.42736 0.104142
11375.1 9.05679 0.115817
9957.45 10.3178 0.119718
8666.27 9.87409 0.117418
9436.08 10.0424 0.127972
9219.35 11.754 0.137148
7551.23 10.4946 0.142249
8341.68 10.677 0.136345
7867.74 11.7595 0.15214
7074.9 12.1505 0.15501
7247.97 14.0906 0.163644
6347.99 12.6518 0.175308
6509.64 13.5897 0.190143
5930.11 14.2289 0.182457
5199.46 15.3711 0.194596
5704.56 15.8462 0.211596
4947.33 13.5135 0.194416
4922.19 16.163 0.253147
4856.71 15.9217 0.224974
5077.55 18.0877 0.246707
4864.98 17.0079 0.258514
4233.12 18.8399 0.302798
4327.47 17.8128 0.302767
4595.61 18.8486 0.308618
4686.11 19.506 0.33436
3761.53 19.8929 0.328396
3878.88 21.1277 0.354534
4172.79 25.9273 0.456037
3726.21 18.9521 0.34942
3682.25 21.3599 0.424305
3851.05 20.926 0.414622
3905.32 22.9571 0.43878
3619.87 25.0866 0.530766
3466.07 25.6533 0.508262
3782.46 26.9771 0.562329
3293.15 23.9669 0.516162
3636.62 26.5165 0.600089
3717.01 27.5115 0.659624
3284.92 27.7061 0.662657
3119.43 29.0785 0.70473
3515.35 30.6648 0.754986
2936.7 28.864 0.735781
2863.03 28.7262 0.751588
2953.58 31.4497 0.854652
2714.75 32.4893 0.860175
2759.61 32.0289 0.907254
2469.26 31.6666 0.919717
2522.28 29.7749 0.878678
2460.6 28.7881 0.890552
2629.74 34.2459 1.03281
2597.55 35.8041 1.14769
2414.19 31.8456 1.046
2336.76 36.0097 1.17236
2122.04 30.4312 1.02036
2305.78 38.0652 1.24165
1995.93 32.521 1.11204
2049.41 36.2826 1.31923
2099.53 36.1216 1.28694
2072.1 35.065 1.30994
1684.57 33.6017 1.30311
2055.46 40.7173 1.61061
1850.73 36.895 1.46116
1933.04 40.8027 1.60024
1672.8 39.5997 1.66655
2044.31 41.2556 1.74777
1802.62 41.2224 1.75776
1721.92 35.6477 1.57597
1756.77 36.2852 1.68997
1848.34 42.1335 1.83507
1784.2 45.7623 2.00806
1756.36 40.112 1.84756
1756.38 44.1263 2.15213
1427.45 37.6289 1.81407
1500.96 38.5887 1.96685
1857.45 43.6952 2.19135
1666.52 46.3144 2.38248
1520.2 40.0549 2.04558
1611.63 44.4755 2.3401
1564.3 42.341 2.27209
1264.18 39.428 2.2338
1544.87 43.578 2.40943
1448.99 44.9701 2.50751
1398.51 44.0946 2.6132
1452.31 47.1092 2.83424
1510.83 46.0912 2.73219
1259.8 38.1183 2.34978
1213.38 46.2182 2.96745
1412.57 51.2992 3.26387
1330.25 40.2864 2.57146
1151.06 47.1865 3.0793
1147.01 43.4266 2.96566
1239.05 49.5518 3.30985
1204.1 44.4973 3.06406
1292 45.6598 3.20306
1162.31 51.1853 3.52023
1098.46 42.0068 3.08968
1438.41 54.141 3.89747
1173.1 47.9838 3.68001
1161.2 48.2389 3.64888
1098.18 43.0472 3.31428
991.604 50.3404 3.93745
1026.7 46.0521 3.51465
999.401 48.7904 3.89035
1005.22 47.4216 3.89914
1039.44 45.7421 3.79169
893.758 41.6641 3.54532
987.815 49.4975 4.18011
934.918 44.7639 3.76872
958.867 43.6528 3.90733
909.19 43.4593 3.86269
934.803 51.8929 4.74585
897.974 51.1914 4.63101
848.553 42.6418 4.01867
984.793 53.9951 5.03595
902.498 45.2839 4.40936
825.67 48.0553 4.62205
930.996 50.0868 4.84433
895.446 50.7244 5.09936
778.736 42.3639 4.32076
761.86 48.4747 5.07089
860.73 49.812 5.08496
750.664 45.6078 4.8583
753.874 45.5622 4.87675
846.673 56.2314 6.06987
782.266 49.2166 5.3102
781.445 46.2108 4.94975
840.408 50.1854 5.58683
804.333 50.4576 5.66762
710.946 46.8371 5.35744
733.104 51.3606 6.01455
801.754 52.9604 6.1296
672.28 44.4308 5.22941
635.924 44.6902 5.35047
670.849 48.424 5.9975
614.743 50.9771 6.28339
725.256 52.0973 6.38792
650.716 49.0445 6.27078
703.439 50.708 6.49024
698.755 49.9839 6.35932
607.161 49.9401 6.38206
616.788 51.7618 6.88238
723.352 55.5187 7.55179
621.31 50.862 6.74244
642.057 49.4822 6.73965
551.566 51.4345 7.08287
535.087 48.0742 6.68242
590.52 47.1567 6.64019
517.517 42.6288 6.16351
585.185 55.6914 8.10081
606.811 53.3014 7.8459
571.198 46.1976 6.89158
562.793 48.5908 7.27506
564.573 52.7862 7.96413
569.504 50.1682 7.55562
594.285 50.3598 7.86828
478.274 49.3138 7.64096
541.882 47.2077 7.49183
572.496 53.279 8.59213
558.795 48.5575 8.00512
554.088 52.1871 8.44846
582.665 50.7766 8.35963
518.779 50.3796 8.5527
517.221 55.4729 9.36557
518.891 51.1049 8.81381
569.854 57.094 9.96789
549.362 59.4095 10.1879
530.135 50.2247 8.66228
499.333 52.5749 9.37255
466.607 44.0624 7.82107
448.308 46.2313 8.56919
469.046 42.7181 7.89023
446.004 50.9497 9.31981
436.23 45.3092 8.37787
455.76 48.5871 9.14439
389.652 41.5182 7.83148
415.204 48.8218 9.10481
466.695 45.0388 8.71753
438.147 50.0568 9.94799
410.62 48.1919 9.44459
487.894 53.0293 10.7631
421.795 45.9079 9.10465
416.328 52.0419 10.6436
401.795 45.6237 9.45749
391.64 46.3881 9.4096
399.706 46.3362 9.76601
413.774 46.6801 9.71726
395.117 46.5818 10.1231
407.277 48.517 10.431
398.173 52.4827 11.3742
408.18 53.9098 11.8364
422.028 57.4879 12.334
355.698 43.5269 9.73008
399.417 48.7243 11.0944
396.242 51.6391 11.6458
403.298 48.411 11.2241
389.085 49.7908 11.3095
383.119 51.4034 12.0345
379.005 45.5361 10.7469
351.71 48.0079 11.2707
365.299 49.7435 11.9056
348.735 47.7625 11.6683
341.167 42.0872 10.1326
332.13 48.3499 12.1
384.162 53.1548 12.9062
336.188 47.1315 11.6968
335.665 46.2867 11.5817
327.82 44.4703 10.9784
320.025 51.1841 13.0582
296.303 44.8211 11.6569
294.75 47.0651 12.4451
345.434 48.5415 12.6676
351.545 50.5875 12.9641
346.706 55.0151 15.004
319.052 52.7314 14.034
321.281 46.6795 12.5156
278.145 46.2343 12.6259
302.692 46.12 12.4295
275.315 44.5514 12.0979
288.24 48.0341 13.453
298.464 48.7955 13.9133
269.914 46.4049 13.0441
300.822 48.18 13.8193
323.254 51.1378 14.5773
264.783 46.5626 13.6519
291.652 44.9088 12.9306
276.019 51.1045 15.459
287.324 47.0078 14.0317
279.945 48.2775 14.5195
252.403 45.2563 14.0824
272.904 42.6324 13.0586
267.781 45.9268 14.1687
250.397 43.7438 13.845
267.104 49.783 15.4531
274.568 44.4777 13.6815
264.972 46.3986 14.3154
219.684 43.5266 13.7796
254.944 48.4393 15.5695
234.769 44.4286 14.3405
253.505 47.3583 15.4058
281.529 45.9697 14.8516
281.592 48.3651 15.821
235.708 49.4475 16.5248
257.579 45.6408 15.6192
251.311 41.9758 14.095
248.541 45.9334 15.6212
221.53 40.3295 14.2417
252.717 45.548 16.062
230.785 43.3274 14.9941
253.999 43.2316 14.9641
218.547 41.4949 14.2673
240.692 46.1241 16.6761
197.096 41.8055 14.8444
228.157 45.5964 16.7156
212.62 45.4537 16.2437
209.515 42.8179 16.1161
206.622 42.2465 15.497
195.031 40.0773 15.0363
197.748 41.3149 15.1762
170.976 44.734 16.5783
171.126 43.8192 16.5599
228.635 44.6006 16.7325
198.729 48.8646 18.3319
168.139 42.385 16.3983
203.487 46.3849 17.781
176.546 43.6186 17.1543
190.088 44.5908 17.7343
216.34 45.2199 17.694
185.431 40.0982 16.1658
211.09 48.1486 19.1894
208.687 46.7548 18.9437
189.359 43.1941 17.3287
179.976 40.001 16.1982
197.87 45.3455 18.9016
180.109 47.2828 19.2345
179.516 42.6882 17.5681
181.525 41.1364 17.4287
192.435 39.7879 16.6859
204.189 48.8647 20.6337
181.189 41.6411 17.9264
185.558 48.6154 20.9466
174.043 41.7076 18.1295
167.739 42.5836 18.1773
198.87 42.5381 18.3712
205.477 45.778 20.7336
154.639 36.6269 16.3461
170.173 43.0117 19.262
162.297 39.2434 17.755
169.354 42.6759 19.2065
154.439 42.0393 19.6197
183.54 43.9186 19.6657
161.03 39.475 18.8602
157.286 42.7254 20.2018
184.693 46.4574 21.3703
163.804 40.8714 18.7459
150.883 40.2643 18.677
181.573 47.1037 22.1615
155.651 39.0651 18.8243
160.216 41.4371 19.6849
149.058 39.6908 19.9835
157.268 37.2294 17.9057
152.287 42.3302 20.3984
149.119 37.512 18.5487
146.334 41.8195 20.6014
155.809 42.0932 20.615
140.248 40.3327 20.0993
124.649 38.2004 19.1926
145.546 38.5265 19.2402
126.841 37.8792 19.2222
154.483 42.9029 21.4626
136.353 43.0191 22.0859
127.643 36.7166 18.9343
144.665 42.7464 21.9648
143.811 42.1605 22.1525
129.974 36.7292 18.9596
131.595 38.6413 21.1838
128.989 36.1641 19.423
133.759 41.4869 21.8544
129.58 40.5231 21.2756
142.31 37.7276 20.6065
147.649 35.8526 19.9796
148.78 43.7682 23.5765
139.526 41.0343 22.9473
151.145 39.546 21.446
135.491 39.8485 22.1867
138.554 39.4846 22.1959
137.239 41.1312 23.5858
144.235 39.5623 22.2392
131.703 37.2567 21.564
156.577 41.5475 24.1193
132.783 37.3847 21.9503
133.996 37.5848 21.5725
134.534 38.8559 22.2511
135.566 41.2795 23.8029
126.615 36.2959 21.1692
117.099 37.4513 22.5871
129.787 41.4101 24.5789
127.242 38.3721 23.3985
125.152 38.3826 22.9147
120.341 41.9278 25.0821
125.074 39.1052 23.3834
121.105 35.1435 22.0051
121.657 36.4117 21.8551
121.703 41.4374 24.9105
115.92 37.3717 23.359
108.809 34.7981 22.0903
128.234 42.2554 25.1602
126.965 41.7848 26.2873
107.334 39.2231 25.2541
128.282 39.8709 24.9267
120.598 40.8397 25.5802
114.724 35.7089 22.4808
107.197 37.7888 24.6611
125.768 39.7676 25.988
111.425 40.9768 26.0549
103.755 34.9213 23.3419
107.744 37.4913 24.4867
104.406 36.1607 24.1727
111.008 43.2798 27.7286
118.335 36.4715 24.8549
104.991 38.9901 26.0905
95.482 34.9896 23.5778
109.598 38.5843 26.9684
127.717 38.006 24.7974
108.024 36.6012 25.911
109.89 35.0058 24.3816
101.887 36.2707 24.5746
111.819 39.8992 27.0159
103.591 37.5631 25.7064
104.159 37.0759 26.0307
96.8021 31.3048 22.0306
113.348 39.4891 28.1714
103.571 40.4551 28.7015
121.411 40.0084 27.7039
102.13 33.9333 25.3893
100.656 41.7321 29.8874
95.7288 34.1984 25.0766
114.385 37.4018 26.8639
92.9351 36.5114 26.265
94.4181 36.4325 27.7097
104.528 37.5076 27.3525
104.194 36.4015 26.6291
103.366 37.1334 28.1999
96.5431 35.4684 26.0124
103.981 36.6574 26.7707
100.94 36.1706 27.8232
95.8642 36.9457 28.0141
101.063 37.4228 28.0971
85.1016 32.3259 25.1629
88.9473 35.7948 27.1151
89.8754 34.7123 26.3332
86.769 33.3656 26.6878
87.324 33.8487 26.2525
88.8166 33.1289 25.1455
78.6022 33.6954 27.0277
89.7448 37.495 30.3743
83.5691 35.2761 28.207
82.3693 35.9422 27.9657
90.3394 35.4474 27.312
79.9947 32.3202 26.1565
80.8314 34.0845 26.5329
84.2332 35.3825 28.3647
90.1376 36.3542 30.4121
90.4066 37.784 30.8227
77.327 34.241 27.2371
99.041 41.9095 34.7915
87.948 33.87 28.3491
86.4052 34.853 28.0973
87.998 35.6458 30.0056
89.9708 37.3175 30.8127
80.8384 35.9932 29.1162
82.261 33.3912 27.4946
91.968 37.5837 32.5928
92.2747 36.2029 30.7901
84.6125 33.4455 29.2442
92.4492 34.6373 29.8867
86.6057 34.7162 29.8682
82.767 32.7578 27.4463
79.4739 35.2165 31.6422
88.3435 35.2461 32.4497
83.1594 35.6056 30.9325
80.6949 32.2734 27.2721
79.086 34.701 30.5649
66.8206 31.6533 29.8921
78.47 30.0762 25.873
73.1609 32.7951 28.5297
95.9666 34.4925 30.5825
82.6226 34.6471 31.3844
69.647 35.7899 33.009
72.9462 32.1782 29.2606
95.7975 34.6118 30.8527
77.1195 36.5392 32.6109
72.8196 34.0257 30.7956
67.977 33.0946 30.8027
69.0578 36.3377 33.3404
83.254 31.9872 29.5942
72.1473 33.822 32.216
66.444 34.9446 33.2596
73.9758 34.5117 32.1583
74.2802 35.1368 34.586
73.1687 34.6519 32.6148
73.0925 32.3263 30.1011
74.3432 33.2525 31.9204
77.1979 31.2929 29.8424
65.1439 32.1552 31.4352
73.34 33.8883 31.6122
69.0488 32.3825 32.2946
73.4067 33.7823 32.7566
70.488 32.717 31.9475
70.7099 31.8494 28.7461
61.8249 32.6142 33.6414
64.0368 34.7266 35.1203
74.1079 32.0215 31.5309
73.2355 33.6505 33.7272
72.0769 39.2991 38.4345
75.4124 34.8307 34.1702
72.6543 33.5974 35.2627
66.7757 32.5433 33.1204
69.2782 30.2735 30.9536
78.1638 33.7679 34.2376
64.3671 33.0215 32.7405
69.792 34.5928 35.9289
62.6115 31.0796 32.4654
65.7195 31.8447 33.137
69.6519 38.1088 39.403
62.6295 27.8744 29.4189
71.0368 32.3833 33.713
59.9329 30.3827 32.0491
66.3372 35.1811 38.4443
71.1818 31.432 31.2776
64.7094 30.4177 32.8198
67.9134 33.8414 36.7067
66.7188 29.3294 31.1392
68.0813 32.6551 34.5624
65.8725 35.3203 37.8948
59.8677 29.9797 31.016
61.6672 30.7287 33.7455
61.5477 32.8757 35.2124
58.0719 31.1469 34.9695
60.1195 30.2369 34.144
58.9222 26.9164 28.8512
63.0108 33.1384 35.2285
63.0244 33.5124 38.3555
69.6912 30.577 33.1447
51.9615 28.5236 32.1239
64.7975 31.9159 34.2065
61.4802 33.1244 37.7401
59.8514 32.6061 37.1746
67.2133 32.0998 36.6615
62.7478 34.3609 39.4714
66.0069 29.1634 33.7999
56.429 27.7871 31.7234
55.2463 30.6734 35.6017
60.7504 30.5438 35.8633
62.3955 29.9434 34.1859
68.5497 33.8541 38.0989
62.9956 34.9138 39.6818
53.101 27.7078 33.4674
51.6113 30.2379 36.2099
62.2716 31.813 35.8871
55.162 31.4919 37.6318
62.8779 30.7322 36.0854
53.5798 30.5011 35.7579
57.0779 29.3276 36.0312
52.6875 27.2272 32.548
53.4451 33.8096 39.4241
54.0267 33.2869 40.9025
56.5804 32.8054 38.5008
56.3112 34.6933 43.748
53.3542 30.3717 35.7118
56.9274 32.4529 38.4854
61.0597 30.7444 38.8509
58.0406 32.9032 39.8588
56.2789 27.6316 34.3386
53.7087 29.1598 36.6132
53.7119 27.7009 33.6869
55.5418 31.5729 37.7292
53.5428 31.6513 40.2923
52.0169 31.3997 38.5275
52.8522 30.3489 38.9937
56.4325 29.1226 36.7641
53.8515 33.7626 42.5236
58.5376 31.7396 39.4228
50.007 27.6377 34.799
46.204 31.5825 41.1818
54.9451 27.9172 35.0598
46.222 28.32 37.4679
49.4246 31.1324 39.8134
54.799 29.8166 37.4521
51.5485 28.9192 38.2528
47.7251 30.0986 38.7238
58.6272 32.9024 41.8341
54.0514 30.6304 39.0821
51.3552 30.1144 40.7852
50.1336 28.7645 36.6477
50.2764 30.0994 39.9046
50.4009 31.2647 41.3948
52.1157 31.6706 43.0059
55.8458 29.7744 39.1563
51.1983 32.6366 44.5909
46.9996 29.5643 39.8063
51.9119 29.8097 40.2751
46.612 29.4834 38.9757
50.7546 30.286 42.0933
49.2363 30.1609 41.3562
47.8329 32.7876 44.1679
45.0784 28.4018 40.0057
41.2505 30.7035 43.1192
45.0841 29.6903 40.5727
59.453 31.1126 41.4817
40.9586 32.2662 45.7183
43.2921 30.7757 41.272
49.9214 27.9371 38.4689
47.2136 28.2423 38.2653
44.8381 31.4798 45.2943
47.3881 28.5028 40.5563
46.0928 30.812 42.7797
42.9505 26.033 38.0853
49.0004 28.6945 39.8287
43.4541 29.2486 40.9387
42.1278 25.8813 36.4963
41.0744 25.8701 37.5125
38.4355 30.0736 42.5009
40.841 26.4151 37.9211
44.0376 31.132 45.8559
43.2101 27.6654 39.388
41.2683 27.143 40.1176
46.6507 29.9101 43.1161
39.0565 26.9312 40.2859
39.749 28.562 42.5244
40.2212 31.3696 46.5769
46.7414 28.0141 40.6799
46.0795 28.948 42.6986
45.3411 28.61 40.7774
38.5218 26.3524 39.6168
42.3384 29.8399 44.9562
39.7041 27.5426 42.0428
43.4017 29.2507 43.2278
42.708 28.4366 42.184
42.8878 29.2132 43.791
38.5493 28.7315 41.8738
41.531 25.7937 40.4379
42.902 28.6366 41.1119
42.779 26.6172 41.206
44.3017 30.0431 45.6887
43.2973 29.9901 45.4738
40.8775 28.7789 43.5707
41.4283 28.1936 43.978
39.6587 29.0064 42.9969
39.2955 30.3128 48.085
37.7428 26.55 43.5051
40.5567 28.5517 45.3036
40.7944 30.1886 46.914
37.0877 30.7293 46.2777
36.2948 26.426 42.785
43.4127 27.8192 42.7499
37.3851 26.1268 41.5358
39.39 29.8038 45.0846
37.5242 27.3906 42.667
34.2507 27.2512 44.4282
40.5822 27.9434 44.3044
40.9508 25.8259 41.3728
38.6986 29.1982 46.9681
37.092 26.6152 43.2294
39.8762 27.6801 45.8978
40.1193 28.6617 44.1612
34.8619 27.8976 43.2379
41.6378 25.617 43.6624
40.6118 27.5265 42.6687
37.9348 23.1891 38.6091
42.989 28.465 45.0431
37.7482 24.0579 39.1203
38.3787 28.0676 48.3122
38.6798 24.7942 41.9521
34.8637 24.5457 42.0112
37.1683 27.6872 45.1614
38.7061 27.1034 44.1549
40.3024 25.8895 40.9035
35.9296 25.4847 43.7724
38.0286 24.3496 42.2612
38.0752 27.7165 45.7698
36.7001 26.5889 46.3539
39.1456 27.5534 47.2455
34.3789 27.0948 44.3302
39.2289 27.384 43.9626
39.0896 25.6439 46.993
40.1412 28.9406 48.663
33.7294 25.3904 44.7812
39.5748 27.2308 45.9857
35.3744 25.4637 43.308
38.1535 24.74 42.6194
32.7841 25.1857 44.3697
35.9305 26.4051 44.7886
38.3038 29.7924 49.8141
38.7871 28.3377 48.985
36.7594 24.744 44.1876
33.0561 26.7961 46.1757
39.6434 26.316 45.9104
37.7176 28.0146 50.2964
34.248 26.882 47.8289
33.4912 26.392 45.4122
39.0181 26.3197 47.1033
35.0361 27.6414 47.3647
33.3589 27.9736 50.8164
37.2817 26.0759 47.9732
36.3755 24.8761 46.8079
35.0225 28.1596 48.7956
36.8769 26.2283 44.9919
38.5643 26.9317 48.4257
30.9158 24.7266 45.4476
36.6676 25.6722 43.0269
37.2843 26.7515 50.3073
35.5354 27.069 47.2126
35.7064 24.9047 45.9224
34.553 25.3721 44.813
33.8731 25.9855 48.8661
30.3127 24.9001 44.071
33.8101 23.7585 44.2614
32.9621 23.631 43.3365
35.1691 27.3082 51.1324
32.0701 24.1662 46.3484
40.384 26.4033 47.9043
39.3187 27.5535 50.2477
34.9894 25.0416 45.0746
34.9346 22.1379 41.1479
33.8285 25.8082 47.1705
29.6973 24.262 46.3544
32.3921 25.8426 50.3194
31.3323 26.977 49.4533
31.4419 23.2968 45.416
29.9761 22.8477 44.1586
31.0897 27.595 49.7313
33.6402 23.2313 43.4969
36.0031 25.8522 50.3645
30.6971 22.6495 42.3443
33.733 25.2055 49.7904
34.8866 26.7068 49.5527
29.5529 22.9962 42.1021
29.764 27.6116 56.2021
31.374 23.7105 46.5203
35.1832 24.0559 45.1395
30.4613 23.7455 45.9449
30.5585 21.9418 43.6661
33.3123 24.9206 46.024
29.7509 24.0079 46.8996
32.9534 22.7778 45.0746
27.5892 24.4457 48.0435
24.7522 24.0998 47.5624
29.8697 23.3215 48.1709
28.9398 23.1084 44.8749
33.0323 27.3078 53.7668
31.4324 23.3179 45.215
25.1496 24.2419 50.9238
34.8395 26.4499 53.2937
33.22 26.262 49.6825
32.0729 25.2894 50.8592
31.3895 22.8507 45.7516
25.925 21.9988 42.4558
27.9341 23.6669 47.7586
29.6984 24.5691 47.5895
29.8004 24.0617 48.3246
30.0103 24.2487 49.6545
31.0845 24.7331 52.5435
33.2699 25.1827 49.825
30.9866 25.04 51.6409
30.997 25.7794 49.6398
28.7422 22.8057 48.0303
35.6905 24.5529 51.9373
31.8815 25.7136 53.2417
29.7931 24.885 50.6574
29.7363 23.555 48.1123
29.1942 21.8516 45.911
31.7218 24.3305 50.7468
26.4575 23.9262 48.738
35.5337 24.1484 48.6304
30.222 24.0211 52.7667
25.6737 23.7234 46.6407
28.5742 22.1683 47.4122
33.4816 22.2308 47.593
27.6265 23.177 51.963
28.3549 24.9465 48.4454
24.8908 22.6689 48.5711
26.1365 24.0544 50.0444
25.5549 24.0749 50.0932
27.4796 22.3695 46.3884
25.4879 23.6207 55.07
23.1359 22.3748 50.7212
27.3653 22.7978 45.623
25.0392 22.4751 46.4241
25.6828 21.6227 47.2343
28.1198 24.9098 55.7964
28.4797 24.0704 50.2516
24.3288 21.2442 47.5343
26.5562 24.5555 50.9547
28.5608 24.4105 54.6996
30.714 23.1782 47.0244
23.9459 21.2622 47.8652
25.8784 25.7095 52.3332
27.581 23.2732 49.8552
26.5143 23.3681 49.6244
26.3329 21.2581 48.3461
26.7749 25.0956 57.4201
25.221 25.0458 51.6396
28.4137 24.775 56.1879
28.9922 23.2347 52.9941
25.2955 24.3454 52.7617
29.1402 22.6896 50.5478
30.5399 22.8509 53.2533
27.374 21.7535 47.7105
27.2213 22.0908 47.9451
25.0256 20.6084 46.5927
26.0282 22.053 49.5488
25.3609 23.5795 52.0761
27.7288 20.9409 50.8212
26.8416 21.9792 47.714
26.2936 22.451 50.7397
31.3946 22.1183 50.9418
29.0166 19.9649 42.6332
24.5432 20.2821 49.0587
29.69 21.2002 48.5986
28.1148 20.9912 47.2756
30.7722 22.8134 54.6754
24.4622 19.9898 48.7125
24.0601 22.6185 48.8817
27.4715 20.4318 44.6223
24.4353 21.2897 51.1339
25.4994 22.2844 49.1353
25.6892 21.2393 47.045
22.8579 19.8313 47.0178
26.0349 23.1665 54.7908
24.2151 20.9476 51.2374
24.8553 22.3093 49.2371
25.2398 21.9032 49.5965
25.0776 21.8217 52.9806
26.0143 21.5563 46.5718
25.2732 21.3731 52.6853
27.7652 21.5078 47.2871
22.0405 20.7489 50.398
23.0874 22.1742 52.8686
23.731 19.7367 46.9693
23.5631 20.6309 49.7006
20.148 20.169 49.898
25.436 22.1055 49.6071
27.9281 21.6437 51.9722
23.3257 19.7749 48.8263
24.5675 19.0804 45.6339
20.8406 20.6988 52.3946
26.9377 22.5045 51.873
23.835 22.6605 56.7274
26.1472 22.6709 53.0075
26.7583 22.2762 51.5828
26.6364 19.3501 47.9255
22.0341 20.0832 47.1076
23.1099 20.1544 52.5949
24.8249 23.9427 56.7278
24.2685 19.6376 47.7696
28.4142 22.2572 55.2563
25.4989 20.9493 47.7085
23.02 19.3055 46.7157
24.8116 20.8959 52.4247
23.1945 21.0329 51.5448
29.0406 21.705 53.7873
26.0623 21.443 52.2222
22.9848 21.1046 51.5706
23.3894 21.0158 54.2329
21.6618 20.104 48.2424
25.2941 20.8131 50.1646
22.7758 21.326 52.8672
