# pn-170911/RbIIA-40-TWTF-1280-1959.psd
# Power spectrum* (dif=0,1,2) (really just |FT|^2)
# NOTE: only the first half! (symmetric)
# weeks: 1280-1959
# 1 clock-days, 0 excluded
# PSD: 1441
11489 1.57988 1.31268e-05
1.42991e+06 73.1768 0.00311543
1.97548e+06 63.8842 0.00701329
1.01227e+06 8.54922 0.00538841
747253 3.22395 0.00422025
326023 18.7473 0.000282921
479151 23.8037 0.000665672
108216 6.86845 0.000876257
10381 32.1062 0.00925904
28396.9 25.9562 0.00678182
100222 0.85774 0.00264844
51857.4 3.91431 0.000471515
35181 38.6119 0.0160507
66713 2.53337 0.00197655
7307.06 14.5265 0.0123573
36981.4 1.22117 0.00804376
30099.7 7.37998 0.0220246
46270 4.50855 0.00579059
11606.2 5.06398 0.00534448
10408.6 6.90159 0.00725765
15493.1 0.418784 0.00267135
13179.5 0.666353 0.00315819
19324 0.46563 0.00287273
10496.2 0.799115 0.00433912
16716.3 1.11627 0.00187273
4248.82 6.36061 0.0231257
7161.33 1.67621 0.00617058
3213.26 7.59326 0.0284417
18456.6 6.58985 0.0174999
15329 9.02897 0.0591901
16829.3 15.6702 0.0448128
6686.34 0.764811 0.000977355
9388.92 3.44915 0.0336028
6979.76 2.89557 0.0325293
12874.8 8.60994 0.0350963
5797.45 1.1891 0.0195861
11375.4 11.8545 0.0523119
1930.76 9.63621 0.0500424
7307.23 1.68899 0.00714723
14710.9 25.7764 0.167648
2328.9 14.584 0.131628
1154.57 9.05352 0.0756575
3827.91 13.5223 0.0809554
8871.65 8.03128 0.0696215
3469.81 8.56717 0.0517957
4836.38 1.00289 0.00714472
6073.11 5.03474 0.0457597
254.258 32.2297 0.345107
1312.98 6.20681 0.0680739
10363.6 27.3466 0.282935
4612.82 3.44191 0.0356338
3143.09 10.0765 0.164648
680.501 21.047 0.236139
4134.96 6.95234 0.064903
5038.52 16.2723 0.199197
462.209 39.5836 0.583371
3542.83 1.32613 0.0193075
1806.98 0.743407 0.00865213
2447.03 9.84741 0.200304
2427.32 0.0899921 0.00814978
2364.16 0.091753 0.00693732
1791.17 0.836358 0.00626849
3296.22 5.03821 0.0750535
2889.38 12.5161 0.289122
2771.41 2.09216 0.0605287
3361.88 7.50078 0.205601
676.882 5.95036 0.141082
3124.67 21.1798 0.351697
2212.92 11.8574 0.207331
673.323 11.4398 0.225599
2263.51 1.98385 0.0636264
1447.41 0.0451343 0.0104561
2085.74 33.6972 0.725671
2132.84 3.46451 0.0727847
2334.74 7.16504 0.172427
1314.01 2.07282 0.0437705
1753.42 1.29697 0.0552989
289.089 16.3691 0.439456
90.6693 20.3548 0.582258
983.743 3.89098 0.102351
1222.49 12.1778 0.435452
1978.67 10.5641 0.269551
1818.67 2.79957 0.0876955
1080.56 2.60595 0.0948686
1443.8 10.5418 0.404752
1294.33 1.9904 0.101311
2503.88 12.6948 0.510906
730.056 5.16749 0.232599
440.634 9.02682 0.274367
1305.8 7.1154 0.347511
702.015 5.59055 0.148883
386.682 4.8378 0.193668
860.822 3.76284 0.117989
694.23 7.87575 0.394558
1863.17 7.36237 0.305585
791.385 4.19642 0.118359
718.182 6.46343 0.236418
1301.71 3.63639 0.157011
273.392 7.10935 0.315334
1253.96 15.2904 0.783946
1015.61 1.97599 0.0603798
1365.63 8.85725 0.505937
888.289 1.19108 0.0321731
1201.92 6.54241 0.306246
919.581 2.59219 0.179938
186.372 9.81035 0.493843
774.311 9.89197 0.683634
319.849 17.3878 0.852903
1436.49 8.24032 0.376831
1120.1 5.84272 0.3091
339.223 12.0629 0.598328
271.722 8.49013 0.519046
827.562 0.84889 0.0295552
1390.44 8.91302 0.494337
1052.36 4.70523 0.304875
1125.27 17.539 1.16666
995.88 4.50579 0.370781
367.005 2.92047 0.12794
346.221 3.68466 0.251099
284.188 4.08435 0.331076
1398.33 13.2754 0.904713
542.622 2.89328 0.159117
787.862 2.54318 0.219859
372.854 9.37756 0.654035
558.899 6.50448 0.57938
228.966 4.41543 0.367363
735.088 2.86057 0.285768
665.238 2.00383 0.127477
210.684 16.3829 1.22867
1128.77 14.3544 1.14532
534.906 0.337993 0.0374155
385.499 0.220328 0.0245263
685.961 2.25286 0.21184
354.903 2.30913 0.284596
535.878 13.8651 1.00466
610.621 1.51515 0.147327
252.618 2.5518 0.224032
344.954 0.578565 0.0606288
884.305 13.5877 1.3602
367.482 5.25522 0.374047
661.292 3.77278 0.371096
623.194 14.3254 1.64577
339.513 0.460353 0.00029847
184.885 17.2331 1.48425
509.185 0.737513 0.0335546
675.091 6.53465 0.590873
238.513 3.35353 0.344219
709.072 8.79798 0.889772
594.793 3.40322 0.38761
606.131 13.113 1.66519
253.491 7.28724 1.18151
345.697 17.1957 1.35477
1055.37 31.4752 3.22833
52.0552 16.5565 1.85725
1045.98 20.4895 2.07152
980.695 24.7978 3.29592
11.9053 24.4917 2.42391
632.542 9.76684 0.988193
287.527 8.3288 0.883249
470.774 2.5543 0.329559
359.456 3.04836 0.367218
180.434 6.26608 0.725479
272.672 0.154324 0.0287814
386.561 1.23611 0.151381
402.989 1.63624 0.191821
735.208 18.2619 2.6511
186.248 1.27443 0.249522
520.404 25.0001 2.95892
88.6149 7.96487 0.89963
288.971 12.2409 1.76825
283.601 0.177641 0.00772135
406.117 4.38341 0.717049
735.024 20.8969 3.043
157.578 17.3205 2.24307
246.165 2.63488 0.565635
311.314 3.79026 0.403304
250.517 0.153928 0.0136145
308.399 0.49255 0.0665037
452.775 5.27316 0.898769
306.055 4.14217 0.714431
212.72 2.46096 0.367276
438.846 8.76262 1.65966
35.8421 11.851 1.52468
391.012 5.36359 0.919938
60.7392 13.3118 2.04037
672.568 22.4108 4.12787
66.8849 12.436 1.45663
70.5523 15.167 2.41936
233.019 0.557275 0.156788
242.865 0.0919122 0.0177251
172.346 6.08277 1.34641
406.211 14.2691 2.137
218.844 0.917785 0.159593
202.133 0.123427 0.0268331
560.502 17.0278 3.23666
316.103 7.12177 1.55679
59.5078 6.61438 0.884905
326.299 3.74821 0.904474
76.0177 4.6072 0.627342
350.161 6.96351 1.81636
32.9809 12.8971 1.77688
287.208 16.3631 3.25822
19.6457 28.9825 5.36517
486.413 13.3184 2.53308
91.9422 2.34521 0.264535
126.061 1.71083 0.263295
127.316 1.512 0.270815
203.548 2.35494 0.681086
122.244 6.24749 0.938233
97.6874 4.71589 0.954302
150.493 1.60235 0.206306
17.909 18.859 4.06534
268.071 1.49466 0.160005
226.179 28.8558 6.30949
239.145 0.913202 0.0944925
202.598 1.08142 0.248152
291.98 7.96427 2.11017
82.8254 2.74822 0.407997
172.123 8.32744 2.08606
103.116 2.60038 0.770176
78.0841 5.0967 1.5725
222.555 4.31768 0.642431
222.289 1.64543 0.464931
341.024 12.1109 2.60838
212.753 1.8987 0.677739
145.685 3.30109 0.979601
73.5924 2.63506 0.323495
45.8575 7.75582 1.77722
126.012 0.837743 0.307611
275.139 4.3658 1.02333
206.542 12.3065 3.51724
111.444 3.36432 1.57667
70.9467 20.0416 3.81821
55.5814 7.19419 2.15344
182.637 0.382709 0.227491
146.304 4.42377 0.719969
76.6316 8.24921 2.37187
208.05 4.21267 1.30289
324.42 12.6876 2.84605
112.395 0.414445 0.0247974
107.883 4.72617 1.06283
161.265 1.73502 0.479867
32.9083 18.7093 6.01379
312.434 11.6207 2.38532
135.839 0.919625 0.537074
335.576 11.074 2.22313
399.891 25.2058 7.64002
158.542 2.00987 1.34102
84.3675 7.48044 1.66849
93.3589 3.20767 1.11383
77.4195 1.58478 0.301845
106.657 1.37477 0.286504
84.7246 3.61409 1.1946
179.255 1.62107 0.612715
67.9852 2.53582 0.832245
122.078 0.352256 0.0508425
160.188 1.7711 0.291186
161.438 1.01474 0.31893
98.7397 1.4564 0.332189
330.124 23.1843 6.82222
130.893 8.82314 3.56932
202.913 8.75051 3.19361
64.0447 1.20963 0.111046
39.2819 6.74345 1.76771
105.758 0.0831624 0.0242021
80.1249 15.2526 4.3204
100.305 1.91546 0.853553
77.635 1.07835 0.341078
132.634 2.9334 1.30988
65.8603 2.52393 1.07827
81.7953 0.836613 0.356372
109.996 2.45038 0.426499
150.959 1.55835 0.640352
114.612 2.02807 0.68875
66.9834 54.6862 18.0323
112.133 0.119123 0.156011
62.3853 4.145 1.97413
172.441 1.56709 0.205681
180.691 4.65375 1.64328
122.935 1.89496 0.571747
126.666 0.734699 0.307137
156.457 5.73077 2.95017
107.755 7.8258 2.44263
75.1199 1.33589 0.718625
76.6971 4.43924 1.28887
7.0056 23.6236 8.58411
147.14 1.04996 0.18938
93.8599 1.91071 1.19082
177.093 12.7422 3.91785
184.891 11.1933 5.44567
88.1002 2.04442 1.99252
27.8301 18.59 7.60349
65.1906 57.3223 20.0117
142.943 1.12686 0.238586
146.544 4.45735 2.79921
15.1036 19.0381 5.87537
15.2861 21.1973 7.872
75.446 5.3415 2.23283
67.7157 1.18487 0.545709
33.798 17.1321 7.51883
72.1027 2.76481 2.49414
110.186 15.7522 5.44002
41.5089 8.50991 5.18722
166.752 3.7485 1.11326
140.934 3.71192 1.48784
46.8849 3.63997 1.27084
47.2893 3.16181 1.36314
24.0866 14.5393 8.28137
127.376 4.32695 1.81454
81.7287 1.2444 1.46421
145.944 3.49072 1.36434
158.712 15.4554 7.73981
253.576 28.1132 9.45009
89.0893 4.35646 2.65933
172.802 8.22924 2.95431
190.142 19.6652 9.67982
52.281 0.514585 0.139588
65.637 0.265399 0.0451493
50.9755 8.21716 3.82787
41.7365 5.18828 3.49686
97.9438 0.0236273 0.218018
90.9502 3.97494 1.94661
146.126 13.4732 6.98305
131.699 5.92641 1.9729
37.1519 5.53419 3.46813
131.319 1.9562 0.298307
115.243 3.33587 1.0388
130.284 4.36114 2.20599
74.739 0.57488 0.0573603
80.8604 0.316584 0.0946635
163.38 15.4398 7.50187
177.601 20.1319 10.7186
66.7204 0.441496 1.35007
4.72169 21.3669 9.03447
91.7984 3.40299 1.5813
71.4439 0.321379 0.209121
100.956 2.62996 1.96636
84.0876 15.2716 7.51834
53.3466 1.80765 0.537264
28.2213 11.4498 7.59962
143.624 7.81841 3.57514
117.989 1.97721 0.520073
107.786 1.75687 0.702332
87.866 0.365036 0.251052
188.211 17.7714 10.0007
36.6873 6.12034 5.16827
95.4682 8.95152 2.59179
163.429 11.9046 5.26557
98.6378 3.4577 2.5227
65.289 11.3331 4.92607
123.974 12.7556 9.50898
63.5934 12.8024 6.58213
83.0839 7.13158 3.23405
44.6963 0.74847 0.224419
78.0323 4.35528 2.88101
55.3484 3.07799 1.67894
83.7277 3.22837 1.73732
40.5 17.8431 11.2324
90.5625 3.18352 1.27191
33.6722 2.24485 0.425026
13.9764 12.3868 6.61977
48.8776 1.82153 1.41819
33.4628 5.87508 4.77686
55.6704 2.37446 3.50837
128.449 12.2635 8.62531
183.099 20.4915 7.96808
116.425 7.91959 6.12384
27.1414 10.4397 5.27169
100.457 2.83079 1.64273
44.7387 6.50677 3.46036
31.3569 5.83476 5.4546
164.577 17.2507 9.85625
26.3467 8.62099 7.23768
78.6765 1.1529 0.0305779
46.5495 9.79568 8.56557
177.701 21.6664 11.0992
102.281 3.98429 1.50725
84.6571 1.75541 1.4482
99.7609 15.4444 8.38121
86.1558 2.12514 1.17205
76.6286 3.95208 3.67659
71.6789 6.38562 2.48555
103.211 9.16197 6.53848
42.3263 0.500177 0.233303
102.568 7.54341 5.46266
42.9606 3.96261 4.75825
96.9151 20.4889 12.9137
100.01 10.4665 9.3811
19.9161 60.9414 40.3381
88.2877 0.419265 1.58171
127.563 9.81531 7.64079
61.0376 23.54 10.0781
83.8558 11.7848 7.16895
68.422 3.22278 2.91931
77.7296 0.697725 0.0688789
151.465 19.9787 13.8862
35.3482 11.3 6.03704
66.2631 8.54348 7.96769
132.902 14.542 10.2097
29.6348 3.41018 2.06484
56.9883 0.54521 0.476906
50.5043 6.05554 6.46734
112.877 7.56383 3.2361
103.83 13.6007 10.0195
82.1597 4.74298 4.3884
48.7886 2.66772 2.78596
34.2906 4.72895 6.32923
178.058 32.505 22.6111
48.1288 4.40003 4.35711
52.3773 12.4538 14.9014
57.0917 1.13827 1.59151
64.9846 11.7603 7.38725
17.4584 3.9261 1.38863
36.0977 0.919452 0.733673
90.3284 17.2593 17.8003
20.3128 14.7417 8.19416
68.2886 1.51618 2.30675
108.889 11.322 6.85168
62.2 5.05845 4.85659
47.4719 1.10079 3.36727
25.8306 12.2285 9.42066
9.30003 16.5977 9.76619
24.1712 7.82256 10.45
100.159 8.79954 4.4253
155.426 26.8704 19.8137
56.5656 13.4404 14.0325
38.7162 3.29817 1.07757
30.1596 3.29059 4.04487
32.6378 10.097 6.88005
88.7294 4.86555 3.18562
47.8254 0.224344 0.489504
44.9586 0.054563 0.573607
54.1032 10.9199 5.84508
56.4852 6.80101 6.62581
57.009 1.68787 3.32817
50.5746 6.0688 3.14549
51.9889 1.21221 1.22551
49.1834 0.33474 0.304331
83.96 11.3067 10.3899
43.9113 1.35737 3.44561
28.8037 0.142598 0.271216
26.1033 9.48572 10.4205
80.0796 6.78823 7.99004
24.4753 0.680729 3.27967
31.4804 9.92675 2.59865
24.3533 13.3362 8.82147
21.0528 3.90733 2.72825
28.2492 2.73876 2.86405
35.5668 2.17195 2.7942
53.4138 0.0234729 0.282194
83.4905 18.7365 19.0954
76.6978 7.63688 9.7294
8.95406 13.4123 7.61753
41.6092 7.33171 6.00166
65.7316 1.4168 0.954924
61.1513 6.74727 4.4232
59.8146 2.19551 2.02726
43.4179 0.968276 2.56933
34.9678 6.96832 4.33826
33.0424 1.83367 2.93186
74.7708 15.8961 14.4642
16.3321 14.5442 15.5703
114.063 14.3499 9.19434
41.4448 1.51848 1.34706
53.8289 5.30927 6.96829
57.5945 4.69269 2.39575
52.1907 2.12411 3.21566
53.0225 9.72739 6.77625
37.3301 11.5324 11.8363
40.3139 0.360561 1.11981
63.0492 10.7794 20.2583
8.57885 10.9269 3.52396
6.60433 25.9037 24.0897
67.4526 12.3941 11.8152
43.9107 2.34317 0.609632
41.5236 19.3702 19.9493
17.002 4.57545 5.58063
35.4217 12.624 11.0932
55.4644 0.820882 0.483802
64.8511 5.83841 5.99759
26.2645 1.26243 0.323544
41.5404 14.9153 20.5273
34.3022 1.07724 2.35672
70.6653 12.4116 4.20328
53.3671 29.607 22.7552
24.9325 15.7494 21.0969
101.004 19.8933 21.1926
31.1261 11.2085 22.8032
13.8227 7.10518 3.00439
15.4376 9.39136 9.42226
51.3853 5.42876 10.3284
35.5397 3.55717 1.34798
39.5996 0.920413 0.391747
39.4771 0.140914 0.290069
18.4358 21.5506 35.6103
76.1799 11.7875 5.36772
92.4948 13.969 14.4123
32.2652 7.06687 2.95257
65.7626 11.0237 7.61142
44.9191 0.732685 0.353013
53.368 7.01365 5.93147
57.2507 5.58273 8.14645
17.5189 12.478 14.0668
85.4393 13.2408 14.4677
31.5001 18.1956 20.7915
35.2272 0.593597 0.192508
31.7058 0.70676 2.58492
93.0209 26.8534 22.6117
31.7353 0.400432 1.03453
46.0365 1.48866 1.16916
59.6582 7.98153 8.38612
52.7812 7.06904 11.6145
24.3456 0.898238 2.25738
47.6843 7.50909 14.7529
7.46809 14.7342 17.8557
85.4257 21.6857 29.161
15.535 14.1432 14.0784
14.3103 5.0011 1.24509
5.41282 15.1193 13.3696
21.3251 16.6004 17.1508
32.1162 1.32453 5.97724
92.6576 30.7964 37.7093
3.32808 17.4691 22.6966
54.3696 10.4078 5.91201
47.0754 2.6631 2.93132
95.8613 20.635 18.9428
45.9512 22.585 28.7407
59.816 9.09173 11.81
39.5619 5.67893 13.6926
19.6544 0.664224 10.0294
13.5381 33.8543 27.1863
26.8711 0.593573 1.09868
41.6983 15.6007 32.8692
74.7786 23.9923 20.6694
26.567 1.83683 8.85404
16.4898 2.90708 11.8029
1.48762 27.605 15.053
26.74 7.1388 9.70624
3.66434 16.1273 17.9056
12.7985 18.3091 15.5151
19.3611 5.7889 12.0148
59.5781 5.2936 6.7398
6.96388 9.3103 8.50276
22.2528 6.9118 7.62364
48.1909 3.13278 1.78676
26.5619 36.1626 41.1987
50.2505 1.95854 1.33331
21.8312 0.488911 0.18216
27.0838 2.06713 6.90952
14.894 7.76225 1.839
17.9315 42.185 49.6485
39.5303 0.820704 1.28254
9.57435 26.6439 42.3631
66.7251 7.96098 8.07296
19.4148 7.03665 19.6806
50.9004 0.0507665 5.14507
77.1958 14.7621 13.8916
85.1906 18.014 13.7166
25.4678 0.678081 5.18598
119.316 48.4147 53.6249
34.0335 10.5774 20.7772
21.1782 0.388993 4.75324
13.2662 1.27213 5.75238
13.7638 14.3748 10.6822
44.0944 8.52496 6.25487
37.128 2.27748 2.82228
26.0954 3.9051 4.81435
23.8378 0.100464 1.98332
11.3307 5.60011 3.17697
18.7775 1.83902 3.93017
39.3407 7.51955 6.82618
5.71035 13.2298 12.9529
35.8649 13.4207 11.4939
37.8178 19.1049 27.1979
34.583 10.7959 31.6859
49.3823 7.52361 2.49075
39.9183 4.61474 10.2876
9.43834 10.3678 10.9452
20.878 2.62986 3.92048
42.1891 3.31248 6.94463
9.76861 8.96236 7.0699
30.5782 18.5765 26.4083
19.123 5.67009 19.4043
77.4161 12.7792 8.32979
55.6197 22.5896 51.4541
6.07281 12.4892 5.99045
18.3589 3.53004 2.83047
24.1158 0.120523 0.0578635
8.01372 27.6073 52.1759
36.6674 9.20231 19.1021
83.4025 26.5385 21.6246
29.7619 0.0331369 0.329368
36.8684 14.5425 26.4649
67.8816 18.1542 20.4591
19.9141 1.51903 0.158227
30.8178 13.1104 19.7012
40.1609 2.01895 2.15556
29.7376 1.54952 4.16397
17.3144 2.43476 6.73809
17.032 1.82679 0.456243
11.1064 6.59841 9.59587
17.8764 6.78972 19.9084
44.9984 1.93976 13.4282
79.7032 19.3495 12.6498
54.2532 19.8463 39.2216
54.7787 34.6154 37.1403
22.7673 0.296555 3.73186
27.1123 11.2239 18.2148
41.0003 7.97411 13.7942
3.03977 22.8317 35.0224
45.6007 0.608559 0.925835
42.3454 2.04368 5.895
61.7879 19.2538 18.3394
24.3766 0.445898 0.91342
46.7379 9.18613 16.7652
18.546 2.31258 1.3924
26.0783 2.6147 14.6387
19.8116 16.8718 10.3567
16.1425 4.12636 6.27919
38.753 9.34874 11.1663
17.3283 3.18579 11.921
64.0091 12.6141 7.90868
37.2727 5.06638 6.34009
29.9062 12.0782 16.1971
22.6759 1.88524 4.63027
32.4611 4.26726 10.7411
21.0524 0.766664 7.29853
5.19498 16.3218 26.6936
54.686 15.1189 16.2771
13.0381 5.31923 9.20076
28.8682 2.96512 7.10065
24.9203 10.7054 10.5388
19.3859 2.26468 4.01632
23.1498 0.244445 1.25688
16.9963 12.8258 15.1065
5.72009 26.287 51.9075
25.8922 4.37321 32.3403
78.9375 18.6479 21.3559
17.332 4.68784 8.26447
44.7626 2.0677 0.247911
60.6112 18.196 25.2702
13.432 5.57447 8.70094
50.9313 13.4788 22.7917
8.36534 4.39789 10.9241
49.9091 25.3632 40.3472
12.0493 12.497 30.2077
76.8416 17.5973 6.74079
70.9006 42.797 79.0676
5.61508 1.6197 1.50083
23.3455 1.19165 5.06014
27.5518 6.81864 25.3339
7.13488 18.6433 22.7208
18.2316 4.94369 8.38541
39.2359 7.09662 10.2461
28.1598 3.21047 12.8057
18.1694 2.31469 0.442783
34.7346 7.08661 17.6234
12.3171 3.75458 14.652
7.27405 3.85371 5.25487
18.3768 25.2684 23.3709
5.60072 20.7994 48.2702
52.9194 8.8405 11.3795
31.6754 1.57781 8.35989
41.0274 12.4906 16.1674
37.321 10.8494 19.2503
15.0655 1.08507 0.535348
28.6827 9.73233 17.4009
23.9426 0.231916 1.52301
22.9502 1.94112 0.617143
31.6957 4.65194 5.54196
19.5384 6.35738 14.4795
27.5025 1.8701 9.49084
23.893 4.00648 7.70012
3.88916 14.8356 31.9974
52.117 14.9921 13.8769
29.7568 2.9084 5.68489
15.2019 0.512188 3.40417
20.1402 5.95351 6.13419
31.4604 2.28079 0.956719
52.5644 35.7903 60.6002
29.5426 5.68852 27.1243
33.9828 6.19076 8.73102
34.2251 15.6612 41.4196
2.11657 9.20195 9.42159
36.2908 7.3117 6.90349
33.1823 28.609 77.0002
8.24889 7.34015 4.36787
1.48008 22.4289 28.0661
22.986 1.57074 9.95889
48.4178 15.3013 23.1829
31.1153 6.61224 20.8961
7.93251 4.97122 5.46936
40.9245 12.3251 30.9896
8.80552 20.7897 56.1262
26.3706 7.02054 3.12674
54.5639 31.9745 51.7271
10.4601 15.4718 26.5042
6.35223 6.70014 14.0516
7.13461 5.28097 14.5369
10.2563 5.46888 1.51238
10.204 9.53452 17.7021
26.8738 18.3734 34.4986
8.52592 7.82424 9.91926
13.0667 7.49486 20.925
38.4089 6.46639 17.2462
9.21027 6.65832 21.8378
38.9331 24.5813 28.8142
11.8834 5.32205 14.7548
25.1762 0.607109 9.20981
39.0747 8.01884 17.8137
22.1546 7.42001 18.6167
48.5308 10.0124 12.699
30.7927 0.514714 8.57481
83.2649 56.0575 85.15
17.3221 9.32463 47.0692
1.75399 27.8792 27.9636
32.673 15.9355 23.4619
22.7574 7.58188 29.6299
45.1299 14.2416 34.8638
6.36328 8.15138 16.7488
35.8959 3.92819 6.69073
70.7551 44.6605 76.791
20.8369 16.2357 33.8302
23.2649 13.9721 52.6566
12.0133 13.9238 8.36962
19.7204 5.94609 15.9859
14.2338 1.93153 17.6085
17.6967 8.63459 10.1283
20.8931 4.41052 17.7088
15.6508 6.37156 8.258
11.2521 3.39338 10.1392
16.4573 0.753037 11.086
5.15941 2.77803 2.8324
8.47782 3.34416 0.610903
7.39357 31.6912 56.6616
37.0177 5.33882 15.4274
20.1425 2.63557 2.68199
14.4604 3.05593 12.8349
14.1652 9.43243 13.7679
31.9846 6.53598 19.9516
7.54662 4.92066 3.05776
1.51372 31.5644 71.3972
45.6264 5.17656 6.76572
20.5047 4.46358 5.67212
28.4443 5.96215 12.5991
29.8093 2.54697 1.13724
31.5664 14.1818 43.5744
12.1268 2.06558 0.170937
15.2921 0.204156 3.61586
26.5498 17.6691 21.9501
18.4908 6.49784 27.1294
24.0183 1.39029 6.96684
27.9702 17.1381 28.2492
11.8066 1.07912 11.1214
17.5767 9.41932 24.0676
10.5236 1.68354 0.686567
11.019 0.076363 9.87553
15.0718 44.6174 70.3582
8.89794 12.8306 59.2768
43.3212 15.4783 12.1022
12.4269 2.92001 13.4632
28.6632 6.59293 3.1521
19.1913 5.66846 10.0606
20.1852 4.55922 21.4032
26.915 2.73622 15.0369
19.6266 12.0995 5.79899
13.9596 23.5012 72.9119
49.6245 19.2463 22.7186
13.1332 1.37478 12.2376
18.1384 15.7686 31.53
5.71569 8.92432 21.7155
24.245 0.371272 8.95036
46.4667 20.5569 30.7611
16.8574 2.82145 10.6118
11.3393 0.33751 5.05362
9.85642 9.80371 15.2293
10.1468 5.70325 19.6546
27.8932 7.14464 38.6664
25.3359 4.40491 2.13209
15.029 0.827477 26.587
35.2084 31.1895 30.1599
26.401 5.35606 8.93906
19.4459 7.08868 21.5017
8.09661 13.2362 32.596
16.0287 1.59076 2.06323
32.062 11.3632 27.8886
18.2017 12.2737 29.6524
13.3814 5.90555 53.8927
6.19111 9.87702 8.53897
7.09688 5.85914 15.7373
10.6735 5.75936 0.163467
13.9756 25.2603 62.6578
24.7935 6.11958 9.23396
14.9175 11.3653 40.9668
11.4197 0.518155 9.54437
11.5019 9.48946 5.34325
4.18301 8.49066 4.66052
11.2192 14.3926 21.5925
18.9007 2.80739 8.28384
12.366 2.95403 15.3858
13.236 3.53494 13.2828
31.1632 16.7283 29.6356
12.1342 1.08484 8.13747
24.0621 2.05773 0.406386
27.5725 20.342 56.9366
11.8556 2.19276 10.3588
4.63464 2.95232 4.797
11.7143 12.3895 18.4952
6.83867 7.20351 11.4878
18.673 2.39486 11.978
28.5918 8.15426 31.2597
5.33231 4.5181 3.43767
4.4283 8.4417 7.97744
14.1714 1.63596 11.0464
