# pn-170911/RbIIA-33-KOKB-1280-1959.psd
# Power spectrum* (dif=0,1,2) (really just |FT|^2)
# NOTE: only the first half! (symmetric)
# weeks: 1280-1959
# 1 clock-days, 0 excluded
# PSD: 1441
23009.5 1.06268 0.00044829
1.05924e+06 38.9032 0.00179406
598946 54.2416 0.00288078
2.57047e+06 46.7899 0.00180179
1.69861e+06 54.393 0.00563786
400515 8.56319 0.00271312
218606 78.0406 0.020497
10250.8 9.13245 0.00501991
56375.3 23.6354 0.0145264
80926.3 4.31699 0.00599123
133665 30.3768 0.00708296
49194.5 4.12626 0.000663292
33252 0.937207 0.00366448
76995.8 24.9097 0.031866
6974.99 4.63221 0.00925203
52746.5 41.0622 0.0281283
43818.9 24.3392 0.0186214
10220.6 0.450915 0.000297886
482.688 9.68894 0.016025
1429.06 11.3822 0.0250376
4386.4 5.21357 0.00566751
7376.75 0.324353 0.000206907
218.056 18.0907 0.0398616
2463.86 3.74963 0.00742862
4255.62 0.645372 0.00136489
4040.18 0.432773 0.0013877
6408.79 10.5111 0.0488335
5008.75 0.782406 0.00830403
9707.18 16.7137 0.0843622
9128.63 4.11203 0.0197485
5542.17 1.0591 0.00973594
2671.99 4.68587 0.0332683
10210.3 11.2632 0.0691611
1490.14 2.94091 0.0223142
1424.24 35.7712 0.215972
5553.81 8.21099 0.030029
2152.92 0.253964 0.00193281
8642.54 16.9946 0.0922443
4224.87 3.22682 0.0169921
1658.64 0.249839 0.0022682
287.123 7.47709 0.061615
4170.2 3.86983 0.0414792
3650.35 10.555 0.0676887
481.732 5.75771 0.0568798
3095.97 2.00578 0.0245287
4975.67 9.67005 0.108725
1202.03 10.7083 0.129572
461.229 3.8135 0.0355506
1694.47 4.26414 0.0685469
1151.03 7.92968 0.0693535
1045.09 7.16737 0.107512
2858.85 3.58196 0.04786
2486.13 4.46816 0.0771649
1078.69 3.29205 0.0658696
536.62 2.2712 0.0430685
1862.37 6.16084 0.0601653
578.828 10.0278 0.127279
1996.71 2.24397 0.0354429
1522.97 1.37202 0.0192079
6.80661 16.2789 0.266244
1407.49 2.68218 0.0647267
3663.33 17.1668 0.292971
509.999 0.907419 0.0111864
383.625 2.0946 0.0456278
1254.28 2.14244 0.0629206
1682.76 7.45943 0.119687
722.119 2.9198 0.0438625
969.302 0.605037 0.0212173
261 4.82073 0.119435
1030.83 0.705899 0.0231884
1084.17 1.04719 0.0307314
1147.08 1.80825 0.0600234
723.474 16.3687 0.34565
178.428 4.83146 0.130366
700.952 4.80802 0.164686
1752.08 7.96519 0.192059
1476.74 6.50568 0.174763
1215.05 5.0694 0.192204
284.021 5.68865 0.111322
555.377 13.6516 0.345667
633.978 1.85664 0.0450794
164.942 2.96831 0.0828492
549.082 1.8026 0.0430521
171.94 2.64778 0.0794372
422.553 4.03119 0.167317
274.766 5.8803 0.174953
1121.1 5.44325 0.184486
157.015 3.30257 0.103962
739.793 1.59132 0.0607574
193.018 1.63984 0.0561071
242.844 0.890921 0.0319537
251.39 2.84796 0.138568
278.208 6.79507 0.234312
190.15 1.84455 0.0873498
739.215 4.62058 0.230128
584.533 2.17604 0.064034
301.02 1.85691 0.0515625
354.105 3.96242 0.136489
249.342 4.56993 0.184864
860.189 14.5454 0.627866
1514.39 23.7532 1.18927
198.755 1.38467 0.0394727
133.793 12.8214 0.618615
246.645 0.436382 0.0296439
369.441 0.405711 0.0311025
51.636 7.09348 0.40655
576.553 2.95456 0.111967
1245.1 20.368 1.13829
118.529 2.19056 0.0876807
484.494 15.1193 0.87792
236.01 0.436687 0.0388597
713.676 11.3185 0.778965
88.2026 2.55293 0.135906
373.8 5.71221 0.281252
9.26665 10.3005 0.590188
74.0811 4.81451 0.342251
172.298 0.876561 0.0779972
403.171 2.36525 0.112921
527.812 3.67771 0.255394
177.75 0.67606 0.0284401
127.487 1.96669 0.161834
425.406 1.93458 0.114369
231.588 0.906357 0.0418482
477.015 4.23774 0.310677
241.561 0.882964 0.0939866
28.3649 6.29562 0.429882
212.449 1.58154 0.080354
4.48312 20.9562 1.65097
387.698 2.57354 0.140892
156.649 0.607701 0.0530894
239.225 4.79865 0.375748
456.594 3.98347 0.287519
338.205 1.73031 0.157036
175.95 3.33779 0.261147
174.876 4.59524 0.447887
218.6 0.651421 0.0975835
239.909 0.227009 0.0351637
317.495 9.38235 0.734555
298.535 1.22953 0.0892831
363.371 5.18302 0.463876
653.639 14.2773 1.3338
730.381 23.9149 2.37382
86.4239 2.60937 0.180807
114.513 0.345239 0.0202939
348.498 4.28325 0.523371
17.1916 6.76766 0.574204
185.375 2.93258 0.232783
197.909 7.93384 0.834389
236.964 1.0183 0.134761
192.408 0.47113 0.0942333
103.669 6.04041 0.544474
61.1823 2.7301 0.257128
20.269 6.80602 0.74705
166.012 1.04547 0.146023
80.2585 1.89421 0.223265
304.7 3.51241 0.389249
91.6625 0.476864 0.0336254
12.9926 8.50591 1.03754
198.957 1.70788 0.189583
212.655 0.965579 0.0775364
261.613 4.39558 0.554223
237.352 7.96186 1.05217
184.388 7.14861 0.728763
180.858 8.9361 1.20944
191.155 1.00532 0.177907
23.0201 5.60435 0.73484
277.236 3.64082 0.411026
164.062 2.5235 0.419324
219.834 10.355 1.20735
183.64 15.8752 2.40388
193.763 1.60299 0.154865
212.266 3.96739 0.692601
70.0892 1.42236 0.264777
164.936 2.04609 0.249326
99.1195 6.34119 1.10788
156.664 8.3854 0.951376
78.6551 0.68217 0.106944
97.7823 0.0683897 0.00296648
81.1949 5.50007 0.68821
134.141 4.35888 0.702794
63.4751 0.958381 0.143823
79.5519 2.89665 0.468587
260.785 6.14816 0.956263
39.0185 2.549 0.421395
197.846 4.08576 0.655023
294.384 15.1341 2.35601
157.215 6.43815 1.3966
39.3669 4.07232 0.521185
239.698 6.59975 1.29033
36.1958 1.66523 0.174808
34.7073 3.61256 0.584962
68.106 5.29308 1.19316
103.198 0.223218 0.0015819
124.009 3.23523 0.422994
41.7345 4.09891 0.840052
71.0375 17.4708 2.83708
112.403 1.56598 0.289232
161.33 1.71327 0.256897
189.239 3.83136 0.744533
122.492 1.92651 0.469481
8.85043 11.0511 1.77657
64.9224 2.78246 0.636751
68.456 2.27002 0.363058
119.12 0.567655 0.0738704
77.3049 1.21834 0.172991
63.5358 0.35556 0.10663
97.4768 7.77375 1.41104
75.9705 0.103635 0.0416933
110.182 0.535592 0.0504108
155.454 10.1918 2.10706
187.613 6.14079 1.517
7.34949 6.34335 0.987434
28.9919 6.63612 1.59173
111.279 4.69292 0.894052
89.0335 0.0249167 0.00331024
180.893 8.5956 2.12834
38.1116 2.06149 0.286008
74.5339 0.844379 0.0988782
51.8526 0.842068 0.321859
69.0141 5.15699 0.865609
138.787 6.32663 0.972069
244.792 26.2904 5.88992
140.471 7.36255 2.35552
1.30334 19.967 4.89312
242.33 13.4875 3.25566
93.6114 2.21375 0.37068
34.7918 2.05358 0.514544
85.8186 3.13245 1.07983
76.4889 1.75912 1.05362
123.475 13.4665 2.31331
116.967 2.38501 0.395072
123.515 2.96078 0.76318
125.168 28.1697 6.37987
116.2 11.3169 3.53916
140.087 4.02397 1.19913
100.502 3.14684 0.872091
15.5716 3.24722 0.625538
55.8877 0.365065 0.180953
37.4615 3.70996 0.888612
139.521 7.08932 1.78046
110.956 5.47706 2.18973
47.8752 10.0565 1.99367
22.166 3.02361 0.91899
133.044 9.19043 2.53262
22.5946 2.77295 0.93761
156.976 7.27786 1.88728
26.7914 1.8891 0.472516
67.0089 0.0715907 0.0103417
73.6548 1.31523 0.357824
44.7013 1.35595 0.5387
87.3626 3.55893 0.870389
50.2044 0.569332 0.252732
100.526 1.96011 0.512973
62.8028 1.28801 0.395853
110.893 4.28716 1.34386
88.0009 3.22232 1.63837
4.28584 7.10502 1.70664
78.0621 6.76652 1.75949
56.1413 0.243457 0.0981846
61.151 1.19092 0.519277
32.5558 2.38229 0.616453
58.8408 0.15115 0.0948107
26.7385 1.4729 0.48461
30.8239 7.13135 2.02704
25.3014 3.05755 1.35112
74.3339 0.422204 0.0224232
71.0057 0.277293 0.00150191
112.434 3.33379 0.754998
128.883 11.4014 3.0448
106.234 6.11316 2.02425
93.5285 7.87975 2.95804
39.4484 2.11964 0.777696
95.0086 7.29668 3.10218
24.9126 3.24555 1.44044
109.586 6.06283 2.75586
45.5761 0.79049 0.325186
21.299 1.77747 0.297669
36.5888 0.859057 0.296995
75.6679 2.17367 0.887613
77.7055 4.37549 2.46025
51.0781 6.96857 2.55835
4.48952 7.22557 1.68858
33.2425 1.73871 0.360112
26.0452 4.05208 1.18425
29.8562 1.84401 0.627634
33.9176 0.768223 0.269139
35.2328 1.72075 0.710359
8.65932 21.6916 7.85159
55.1902 1.10076 0.785772
23.1722 1.91042 0.552657
54.0093 1.27306 0.697615
7.54378 4.5955 1.34479
53.3377 12.9522 5.58921
22.925 1.04738 0.318071
10.8795 6.50793 2.99501
27.8184 0.998729 0.749943
30.8574 2.53809 0.883721
32.2549 0.745595 0.657795
65.7489 0.800554 0.160776
46.6322 0.467501 0.0675738
106.346 8.90926 4.7248
9.73496 11.3761 3.34795
15.0723 3.46898 1.54648
55.2606 3.10108 1.42802
15.2022 6.13534 2.37273
41.1908 1.98999 1.12195
52.1598 0.20296 0.0299971
78.3565 3.86523 1.89798
27.1977 3.79354 1.78241
22.7323 1.61228 0.353906
14.325 4.52094 2.23807
65.7492 4.72823 2.03139
18.0183 1.64135 0.36101
39.4226 10.3745 4.33402
53.2228 10.7398 7.31983
19.5918 7.94919 2.02536
15.8992 2.12101 0.922869
10.1651 9.43692 4.20947
48.5738 11.6801 4.98168
49.5575 3.78079 2.02792
37.7744 1.80072 1.48202
24.4858 1.45243 1.02406
66.8124 3.02526 0.763854
34.8082 18.712 9.96182
60.1001 0.903003 0.0388848
48.77 0.345205 0.0752134
42.702 4.73832 3.44143
60.2418 5.22459 1.49284
59.3571 2.03946 0.99567
13.6047 2.28522 1.22467
46.275 1.04571 0.356464
33.8841 0.0803571 0.205492
69.9578 4.56837 2.14396
69.8875 4.93497 2.09252
43.4508 1.01769 0.754156
31.0341 0.441656 0.415503
27.9358 1.56546 0.73681
38.1961 0.719702 0.918486
4.46484 7.4328 3.22157
51.807 1.51771 1.03213
3.25857 10.0731 4.91483
30.3995 0.287307 0.468607
48.8829 1.09599 0.353472
43.2751 0.595828 0.290264
36.39 1.13163 0.872807
7.07743 5.25285 2.63926
36.4152 4.75541 2.83053
32.635 0.515136 0.300034
54.5386 2.0639 0.979475
27.7233 0.00109471 0.0214318
19.1782 2.33015 1.2011
8.24569 6.90547 5.5772
82.3696 4.74869 1.40703
54.4328 2.17171 0.952606
52.9719 5.26428 4.21098
27.4668 3.68999 1.19728
36.6703 0.733911 0.624923
12.1945 2.12705 1.09899
27.8341 3.21869 1.91639
55.1996 3.34256 2.50465
5.86268 6.9842 3.51693
24.1003 0.726165 1.09652
76.8111 11.0865 6.57039
26.0568 0.220415 0.176401
65.0581 10.3063 5.82158
34.6965 3.25133 1.58245
36.7364 0.546936 0.391826
49.344 4.2027 2.99253
30.848 3.51593 2.00585
21.9942 0.718774 0.732252
23.6787 0.0116273 0.161915
12.7172 3.63761 2.45167
15.6189 1.29528 1.28766
34.4923 2.27817 0.782585
40.4676 2.06713 1.04861
53.7713 3.61962 2.23161
36.0413 1.1281 1.03197
44.4857 5.78534 3.91177
22.0444 1.57418 1.36643
32.9704 5.00992 6.00251
1.50917 7.99343 2.28765
2.39733 11.9613 8.07343
46.2682 5.96075 5.40068
42.254 1.80527 1.09601
27.4974 0.693281 1.78174
17.0019 4.11801 1.31091
10.3145 1.54841 0.899873
5.71861 11.9395 5.52015
4.86128 7.82061 5.96926
20.07 6.27407 5.40026
34.7672 0.36192 0.565245
56.5552 3.57042 1.56371
35.5082 3.41612 2.17576
32.9885 11.1746 11.8657
27.8332 4.49355 0.628317
15.9524 10.2562 5.98424
12.5234 3.32175 3.12884
37.6315 2.55638 2.62217
37.2405 4.01238 2.09236
38.8538 1.79533 0.800654
43.4788 4.43687 3.70576
21.6348 0.927499 1.79993
29.0049 0.527728 0.556504
14.6725 0.697039 1.04201
44.0808 3.69589 4.41857
32.4561 3.13044 0.880689
40.6649 4.86155 6.92682
21.2404 18.9972 8.54291
18.5157 0.00166343 0.284018
7.19556 6.51579 2.60544
8.4269 3.88099 2.68853
30.7293 2.27306 0.980181
15.0632 0.554712 0.650158
53.1515 9.04663 7.81062
17.2633 32.0893 19.5108
23.8035 2.26106 2.32084
9.67547 7.20557 7.82835
38.2869 1.3059 0.357367
24.4065 3.30843 2.37315
33.7288 2.18905 3.07086
13.9745 3.42472 1.08741
7.10983 10.7888 6.71669
9.5856 2.91392 2.52063
17.9217 4.85115 6.51479
33.3662 5.13431 2.01668
17.954 0.716504 0.480558
3.93355 8.1149 5.74066
14.5643 1.24532 1.66778
32.2735 1.82268 2.17406
2.75524 6.6321 5.00428
14.2825 1.97162 2.10697
27.3124 2.81778 1.11676
11.5638 6.99204 7.02378
55.6809 8.79488 7.92334
6.77663 11.7826 9.3267
39.5274 1.8345 1.12937
11.1777 5.2785 4.35759
20.2768 0.855338 1.39489
36.3386 2.60419 1.56432
39.5597 4.25984 4.41087
7.70196 2.01071 0.877511
7.03995 3.13826 2.52925
27.7004 1.51173 1.48694
6.46058 2.40003 1.26683
6.01229 9.33403 10.7699
32.3489 0.523094 0.104211
13.5633 1.39198 2.51654
43.8107 4.66227 1.50224
32.509 6.02678 4.61609
16.235 0.0983359 0.770218
4.96541 2.563 0.636766
10.9439 24.2625 20.0547
25.9622 2.35046 3.56245
20.6258 0.034103 0.19881
18.6895 0.00378542 0.112524
12.2112 4.07606 3.48905
6.16502 5.21453 6.30039
19.8925 0.564144 2.45695
37.7162 2.99173 0.548238
35.5268 10.3044 9.21805
6.41345 6.4711 6.64584
27.1329 6.79495 6.71084
27.454 0.202066 0.645821
54.0521 10.1736 7.50792
12.5466 0.698595 0.730277
12.5049 0.705479 1.00556
24.863 0.498151 0.00600391
40.9662 13.4811 12.7692
3.94599 5.68275 6.59939
20.3316 0.902225 1.00351
37.478 4.38072 4.06805
6.70772 3.32424 2.79376
19.8015 4.53217 7.16728
23.2445 1.63232 0.384483
18.3434 0.171054 0.456738
5.35285 5.76056 6.08172
19.8802 0.664743 0.155834
4.55296 5.03226 5.04825
11.9882 5.33809 9.42167
33.3161 1.06246 1.89926
20.8028 4.31758 3.553
29.9018 0.955564 1.7296
37.0007 8.68216 4.56309
43.2929 11.1344 11.1408
6.54743 2.31301 2.4021
21.0097 5.54171 10.0069
27.9119 3.19974 0.652239
14.9136 2.05038 1.16835
28.1047 9.36952 12.1583
21.3244 7.75833 5.24269
19.5141 3.8936 7.66906
15.5762 10.1405 9.02908
28.453 0.741918 0.576375
44.6575 7.87241 5.91324
11.0746 2.36442 2.79259
27.7712 2.1717 2.34107
21.6329 0.851397 0.440277
26.412 3.051 4.62629
3.70053 3.33285 2.19636
8.62574 3.56425 5.4264
35.931 6.95495 6.47077
22.1882 0.425561 0.232174
23.6624 1.24695 1.33777
11.6956 0.181424 0.17776
12.006 2.82049 4.53466
48.2009 12.5302 11.9902
18.8783 0.90595 2.28172
31.7584 6.22911 9.33124
4.4338 1.90883 1.8364
15.9509 0.781344 3.48594
4.36098 4.03968 2.80829
14.6497 0.11379 0.176474
10.136 0.682133 0.768812
7.71823 2.9513 5.74256
28.2842 1.67953 0.0841582
37.3201 7.49005 7.28428
6.11399 3.71766 2.48728
32.7815 9.1298 7.95449
4.80598 8.30179 8.15028
32.9993 10.5781 14.2562
6.66404 1.20262 1.02358
11.645 0.17986 0.0266077
2.95248 10.8791 15.7776
27.9421 12.0041 11.0634
6.93618 5.50548 13.3081
34.7925 1.81179 0.446099
43.5618 7.59147 4.30809
22.9663 2.9156 1.86266
20.3187 10.5899 11.8629
20.6565 0.986486 1.10799
24.12 10.3204 18.2372
17.8535 0.66188 4.95706
20.2708 13.6822 7.53264
30.3495 15.0794 21.7788
5.03841 4.36637 3.16734
17.1768 0.183559 0.44173
16.1735 1.1328 4.23105
24.9241 11.8541 14.7943
1.58601 14.391 13.2059
16.1452 0.519111 0.219901
13.6746 6.64784 8.03518
7.01133 3.18035 5.80782
20.0515 0.975218 1.98257
29.5462 6.04701 7.18102
6.11635 1.86919 1.63131
12.185 3.73525 5.43708
12.324 1.01453 3.49121
24.0073 3.29977 5.16464
41.9134 11.0084 10.4556
24.0598 6.04309 6.7187
14.885 2.74771 7.63528
13.7912 12.5735 11.4002
12.5333 0.472446 2.49901
2.57124 5.31017 4.12239
9.14639 1.13754 1.5535
11.7409 0.484011 1.9212
13.6672 17.0139 21.0599
17.9949 0.0726097 0.021966
6.61034 8.0814 14.7441
16.4282 2.81206 4.21429
12.8836 1.95806 6.8051
24.2543 3.20262 9.70689
38.4804 8.71915 6.51402
40.7206 10.8893 8.97666
13.8039 2.30531 3.58209
17.7515 1.15345 2.21086
11.4683 0.0491154 0.698797
10.5794 1.44708 4.10751
45.7682 18.8975 25.4087
2.76538 2.81275 4.03456
19.0149 1.30683 2.10073
4.41076 2.58721 4.00005
15.1456 1.04484 0.459142
17.6579 3.17073 3.55689
7.5517 4.76336 9.94414
24.3808 4.8987 5.0759
23.0019 2.03091 1.95086
40.0441 14.6901 20.7417
6.57181 1.28149 0.747208
3.31718 3.76596 3.40427
9.8347 1.57903 3.49386
22.5458 7.63068 8.32308
19.5164 4.01733 10.1207
17.8381 4.89863 4.65731
35.5187 12.3876 18.663
18.782 9.94703 9.91525
12.7342 0.129763 0.601044
11.9807 0.238995 0.0626717
12.1741 1.38281 2.39185
12.0784 0.083285 0.0502752
7.22194 2.2187 4.73929
20.9894 1.28635 2.50813
31.538 8.51739 7.99586
27.0673 8.77235 15.4263
5.94029 3.59368 3.91722
9.4005 2.94915 5.32079
20.2794 3.39436 2.74777
22.6361 6.09597 12.5099
3.61576 5.02508 4.82859
13.3362 0.288368 0.122721
18.4298 2.61322 4.64216
8.88299 0.0836901 1.20887
5.71524 1.16344 2.73982
13.24 1.50301 1.59706
6.56662 0.233302 0.688669
1.95847 8.88545 8.77185
14.1992 2.99204 3.51032
4.93882 3.30202 6.53131
19.6126 20.241 29.9143
18.9372 1.54063 6.58916
8.65358 2.86163 3.42588
13.0716 0.211355 3.18403
20.5256 7.07737 7.99416
11.7873 0.683008 5.50743
26.666 10.3631 10.4361
6.53335 2.82316 8.6265
25.901 3.81997 5.1348
10.3792 0.18056 2.04554
29.166 8.17746 11.659
9.89539 7.86733 4.41207
20.9088 20.4266 40.5875
9.59427 2.16847 0.326943
7.21105 3.33056 3.51833
10.115 0.37519 1.12201
7.95701 2.62267 10.4681
28.3662 8.02469 10.9077
23.2658 6.77397 6.71112
15.6543 1.39874 1.83535
8.95532 0.0777599 0.567515
7.78659 8.85405 19.083
20.2227 1.94298 0.286633
13.2601 0.0186343 2.99248
35.5919 14.4312 16.1524
7.65933 0.152806 0.986189
11.8303 2.9375 3.04624
9.68437 1.10954 3.23641
5.72858 3.89008 7.28832
13.6533 0.65052 6.12218
36.3755 10.9199 7.94086
14.716 5.18301 11.179
21.7316 5.96849 7.34699
9.06242 0.64858 2.30733
7.26442 1.09445 1.07234
10.3246 2.88364 9.68796
15.8233 1.53734 0.0251048
15.8902 9.13042 14.8225
34.9917 12.8742 13.4983
19.7164 9.17971 18.936
9.16789 3.93216 20.4671
0.378091 4.1601 1.19856
5.15579 3.86452 4.03323
7.64545 1.87937 2.80588
8.67524 0.00187807 1.81755
4.47348 9.75631 10.6847
9.10892 4.77615 13.9748
18.8319 0.483179 0.286094
17.1669 2.00507 6.39057
27.818 13.5085 16.4317
6.57404 4.86638 15.341
7.12902 4.56972 5.86552
25.6076 11.1267 13.7395
8.48229 1.08419 4.47261
5.51504 0.418057 1.23386
5.28426 1.91775 6.42607
10.7501 1.99712 0.727986
2.43552 7.83406 17.8214
18.9967 0.649379 3.50063
28.4669 7.9763 8.1733
9.68854 0.266556 3.49151
18.1326 6.20173 5.72135
5.92777 1.42497 2.23807
14.792 3.18452 6.36207
16.2332 2.45346 4.65462
24.9043 7.49114 4.07049
22.1028 15.9844 28.3345
12.3483 3.00538 10.7886
8.90872 1.0743 7.53592
11.1152 7.07877 14.1676
2.42486 1.3598 0.553325
7.52252 0.205022 3.14709
6.26164 7.15236 9.18891
17.1876 4.72352 12.0711
10.8073 1.95402 2.02769
7.94082 5.20107 13.4485
15.8212 5.08858 10.9063
3.7601 4.50039 2.52106
4.83543 9.33572 16.7955
14.8471 5.12911 23.5198
2.04408 12.6733 15.4594
15.5483 1.42511 6.07466
5.74173 2.74777 1.98142
8.79897 9.20467 36.5236
17.8235 12.8482 9.0263
20.981 9.27293 9.17457
10.9561 0.411637 0.116393
12.3622 1.49212 0.771319
14.2364 9.79866 18.6993
12.3539 3.38507 11.4117
2.55328 0.472362 3.05625
5.33525 13.3417 16.1102
8.44431 1.20291 6.37778
6.42153 1.46194 0.199234
2.22414 9.47788 23.4259
24.8289 6.20145 7.10007
4.32707 0.685571 1.80452
7.23982 2.89967 4.12951
22.8277 21.6313 35.2923
9.4148 0.819901 5.89212
2.81775 3.61871 6.63785
7.19631 2.22405 10.3958
5.07356 0.980357 3.01953
2.95089 8.92816 21.0823
23.2942 8.45966 19.922
3.12986 3.56812 10.4411
9.46288 2.00982 6.10969
16.1005 1.01436 5.81783
12.8149 13.1032 16.6473
10.295 4.50117 19.3268
22.4001 12.7094 10.3365
8.44171 1.07111 2.45683
9.70858 0.710286 3.80609
12.8895 6.4467 10.4786
16.9497 4.46254 7.54876
5.82324 0.752567 6.23375
1.90075 4.49816 18.3247
14.5785 20.5906 23.5424
17.8687 6.90379 9.65656
10.1685 0.83822 1.46734
8.02748 1.46576 2.74118
3.17848 6.84428 19.4684
16.8202 0.66544 1.86089
10.4058 0.607267 5.19582
22.8698 7.17935 11.4909
16.1024 18.8496 44.8536
11.4122 1.06986 3.83155
16.68 20.6747 24.262
18.7605 7.57795 12.4004
12.6697 4.4966 15.7152
1.34932 7.9986 13.0771
14.1446 3.33682 12.1562
6.32906 4.2646 7.1026
13.3312 1.831 1.67499
6.22543 6.15354 15.9509
20.4772 9.30851 24.2428
2.46305 11.7977 11.5162
11.7937 21.8086 67.5403
31.486 11.6575 16.5561
6.40994 1.32984 0.313448
7.22355 0.169125 1.56461
6.8442 1.02262 3.98404
17.1663 4.50067 5.99055
9.85776 2.20293 9.28096
5.78541 0.139511 0.644452
7.29503 0.284781 3.95244
1.40665 6.67732 11.9139
12.5827 0.0837059 1.79302
15.5907 7.15803 13.5211
3.92738 1.03788 4.65106
11.2704 10.5207 21.7282
10.934 1.96712 4.1037
16.3922 3.64835 4.69838
5.81027 1.34903 1.92164
10.1588 0.814028 0.675421
9.4113 3.08548 6.65926
12.8596 4.07991 11.9582
8.90091 1.70277 13.4892
8.0139 5.67195 9.46486
3.74367 2.07091 1.22448
9.26014 4.83111 12.9933
3.03217 2.60994 6.07325
5.88821 2.57126 14.6796
17.515 4.41729 17.334
4.3805 7.05084 27.8391
33.952 19.1087 30.9915
8.13435 10.7306 14.1479
4.67973 0.770586 2.41939
11.9911 2.14801 4.60039
11.2217 3.29367 9.01688
9.6974 15.1153 44.34
8.59234 1.44025 0.768517
7.97966 0.965793 0.077661
9.21453 1.85971 12.9914
0.19938 14.6546 48.5382
26.984 11.0361 12.7277
6.97259 12.1403 8.61299
14.8834 11.5947 16.2975
9.76864 5.63154 21.1403
2.41242 0.764533 2.78983
2.36688 3.25538 7.79966
8.89974 0.367707 1.9621
2.91105 2.46407 7.52165
13.783 22.7744 32.6037
7.53819 13.0029 63.4749
9.1929 2.45765 14.2729
11.8404 8.04226 5.85074
10.9882 5.84444 8.30662
13.0687 0.75899 1.09148
14.9234 6.59103 5.97716
4.87617 0.848215 1.02991
9.07569 3.18123 1.93113
6.5511 4.36258 16.5321
22.761 10.7152 25.3645
7.60044 13.9115 11.9631
9.29756 6.35426 11.3054
5.40714 3.69916 12.1871
15.1606 8.47428 22.9093
7.12907 0.847137 12.2843
12.2054 1.77929 3.18767
