# pn-170911/RbIIA-40-RbIIA-1280-1959.psd
# Power spectrum* (dif=0,1,2) (really just |FT|^2)
# NOTE: only the first half! (symmetric)
# weeks: 1280-1959
# 1 clock-days, 38 excluded
# PSD: 1441
170912 0.999176 0.0413101
3.14578e+06 12.3964 0.124033
1.94925e+07 442.263 0.172674
2.02503e+06 57.5564 0.239219
1.36977e+06 78.9115 0.181737
404393 33.73 0.0586823
729822 118.63 0.14553
167265 18.2575 0.227322
754854 179.364 0.0171577
176493 47.2801 0.137681
11139 5.01125 0.20443
140720 104.454 0.0619609
361707 220.13 0.0294625
471856 417.803 0.0321247
190977 160.822 0.408165
49037.6 76.7193 0.561886
26943.3 21.6458 0.180332
150098 182.716 0.131328
31996.9 71.8337 0.432121
26395 51.9203 0.0417258
40480.7 95.9298 0.340355
132885 212.823 0.0968609
81159.2 141.622 1.02415
78899.7 181.996 0.423111
71542.5 216.743 1.01403
34080.4 81.8486 0.055447
82992 214.227 1.19451
12203.5 62.4119 0.556409
56027 160.686 0.464574
572.388 9.48539 0.0340299
24634.3 84.7834 0.156213
34031.7 117.447 0.933668
3497.48 18.5576 0.106531
3767.64 31.0585 0.466567
5754.9 56.6096 0.818771
14449.2 92.9355 0.307657
14933.7 65.9111 0.134732
21260.3 150.641 2.21031
4527.02 41.2921 0.0112815
9200.44 44.5508 0.537871
22792.5 180.825 0.933607
8402.14 41.0295 0.905709
23709.7 219.291 1.24025
125.589 0.584689 0.288545
5717.25 56.913 0.0581674
11649.2 144.005 1.52252
6284.28 93.2068 1.60033
959.306 1.70608 0.364578
10103.7 150.465 1.073
6489.71 118.399 2.57815
6582.24 46.0182 0.57477
6649.05 124.633 1.23361
15422.8 147.211 1.09067
3006.92 36.248 0.041359
5881.5 85.7846 0.93427
860.505 9.58657 0.233991
1423.28 7.25386 0.434913
8911.34 152.696 2.39243
4505.64 99.9228 2.48894
305.491 0.165427 0.296672
7092.14 94.3425 1.82718
2107.24 44.1069 1.37982
3326.45 34.6604 0.810178
208.545 13.6762 0.173674
934.117 37.1452 1.16637
248.745 0.000966818 0.309232
2480.45 59.6406 0.547263
4083.48 52.1329 0.726388
16403.9 301.938 4.27096
4232.73 67.9653 2.52766
3310.23 72.4342 2.47846
2012.09 71.0238 2.36659
313.293 21.773 0.264793
2109.58 83.8694 2.36907
2436.27 35.472 0.300702
1043.86 48.3459 0.595384
1182.51 29.1143 0.398195
497.528 14.9179 0.850102
24.9983 7.20172 0.258947
1323.43 27.7921 0.844262
525.721 5.37022 0.0252404
92.9594 11.5648 0.549226
2861.23 136.442 3.24384
1622.08 60.6608 2.34576
6749.13 207.131 4.45174
2064.76 75.8466 2.20643
486.067 9.23829 0.168059
993.802 38.4328 3.09377
1155.19 60.4739 1.22609
547.086 5.35478 0.0356033
9014.65 340.705 9.98105
1405.25 97.1702 2.79911
11811 481.38 22.6152
3457.88 98.0781 4.15396
223.651 27.5475 0.646506
1895.2 78.8497 2.38649
4024.14 148.897 7.37449
362.338 6.4204 1.13898
2431.28 103.411 5.72183
581.722 8.50353 0.127562
362.88 10.1193 0.203562
698.605 27.5619 0.74972
2336.64 69.5919 1.79756
2292.79 76.5878 4.81382
1851.69 79.3316 4.36983
694.444 61.1047 4.74365
538.658 11.7256 0.247209
1057.26 39.275 2.19295
2031.82 78.194 3.08637
1486.61 60.0009 4.31027
944.744 78.5885 3.36929
1301.14 79.9087 4.59472
283.725 32.5983 3.80747
311.88 3.31306 0.42905
239.7 3.47987 0.350618
470.296 7.52787 0.217651
7747.44 464.306 32.6961
3720.73 181.759 10.4808
1114.68 59.6519 2.31136
852.305 91.1548 5.37728
2005.89 84.8441 4.57828
1902.55 102.135 7.28884
1427.2 71.0636 7.11224
1121.5 72.6199 6.25909
2537.34 175.566 14.7685
2997.49 197.712 11.1006
585.123 28.8644 2.71298
1033.27 82.3961 5.62648
259.703 36.5431 2.5943
2517.89 179.308 14.7488
3127.2 261.268 20.8846
2538.45 168.09 16.9555
646.629 35.7044 4.08969
43.166 1.77845 0.11387
42.9649 11.5704 1.05396
484.645 25.2941 3.57468
339.818 34.8588 3.10632
2275.65 231.04 16.6493
601.764 97.7531 8.7675
585.28 21.8538 0.771367
1318.62 100.582 7.48308
270.312 15.6949 1.63296
381.49 24.0288 2.43478
87.7323 6.84627 1.31896
1308.22 169.116 13.314
87.0611 1.59339 0.294144
151.247 23.1596 2.03526
76.9901 4.92631 0.939275
2191.88 289.071 30.2106
73.1926 0.511472 0.574009
1288.29 130.631 17.3892
433.493 70.4713 8.78533
1459.46 113.42 8.18006
180.764 6.0384 0.445416
1357.28 107.775 12.5007
49.9131 2.80547 0.246919
452.387 46.301 7.11761
179.365 39.0571 4.70126
1334.46 129.602 12.8193
1863.83 184.701 26.2294
1744.86 232.153 27.2366
458.432 39.1322 4.52666
244.45 15.6029 2.28094
595.758 68.5372 7.21482
438.124 75.8436 10.991
462.612 38.2642 6.3505
110.885 14.7421 0.919571
265.723 59.4687 9.21318
141.096 10.0057 0.267555
235.769 38.9213 4.67105
21.6755 7.14599 1.53738
386.049 27.9438 2.7526
69.282 2.95493 1.31322
107.674 27.0985 3.39858
115.794 41.816 9.06071
625.425 54.9372 8.00284
122.33 33.0147 4.7171
595.182 71.0078 7.84335
318.357 44.9219 8.35047
389.598 35.4809 5.80065
67.0607 8.19556 2.09658
121.609 10.2285 0.760267
265.979 30.9868 6.88474
476.241 75.9458 9.89682
630.87 108.339 11.6386
1556.49 311.298 56.3049
51.4369 1.04529 1.2181
184.613 33.2288 6.53806
379.419 55.2642 4.9517
1118.7 172.698 26.5408
25.1516 15.0444 2.98186
83.7493 39.964 6.31125
4.04503 4.40212 2.53315
54.1189 5.91006 1.26018
848.247 101.288 18.2124
698.298 169.438 38.6854
701.316 72.9573 10.0984
298.753 40.527 6.19939
66.312 34.4618 9.19879
323.785 29.7365 3.48793
758.85 109.93 18.6368
313.559 39.7315 6.00753
233.743 68.9165 18.3365
1055.04 136.404 25.8696
915.312 172.987 35.9992
39.5384 5.72246 2.59629
229.721 52.1909 6.04383
153.232 26.1683 4.94312
78.8787 33.1915 10.3757
403.668 67.5806 9.18286
50.5504 19.5046 3.84763
192.9 19.2457 1.36382
1246.22 264.114 47.8041
250.052 85.7893 26.5186
563.093 148.829 34.5515
178.946 16.4682 3.26518
124.053 54.6811 11.9967
498.224 66.5746 10.271
44.2021 17.6194 5.32096
120.433 13.8868 3.54644
124.93 16.4951 3.86425
66.9591 34.7855 8.66945
98.1888 4.70215 1.41299
296.424 50.0458 13.245
264.463 41.2644 6.81096
534.806 117.381 23.1497
1324.74 308.934 74.6495
148.923 44.2174 12.3304
164.213 63.1188 13.6026
218.642 98.1973 27.5673
401.163 72.7962 11.4306
146.2 77.0184 19.4992
477.022 79.5228 15.6272
169.813 31.1954 7.00301
83.5847 23.6798 7.33977
150.177 67.9215 21.2395
1637.21 443.904 106.565
18.9524 10.9336 2.78689
36.0195 27.0458 9.07295
256.684 108.709 37.1855
337.577 71.9874 15.8788
225.815 107.849 29.9665
40.6082 15.355 8.90748
118.511 7.94198 0.730176
138.508 82.742 28.9242
1005.09 181.611 33.8828
230.664 48.0378 16.2081
42.6343 10.5446 1.43046
384.553 152.743 53.1464
229.901 59.219 19.1372
207.388 25.5432 7.35254
299.188 82.791 20.3564
31.9452 1.26457 0.295593
137.442 68.5266 22.3793
28.2822 5.62813 3.17503
161.891 52.2299 16.1056
274.36 43.1314 13.213
196.541 89.1518 28.0269
87.0873 6.01618 0.242777
40.9097 57.8004 26.2023
623.832 99.6417 17.7166
260.13 48.6929 10.6659
10.835 1.50689 1.71197
606.489 128.199 33.6213
35.8639 2.23301 0.404865
910.211 251.34 85.7211
277.699 101.047 31.6471
24.7248 2.46638 0.291309
32.6229 24.3218 11.509
159.114 30.7745 10.6225
37.7972 28.7354 14.3923
628.738 172.035 62.9307
107.346 28.707 6.04463
1.39137 9.13842 7.44062
820.74 245.89 80.3719
179.044 59.11 16.4204
516.342 170.548 66.2004
91.5674 28.3206 5.19774
2.20151 3.51618 0.0662376
18.868 14.4361 5.07788
120.539 57.9432 20.8214
408.124 166.488 61.1492
275.426 139.875 67.3299
177.121 22.1762 2.87937
103.562 19.947 1.16886
103.552 36.3737 10.6238
727.852 276.086 92.6487
46.9315 9.19344 3.69169
137.144 69.3911 38.1563
86.6405 5.54326 0.211701
413.964 117.622 46.9848
279.792 119.546 42.2084
197.182 49.3032 13.2532
39.9156 20.9955 6.0122
22.399 23.0217 13.8077
86.8892 10.5684 1.72235
273.295 81.6192 35.4317
16.8749 16.1071 5.87497
64.5993 13.0081 4.93149
1.10358 8.7674 4.97509
59.9948 16.5773 4.61964
429.565 125.196 38.9188
260.46 99.4258 43.7422
34.8784 16.3571 11.4961
11.8157 1.87762 1.4394
28.0591 10.8996 9.55509
109.255 62.1758 16.8584
19.5344 28.8904 18.5996
218.569 52.3946 14.3686
287.973 111.113 52.1246
114.742 86.035 48.4675
164.718 54.4551 14.3658
57.0059 19.0264 16.485
96.5348 54.497 21.4701
172.846 72.8323 32.9881
328.255 223.282 101.85
247.536 58.1831 19.5682
8.77984 5.32194 3.40931
134.491 110.244 51.1063
171.414 79.5658 40.0728
127.596 24.9447 3.93618
103.104 39.8222 17.6775
153.164 41.7848 17.2204
89.7709 34.901 16.7244
265.09 140.403 65.8347
24.1725 39.2643 21.0661
7.13635 2.86002 4.18374
91.6391 47.6677 39.0181
186.363 91.6043 38.2593
136.138 39.9126 14.2147
131.838 92.5671 56.5126
95.4986 65.3584 62.0153
671.377 266.476 106.581
22.627 30.4183 17.6748
119.206 38.0686 16.2853
110.586 44.312 24.0326
23.9784 19.2861 20.8602
33.4702 14.3974 1.29378
37.2105 32.3221 15.4833
40.416 23.5583 6.8046
73.5103 78.506 47.0725
64.4546 26.7642 11.3832
142.096 58.8435 20.0315
13.3239 14.9547 3.09487
261.485 245.795 158.113
346.47 104.056 34.4248
36.0662 7.67775 5.5869
62.4576 68.5274 39.5048
97.9901 24.4581 9.63413
127.388 85.888 37.1537
33.6868 57.5159 40.5353
188.85 87.6868 51.2918
218.115 81.9982 45.9768
86.1187 49.3954 16.5064
25.2894 36.5078 28.196
153.755 82.2084 45.101
80.0782 82.9696 66.1449
60.7589 5.14973 2.33481
95.6606 28.3565 8.80675
136.563 69.1078 48.3069
77.6991 28.5235 14.2924
98.6235 19.1766 6.18784
330.253 141.921 71.4436
99.0181 59.3481 41.2152
5.91684 5.57214 6.46663
37.1186 25.8517 23.1729
167.965 119.933 61.7031
45.6048 32.7794 17.7647
163.662 160.907 93.3567
17.9896 37.1421 44.9727
84.6873 19.7178 9.51988
17.844 3.8314 7.98425
59.0434 28.9515 12.7923
162.137 71.6428 35.5934
1.71738 0.388268 0.258291
56.0733 80.8007 59.5867
87.3338 19.3064 4.09719
14.2642 27.9356 26.1756
50.5511 4.01852 1.25468
174.232 77.918 38.4361
9.84784 1.48636 5.22743
41.278 9.71343 3.63783
90.5449 31.4692 12.4332
76.172 38.7699 29.7266
0.670354 0.0547858 1.28582
7.68886 15.7936 12.0396
23.6152 4.72037 0.422594
41.4888 14.1289 6.89045
32.2909 18.5963 15.0496
2.87103 1.3837 1.78119
32.8725 15.1433 19.0465
65.883 60.5337 36.4824
47.6183 15.5025 8.34776
26.645 40.2079 27.2574
8.57068 5.71735 19.1905
372.393 210.085 126.593
23.9868 49.9765 61.6617
254.571 128.682 65.949
13.4274 0.790373 0.698374
166.756 99.8898 68.2521
8.59369 2.09815 4.58639
1.67077 1.52155 1.65158
18.5558 14.8501 14.9815
52.8925 24.1 20.9871
0.182195 0.0602941 1.67498
9.25856 19.7244 29.0813
179.749 142.882 70.9425
3.5738 9.90136 11.5928
16.1582 5.65314 3.08569
9.09216 25.0188 22.5976
33.4703 41.0625 36.2259
39.0907 13.8042 10.6759
71.9113 28.5947 11.5506
136.505 159.835 160.949
230.543 118.849 46.4643
47.3497 42.3973 35.5207
38.7592 41.6216 63.1783
123.768 38.4277 8.40749
66.0585 22.7286 7.21314
175.976 136.435 116.29
58.5434 44.4943 20.5916
3.38041 3.07778 1.06544
29.0508 34.5788 27.7848
48.2761 28.2143 21.4346
24.9964 32.3865 22.4812
48.5084 19.2985 5.65948
30.2857 28.148 22.3881
1.40583 11.9356 15.6689
9.10249 2.70258 14.7784
213.131 118.647 64.6808
24.4405 12.9153 13.6027
67.4225 56.1151 74.298
259.674 241.73 188.806
56.5406 18.4993 8.55021
8.50207 11.8045 11.4434
14.5092 27.9693 27.533
42.8321 16.2511 13.8644
1.05976 8.3282 5.04029
18.177 13.839 16.969
52.5016 69.4135 50.2092
2.72825 12.7068 15.8472
0.201053 24.4406 54.9233
215.579 110.951 63.2319
18.854 34.1365 36.8333
73.6225 33.6099 22.9556
27.9761 32.5353 31.5853
12.7388 58.1937 80.4282
156.448 61.536 25.5152
40.2776 33.9694 38.7924
24.9456 7.58071 2.38677
5.93266 13.5995 18.1786
89.5451 52.0498 38.5937
3.21665 5.57445 1.43242
9.70145 25.228 35.0655
119.38 71.9979 52.6276
19.261 38.365 36.7276
49.4131 9.75126 1.33712
82.8684 59.8468 49.4734
10.9578 14.8671 20.6836
37.7079 57.1462 40.4142
16.8252 31.5829 52.5945
64.2512 31.837 23.3536
35.0059 4.14102 3.11144
78.2351 38.7668 17.9769
48.784 39.5313 30.867
56.9337 29.3486 20.2594
15.1338 7.89367 2.50489
91.9596 98.0845 101.169
59.3724 52.1943 78.0968
31.6296 16.1838 5.0762
0.963065 3.13342 3.21512
2.69824 6.02229 17.7164
273.033 259.386 239.084
11.1657 6.88454 16.8607
61.6595 33.3373 22.6199
29.6213 33.8925 53.0617
33.0413 36.4854 23.8033
7.93001 19.8777 32.8074
11.6844 2.52749 14.527
217.291 219.697 256.592
229.931 193.47 127.119
8.69558 16.4738 43.5259
61.8025 62.6544 52.3904
28.085 17.2293 26.5044
8.97254 13.1249 5.28216
15.4858 23.5127 40.7877
55.1699 69.8491 52.6534
50.1937 27.6198 31.4987
4.99031 7.19275 4.81962
7.74082 15.0464 7.05037
2.49401 18.2241 21.4541
28.8286 12.9444 10.9768
10.4425 17.6636 27.9208
59.9505 58.2137 61.1171
22.5589 24.9645 17.7852
14.1027 40.8204 60.9935
155.302 132.282 143.187
37.8698 27.308 16.8386
3.30007 4.31008 0.741988
18.2941 46.069 57.6877
130.664 159.188 141.421
2.09841 12.617 27.6379
7.78425 24.005 41.9141
126.778 106.011 106.825
61.6804 90.0699 83.3221
19.5991 41.8763 52.1002
24.1322 32.8439 67.558
26.2111 2.76361 11.9652
113.181 113.97 108.258
51.2622 93.1519 120.132
48.9733 19.7995 5.85494
36.9858 54.4235 64.8808
35.6461 107.324 186.751
149.434 80.0126 35.7064
23.1938 40.4303 70.8122
53.3712 24.2174 21.0308
13.3981 2.88394 3.14303
35.7935 36.6765 44.2423
79.2594 76.5699 89.2206
34.8547 4.17773 6.74439
153.139 123.191 93.5419
76.2186 131.429 181.561
10.7757 20.3428 45.0854
34.7233 17.3195 10.5952
61.6778 88.5573 125.801
13.1702 9.4429 33.8915
37.7593 6.98621 2.73085
69.6899 35.8517 22.208
5.2742 3.00922 15.039
73.0172 43.092 19.3091
109.182 137.721 183.132
27.0172 30.8726 34.6359
6.73436 17.032 28.3157
19.233 35.2742 42.238
51.2339 25.4036 17.7465
2.90413 1.321 4.16559
39.9976 70.8348 101.137
85.6114 71.3443 93.5552
27.4872 38.6867 37.6958
9.63495 1.38148 3.74127
40.1918 76.2173 131.402
77.3596 32.6105 8.04535
32.1529 23.2686 33.903
157.565 203.368 295.183
68.1601 63.2071 88.8566
27.9407 27.7641 26.9973
12.9633 39.7716 61.1433
31.7877 7.163 18.4585
73.5177 71.5275 48.0967
4.34527 20.9541 35.7
53.2805 32.1326 15.2888
3.75622 3.15169 33.586
122.566 148.147 102.353
45.4048 78.5855 107.368
11.9654 55.8741 103.368
36.7383 13.684 6.09385
11.4099 3.15623 2.84989
23.2693 17.1986 17.8327
2.89871 6.26098 8.4161
60.1036 89.4406 159.563
51.6574 41.8497 15.4152
8.78575 8.56757 20.5148
12.469 29.0722 38.7504
62.2969 66.1085 34.3059
40.5554 121.903 156.728
33.5269 21.9182 31.0277
9.51376 56.1318 142.861
99.1586 97.2637 64.9287
9.53696 71.3272 125.332
38.4312 54.2973 108.465
24.1145 9.43586 27.2758
43.7446 11.862 7.27011
24.5803 8.70049 1.02437
34.5867 45.7817 63.3595
17.0241 19.0245 15.5908
8.96019 29.5464 74.5856
45.9673 65.1341 118.909
103.853 63.0815 39.7096
19.7981 5.55609 16.9761
107.064 100.413 78.556
26.269 39.713 80.6577
58.6544 82.7139 124.476
55.3515 103.526 226.418
173.938 248.772 254.783
22.1259 1.61478 3.25216
38.2463 37.015 42.5508
22.3032 39.2671 82.3658
21.864 16.038 1.70023
24.4339 78.8977 136.783
52.7275 46.2714 56.8093
50.118 25.3198 20.1117
79.6899 96.215 102.53
18.8721 33.7418 87.4991
24.4616 55.4129 82.5475
51.3893 54.2625 65.784
20.5262 27.9137 48.8872
8.57105 18.905 10.648
7.96709 46.8411 102.687
71.7035 76.4314 102.482
23.2171 10.1896 10.5589
1.91992 9.2205 12.2361
0.934134 32.6898 134.628
221.417 292.995 345.077
8.3061 0.723952 10.0159
5.57618 0.671301 1.22025
3.43887 1.9099 3.06585
39.3519 109.82 242.917
67.3554 21.5288 12.2053
90.9013 101.759 113.195
6.5285 14.3552 46.927
9.61711 7.45463 19.092
21.5369 57.5612 84.2857
48.7273 88.0801 86.4843
1.89764 21.992 57.654
22.8132 49.1544 139.663
105.02 195.644 273.88
51.704 50.3266 103.367
30.4805 0.892111 18.1894
66.9001 35.2937 10.2653
75.4439 132.7 171.22
3.85251 44.6181 177.118
88.972 53.3395 42.5954
9.88793 30.5982 85.7499
65.7317 56.3052 64.2742
48.4932 55.2476 75.7649
31.2096 10.2782 13.0746
57.4305 46.3095 28.7898
35.2179 39.7526 47.0167
28.4683 41.2253 46.9746
6.16102 19.1815 56.0313
4.61411 2.43806 34.4159
45.0889 39.776 57.6688
24.2068 94.0445 268.136
201.794 173.281 103.989
33.3846 66.2446 148.313
108.186 160.844 143.51
14.5378 30.5916 61.0563
14.6681 43.9352 75.1136
5.37065 0.660606 0.857016
40.9292 112.048 244.931
35.3326 19.4671 6.7443
7.25246 10.6064 14.9214
33.5544 134.021 238.442
37.3767 10.4448 29.2611
11.8891 3.18032 42.6226
56.8672 26.3821 3.36417
25.5655 15.8816 8.41892
25.9922 38.2511 98.3217
72.5011 57.5539 29.1861
28.7684 25.0158 11.8402
35.5835 32.4946 9.95978
37.703 41.3514 24.0765
71.9637 119.495 129.658
36.1023 122.413 250.933
0.928572 13.593 91.386
14.9899 10.4504 13.0292
26.9414 22.8293 11.337
19.7428 32.1898 50.0804
5.62756 5.31092 6.16564
29.7273 67.2259 130.109
4.58452 43.9941 185.154
50.496 47.8738 13.595
2.48843 4.08613 1.96224
16.6946 29.041 52.9065
33.2456 39.8722 65.8467
64.6139 127.384 226.815
9.29664 6.04919 7.67404
3.92457 9.15551 50.4858
32.0622 87.7433 115.318
13.4624 28.0467 83.9223
7.86026 2.29292 27.7751
29.6848 48.3988 150.836
58.7229 91.9551 71.8312
0.630051 28.4048 76.394
24.4162 18.7668 18.8984
26.3205 33.698 38.0362
9.16035 33.5839 113.885
19.0035 17.2602 94.6096
63.2989 100.634 74.9225
21.5538 97.1159 215.356
37.6727 11.6906 3.9334
32.9686 45.1151 65.4548
8.11328 31.7742 85.2471
38.3884 71.8895 117.544
25.3949 60.4826 151.092
57.7715 36.2548 9.52395
41.492 75.8356 142.773
29.7531 36.8352 44.7484
32.8305 96.8716 246.601
28.3523 46.8698 54.871
35.7755 63.9361 121.363
28.5554 21.8011 17.9202
5.70318 3.55801 5.0207
25.467 44.0934 110.899
27.8506 12.4125 3.67552
95.9484 179.759 248.184
4.84566 22.1986 71.7654
7.90344 13.9759 26.9988
20.1352 80.8799 281.028
34.8693 43.8262 64.3373
14.708 22.6648 33.4581
0.029254 0.985724 2.70695
6.67999 30.1642 91.3177
8.50026 4.59923 32.6011
6.25039 12.9676 10.0189
0.565603 4.38891 27.574
9.38841 3.48741 9.02235
22.9386 28.3977 34.3973
6.92031 18.5724 76.4169
6.00645 4.08242 59.6589
33.9964 62.2878 41.1913
9.44553 9.58636 0.49421
19.9077 38.8976 30.3797
13.8946 61.1761 124.134
7.65496 2.51075 32.4857
57.8841 144.898 348.669
22.3025 9.3688 7.0398
1.29752 9.18487 80.7975
33.3905 52.7643 31.099
16.6816 56.1133 85.5794
22.0961 91.0865 165.878
36.5286 40.8769 44.9837
15.1961 33.9182 61.3926
5.26576 45.0231 94.5042
5.19012 17.5341 68.6134
17.6978 13.1505 47.0197
45.6764 58.9306 94.8038
0.578134 0.688553 4.19592
6.33081 15.1935 38.6924
3.85052 4.43014 36.9907
32.6965 110.493 170.6
1.17307 22.0469 150.716
67.9812 69.8012 74.3732
2.21249 9.95382 23.9496
6.19027 20.081 32.9026
9.88252 29.1238 104.021
49.5466 97.3669 181.586
13.8207 36.3514 76.9661
10.8554 0.236981 6.71011
11.1569 3.20726 5.20263
0.636588 19.0749 76.8205
17.654 1.4772 13.7581
32.446 29.7887 39.4869
14.0786 9.38236 1.63264
14.8393 21.6297 37.7727
17.0344 7.02087 5.07918
66.8661 170.013 333.521
11.7107 9.16859 6.79293
1.20714 2.31858 24.3458
30.4981 39.0497 42.0189
11.7041 29.3316 57.0269
9.06541 32.1022 85.2588
1.32795 16.1848 80.7026
11.2463 31.9761 144.451
15.0501 16.2222 2.24553
0.00656444 2.47509 45.2545
33.9028 84.763 129.014
4.36654 22.7258 82.446
14.8516 18.6335 7.02795
2.10816 13.0029 24.2583
2.65966 9.58821 91.9876
44.1466 61.7555 33.3733
3.92258 30.9625 59.8303
8.82844 15.0879 43.9584
6.6421 2.60492 12.3056
2.349 14.1277 148.83
86.9026 268.168 541.359
89.9042 99.1026 152.706
8.52997 46.7919 165.561
31.3582 20.518 6.06362
3.29385 2.26343 44.2077
27.8433 24.3166 43.737
33.8549 64.0833 63.3038
3.15849 6.94491 24.8959
30.6924 43.3614 37.8897
18.2031 85.5469 290.63
35.7425 79.6175 115.023
7.7546 16.9062 44.8202
21.42 34.485 63.2006
18.5751 64.049 176.418
12.6905 52.4999 124.265
10.7587 11.3092 10.6214
0.590418 24.7959 149.924
44.753 71.8677 99.1673
9.67445 7.46891 13.7073
0.243175 9.82796 83.3589
35.9514 45.2398 43.7181
0.185149 12.3575 71.7613
31.1449 35.8644 32.7822
11.8223 19.3223 45.9948
12.0112 16.887 18.9949
0.703371 3.59512 70.6238
45.068 136.557 190.033
6.93366 42.4779 184.942
20.1546 3.30712 15.1337
31.8799 52.8111 116.447
2.83677 12.4292 61.1043
22.3165 21.8224 23.0726
6.38567 10.7213 10.5981
20.4766 57.3391 160.539
6.76194 2.392 15.9553
8.61674 30.0312 39.2418
2.42901 37.5607 165.198
53.4235 144.768 288.151
35.519 24.5358 63.9193
31.2353 41.465 54.9464
7.46903 19.447 56.1581
0.612098 12.5466 113.411
68.9896 145.851 309.562
18.3789 17.8071 1.22091
14.1246 31.692 66.9471
2.65975 15.0273 35.2628
2.33648 22.6367 84.5449
29.3256 67.4975 162.183
21.1009 65.0584 188.967
7.25412 0.420251 31.7458
4.96021 10.6989 33.9054
5.47702 14.6173 46.8162
7.31558 5.96842 11.3612
12.0651 46.1319 59.1762
2.86494 5.66058 21.7352
29.9291 154.477 296.581
12.5373 14.5582 44.8431
0.798053 43.8497 286.286
45.3263 12.8987 27.7282
41.4501 52.7578 20.4036
12.6429 20.949 15.2945
11.833 53.9141 241.832
41.9796 69.1007 68.6832
