# pn-170911/RbIIR-60-USN3-1280-1959.psd
# Power spectrum* (dif=0,1,2) (really just |FT|^2)
# NOTE: only the first half! (symmetric)
# weeks: 1280-1959
# 3542 clock-days, 49 excluded
# PSD: 1441
439.198 0.0449703 0.0181237
14316.9 0.276548 0.00912769
61941.5 1.31836 0.00919765
14692.9 0.541416 0.00899362
28122.6 2.10235 0.00914742
5679.54 0.584412 0.00917458
4330.52 0.654922 0.00914466
3017.23 0.607453 0.00913612
3506.94 0.990525 0.00931367
2105.11 0.719542 0.00943641
1751.9 0.738595 0.00945684
1482.52 0.756682 0.00938058
1311.28 0.822362 0.00966273
1071.68 0.768901 0.0097438
913.684 0.758289 0.00974309
812.599 0.761535 0.00970586
698.326 0.756784 0.0100563
629.053 0.760282 0.0101364
597.556 0.81869 0.0101905
509.504 0.771847 0.0105119
458.156 0.767662 0.0107496
424.416 0.794755 0.0108721
424.579 0.869342 0.0111128
357.699 0.811273 0.0110515
336.63 0.827915 0.0114803
326.438 0.868482 0.0115952
327.43 0.955327 0.0123442
277.527 0.861885 0.0121004
269.344 0.917651 0.012588
267.92 0.972664 0.0126382
258.21 1.00723 0.0131739
242.509 1.01765 0.0139833
237.096 1.04606 0.0143199
221.785 1.06063 0.0148181
232.295 1.16545 0.0153844
206.285 1.11228 0.0160234
208.023 1.18135 0.0167798
201.964 1.21533 0.0171812
196.737 1.25287 0.0180859
190.878 1.2793 0.0186107
190.553 1.36012 0.0193597
181.589 1.34743 0.0204501
180.106 1.42852 0.0216502
179.974 1.48968 0.022347
180.476 1.56369 0.0236837
174.13 1.57277 0.0245013
169.001 1.62447 0.0252788
168.85 1.66879 0.0273093
168.896 1.75717 0.0283946
162.687 1.76549 0.0305914
158.922 1.8 0.031235
151.157 1.76755 0.0313542
156.941 1.9322 0.0340727
154.798 1.96389 0.0361718
152.319 2.00344 0.0370648
152.645 2.08504 0.039108
147.354 2.10618 0.0410546
151.522 2.228 0.0444756
148.351 2.24448 0.0448144
146.929 2.35504 0.0485441
143.412 2.33113 0.0496131
142.795 2.44164 0.0529117
138.062 2.42391 0.0539139
141.545 2.57586 0.057882
141.398 2.63015 0.0602684
135.716 2.63679 0.0618109
138.147 2.77489 0.067751
139.659 2.8846 0.0713354
134.717 2.85794 0.0735297
131.687 2.85239 0.0743546
130.728 2.95211 0.0798331
135.834 3.13686 0.0847426
132.081 3.13668 0.0876716
129.696 3.16753 0.0897211
129.17 3.26807 0.0955495
131.518 3.41208 0.101108
129.146 3.42004 0.103772
128.204 3.48682 0.108786
123.797 3.47937 0.109275
131.646 3.78392 0.121538
125.884 3.72305 0.123365
126.734 3.86587 0.130781
129.769 4.03326 0.139287
126.76 4.03337 0.140665
125.159 4.10155 0.147082
126.143 4.2169 0.153675
122.709 4.20987 0.157777
122.95 4.32274 0.166454
121.361 4.32781 0.168381
122.199 4.48621 0.178873
119.848 4.49845 0.183339
119.008 4.56748 0.191571
119.177 4.68801 0.197517
116.888 4.72004 0.203731
119.24 4.86025 0.216361
119.733 5.01126 0.224549
115.754 4.95446 0.226024
115.838 5.06242 0.236401
117.7 5.23305 0.247755
117.91 5.36472 0.258397
116.437 5.391 0.266715
115.474 5.45845 0.273983
115.146 5.57151 0.284505
115.17 5.69354 0.294607
115.719 5.84995 0.311753
115.734 5.88265 0.315415
111.49 5.83057 0.321022
106.652 5.6812 0.318009
111.685 6.10825 0.348932
115.258 6.3597 0.367862
109.549 6.17625 0.36203
110.238 6.32175 0.379369
108.752 6.34655 0.386734
108.259 6.45989 0.401837
102.378 6.25208 0.397359
107.933 6.64574 0.43114
106.095 6.67288 0.436184
106.638 6.79738 0.447609
107.315 6.9901 0.473489
103.347 6.84783 0.471837
103.006 6.94507 0.483943
102.469 6.98187 0.497764
104.011 7.19621 0.514645
99.432 7.03707 0.515221
102.123 7.33086 0.544741
104.817 7.66386 0.577832
101.41 7.49989 0.574002
101.286 7.6138 0.589964
101.499 7.7554 0.611152
98.3655 7.66118 0.615091
97.8552 7.77757 0.63319
99.4647 7.99504 0.660817
100.199 8.12837 0.681125
99.0753 8.15646 0.697137
96.3681 8.03689 0.696933
97.1593 8.2912 0.72718
96.0607 8.19893 0.727119
95.4894 8.4197 0.76015
94.1543 8.35363 0.762145
97.2998 8.73675 0.805127
95.9502 8.80217 0.827365
93.9685 8.70543 0.833015
96.9561 9.11021 0.881717
93.6941 8.93804 0.87816
92.828 8.9809 0.890558
93.4339 9.19241 0.925875
91.3785 9.08904 0.924307
93.5197 9.40782 0.967605
91.1112 9.31628 0.978415
91.0182 9.38723 0.99008
90.9168 9.58353 1.03391
90.8477 9.62373 1.04374
91.367 9.8611 1.08818
93.1786 10.1538 1.13275
87.7252 9.69783 1.09817
90.083 10.0716 1.15123
88.726 10.0651 1.16558
88.8551 10.2773 1.2098
89.7899 10.4285 1.23812
88.482 10.4197 1.25126
87.7515 10.4791 1.27685
87.6585 10.4997 1.2926
88.4124 10.8431 1.3498
86.5312 10.6948 1.35038
84.1296 10.5781 1.3561
84.6936 10.7422 1.38398
84.7504 10.8403 1.41743
85.6149 11.1383 1.47534
82.7159 10.9342 1.46395
84.2266 11.1217 1.50046
84.5695 11.3759 1.55311
80.6061 10.9935 1.5302
80.8715 11.0691 1.55088
81.9876 11.4582 1.62553
79.1034 11.176 1.60983
82.7827 11.7528 1.69749
81.4578 11.7237 1.7165
82.5827 12.0314 1.78207
79.402 11.7771 1.77637
80.3581 11.9967 1.81978
78.6507 11.9128 1.8266
78.7702 12.035 1.87442
77.7305 11.9893 1.87896
79.9712 12.5005 1.98804
78.7409 12.3542 1.97621
76.9821 12.1999 1.96826
78.2754 12.474 2.02541
78.6272 12.8018 2.12189
76.0286 12.5008 2.08789
76.0068 12.6361 2.13686
74.2417 12.3661 2.09792
75.0769 12.7022 2.18517
73.4831 12.6119 2.19779
74.7735 12.9208 2.27215
75.1082 13.1259 2.33299
73.2797 12.9874 2.32729
72.8549 12.9741 2.34596
75.3068 13.6107 2.48435
72.5267 13.1781 2.4279
73.3695 13.5208 2.51764
70.6128 13.0903 2.47525
72.0076 13.5463 2.57976
71.257 13.529 2.60652
71.7712 13.7424 2.66243
69.311 13.474 2.64295
70.8397 13.8107 2.71594
69.4197 13.732 2.75086
70.0781 13.926 2.80751
68.279 13.696 2.77855
69.0211 13.9757 2.86974
68.6155 14.0376 2.91402
66.7788 13.7356 2.86215
69.0696 14.4388 3.04636
66.4424 13.9403 2.97376
67.9845 14.4928 3.11814
68.8644 14.8172 3.22906
66.9081 14.4404 3.15974
67.1234 14.6442 3.22869
66.145 14.5652 3.26307
66.0974 14.5716 3.26777
65.863 14.6588 3.31396
68.1246 15.4464 3.54403
65.4566 14.9132 3.45004
64.0296 14.7999 3.45847
64.6232 14.9752 3.51494
63.2922 14.7423 3.47426
63.8072 15.0939 3.59363
62.1955 14.9476 3.61808
63.94 15.4857 3.78455
63.5869 15.4442 3.78244
63.7636 15.6853 3.90777
64.8645 15.9713 3.96807
62.2625 15.5325 3.91759
59.1253 14.7568 3.7372
60.389 15.3513 3.93888
60.1662 15.3184 3.96515
61.6942 15.7865 4.09135
61.2364 15.8579 4.16207
60.7566 15.8421 4.18057
59.786 15.7856 4.22587
60.1889 15.9594 4.30089
58.9899 15.8283 4.29715
58.06 15.6354 4.26049
56.8381 15.4923 4.28049
58.1767 16.0034 4.43754
57.9347 16.071 4.49661
61.1327 17.0045 4.7502
56.3167 15.7818 4.49367
57.6562 16.3695 4.69453
57.5568 16.4081 4.72574
58.0148 16.7395 4.87633
56.1774 16.3423 4.8093
56.2969 16.4949 4.87315
55.399 16.2595 4.82758
55.6628 16.5271 4.95931
54.3473 16.2373 4.90124
56.088 16.997 5.18169
55.4909 16.8231 5.17234
55.3286 16.9753 5.26123
54.6294 16.7716 5.20792
55.13 17.1311 5.36375
53.2376 16.748 5.31657
53.3384 16.8196 5.35092
53.1649 16.8695 5.40662
53.0662 17.0284 5.5035
53.0896 17.1421 5.60932
54.2453 17.7078 5.83181
54.2317 17.7603 5.84535
52.2054 17.188 5.72437
51.7008 17.1525 5.75026
50.1943 16.8065 5.68537
52.2286 17.6628 6.02671
51.8419 17.6202 6.05206
50.4949 17.1499 5.88673
50.8733 17.5912 6.14796
51.3932 17.7958 6.18534
49.0139 17.1967 6.095
50.9013 17.9759 6.4
49.4769 17.4107 6.19148
48.4132 17.3087 6.2278
47.2001 17.0259 6.22951
49.446 17.8174 6.49278
48.0799 17.5821 6.49215
49.7725 18.284 6.78291
50.0749 18.3538 6.80988
48.5979 18.068 6.75667
49.7446 18.8307 7.16581
49.169 18.3709 6.937
45.6067 17.4298 6.77749
48.9714 18.6472 7.17868
49.2719 18.8661 7.27403
49.6897 19.2239 7.45081
47.4704 18.4525 7.2712
48.824 19.2017 7.59671
46.9417 18.4941 7.34829
45.4601 18.0229 7.21665
47.0609 18.8502 7.62037
45.0046 18.1653 7.39572
46.0125 18.5758 7.56722
46.1119 18.9652 7.84784
43.9316 17.947 7.4464
45.0933 18.6024 7.73155
45.2055 18.8123 7.88622
44.8097 18.7748 7.9617
44.1926 18.5912 7.9044
43.0424 18.1845 7.78386
42.8804 18.2295 7.83389
42.8146 18.4804 8.04582
42.2109 18.1865 7.92943
42.7276 18.6286 8.18244
43.0587 18.5544 8.06681
41.6077 18.2421 8.07428
40.9602 18.2139 8.15416
41.3115 18.5073 8.36207
42.1116 18.8371 8.52402
42.3846 19.1088 8.67207
41.7367 18.9749 8.67214
40.4867 18.4644 8.52
39.6881 18.1655 8.39804
39.6943 18.2789 8.4908
39.9482 18.7316 8.82114
40.3996 18.9144 8.96826
41.0021 19.1823 9.06394
39.1133 18.5462 8.86101
40.2732 19.1626 9.20255
39.3288 18.7933 9.05697
38.1767 18.3354 8.90636
38.6685 18.7194 9.15443
38.6485 18.8521 9.27966
39.6588 19.3273 9.48184
38.6395 19.1223 9.54818
38.4898 19.022 9.48492
38.6866 19.2181 9.6111
38.95 19.5754 9.8821
37.9723 19.1734 9.76096
37.4549 19.1801 9.89931
37.876 19.2706 9.90919
37.8977 19.3695 9.97069
36.5318 18.8928 9.84641
36.9954 19.3633 10.1939
36.9611 19.2088 10.1036
36.4651 19.1008 10.1181
36.3987 19.2504 10.2598
37.3864 19.8579 10.596
36.0298 19.3316 10.4197
35.7224 19.1506 10.348
35.3369 19.0677 10.3966
35.4505 19.1815 10.4609
34.5584 18.9333 10.4997
35.4303 19.3113 10.6418
35.2675 19.5711 10.9263
34.805 19.1472 10.6149
33.9307 18.9338 10.6838
33.9992 19.1636 10.9275
33.9035 19.0241 10.8219
34.2081 19.2559 10.9458
33.549 19.1585 11.0097
33.2566 19.0617 11.0578
34.1747 19.7404 11.4185
33.6457 19.4576 11.3198
33.0714 19.1563 11.2317
33.973 19.9784 11.7667
33.5372 19.9211 11.8452
32.1221 19.0247 11.4662
33.802 19.897 11.8328
32.8744 19.5759 11.7661
33.1256 19.8991 12.0515
31.8955 19.2108 11.7423
32.3156 19.6383 12.0573
32.1624 19.6078 12.0821
32.6473 19.7347 12.0202
31.8328 19.642 12.1957
31.0174 19.2294 12.0809
31.8249 19.7692 12.3646
31.9127 20.012 12.6207
32.0315 20.1051 12.6659
30.5483 19.2825 12.3063
31.1137 19.8559 12.7511
30.878 19.7756 12.8124
30.8488 19.5927 12.5918
29.7452 19.2109 12.5385
29.7545 19.2032 12.5021
30.2325 19.7997 13.0289
29.8466 19.4278 12.7128
28.9161 19.0827 12.6959
29.5679 19.4848 12.8057
29.1853 19.7071 13.4076
29.3727 19.3075 12.8575
29.5262 19.8547 13.4131
28.8936 19.5658 13.3799
29.0465 19.616 13.352
28.5112 19.3987 13.3652
28.6963 19.5799 13.5136
28.7969 19.7381 13.6475
28.7581 19.7998 13.744
28.2708 19.6658 13.8029
28.6229 19.8516 13.8721
28.2564 19.7738 13.9401
27.5637 19.2416 13.5269
27.7678 19.7276 14.1392
27.5947 19.5186 13.9231
27.4193 19.606 14.0928
27.281 19.432 14.0142
27.5706 19.9454 14.5147
28.0371 20.3839 14.9518
27.4608 19.7876 14.398
27.1603 19.9826 14.7668
26.7001 19.6288 14.5996
27.3399 19.9127 14.6397
26.3982 19.5338 14.5821
26.3989 19.5531 14.6098
25.6186 19.0778 14.371
26.5919 19.8586 14.9438
27.1439 20.2963 15.2213
26.247 19.9285 15.1124
25.1941 19.4284 14.9994
25.1074 19.1596 14.7922
25.8036 19.7112 15.1911
25.5204 19.5145 15.046
25.1379 19.6062 15.3488
25.1131 19.3502 15.0944
25.2634 19.9369 15.8257
25.6636 20.0238 15.7634
24.5284 19.2076 15.2421
25.3637 20.1165 15.9443
24.4863 19.6425 15.8709
24.6062 19.5242 15.7632
24.0084 19.0022 15.2391
24.2837 19.5226 15.8126
24.6007 19.8935 16.1432
24.12 19.6481 16.0546
24.0483 19.6688 16.2148
24.0368 19.5293 15.9598
23.3308 19.3417 16.123
23.9027 19.6913 16.3132
23.9439 19.8891 16.6441
23.2616 19.5593 16.6601
23.8551 19.6056 16.396
23.5115 19.6357 16.4591
23.6696 20.0592 16.9468
23.1072 19.6577 16.7751
23.054 19.8021 17.0705
22.6758 19.3956 16.7808
23.2248 20.0726 17.4141
23.0333 19.9754 17.4743
22.9622 19.7922 17.2946
22.8926 19.7252 17.2143
22.8267 19.7145 17.1993
22.5714 19.9792 17.753
22.2508 19.5432 17.3975
22.9963 20.0946 17.6381
22.1494 19.7957 17.7302
21.68 19.2247 17.2847
22.0463 19.6096 17.5309
21.1347 18.9247 17.1231
21.8477 19.7497 17.8773
21.7737 19.7111 17.8621
21.0679 19.3285 17.8328
21.4226 19.4613 17.8652
21.4364 19.8405 18.5335
21.7219 19.8027 18.2362
21.8519 20.1358 18.6139
20.4184 18.9139 17.833
20.7661 19.1055 17.8011
21.0068 19.561 18.2736
20.6612 19.3313 18.159
20.9275 20.0095 19.0945
20.79 19.6939 18.8728
20.7905 19.6612 18.766
20.704 19.6274 18.6782
19.9921 19.1574 18.4823
19.8697 19.1187 18.5876
19.6849 18.8737 18.3699
20.057 19.4916 19.0744
20.3607 19.7554 19.2549
19.7094 19.3164 19.1297
19.9933 19.4167 19.0345
19.3588 18.9484 18.7434
20.2208 20.1051 20.0121
19.8409 19.4816 19.256
19.0951 19.2486 19.5829
19.2603 18.9198 18.9815
19.9685 19.8619 19.7783
19.1227 19.4606 20.0261
19.4547 19.1683 19.1329
18.7064 18.7726 18.9197
18.7175 19.2953 20.0134
19.5423 19.9422 20.3868
19.0236 19.4935 20.1021
18.6811 19.3753 20.1638
17.9088 18.2569 19.0689
19.0126 19.6737 20.2918
17.8297 18.5505 19.5288
18.1952 18.9463 20.0578
18.1866 18.7501 19.6516
18.2966 19.219 20.204
17.9131 18.7469 19.7532
17.675 18.9553 20.4184
17.6201 18.5259 19.7678
17.5222 18.743 20.285
18.2269 19.324 20.5949
17.566 18.8914 20.4926
17.348 18.4757 19.8801
16.9042 18.3637 20.1324
17.459 18.7842 20.4428
17.5568 19.1029 20.7965
17.2982 18.9843 20.9032
17.2624 18.9248 20.8082
16.8909 18.6301 20.764
17.2659 19.1971 21.4707
16.8735 18.4858 20.6003
17.3009 19.1013 21.1837
16.9468 19.0528 21.5122
17.1471 19.2305 21.61
16.6857 18.5762 20.9882
16.6998 18.8431 21.3901
16.5903 18.7948 21.4157
16.5531 18.7802 21.4428
16.2373 18.5051 21.2882
16.8846 19.6089 22.7681
16.4906 18.837 21.8097
16.5526 19.1113 22.2106
16.2566 18.5335 21.4357
16.1376 18.7461 21.8803
16.1193 18.5958 21.576
15.4244 18.3499 21.9707
16.409 19.1476 22.5265
15.9909 18.523 21.6485
15.6884 18.7447 22.4295
15.8603 18.6558 22.1499
15.8059 18.8901 22.6157
15.6126 18.569 22.2299
15.6166 18.6047 22.5105
15.4462 18.2893 21.8355
15.2501 18.4222 22.3956
15.2564 18.2426 22.1098
15.3787 18.6607 22.6835
15.2011 18.4403 22.5005
15.0877 18.4207 22.5451
14.9166 18.3228 22.6685
15.0025 18.3455 22.6932
14.7085 18.1313 22.7447
14.734 17.9159 22.1993
14.7484 18.1215 22.6007
15.1596 18.7225 23.1627
14.7515 18.396 23.0696
14.7512 18.3494 22.9617
14.7016 18.6258 23.5291
14.3102 18.1484 23.4494
14.7369 18.3075 23.0758
14.6666 18.5869 23.5113
14.0172 17.894 23.1138
13.8959 17.5518 22.7086
14.783 18.8261 23.8986
14.2367 18.4447 23.8233
13.9332 17.8603 23.1715
14.2149 18.4115 24.0437
14.1808 18.4879 24.4066
14.5232 18.4328 23.6542
14.1018 18.5983 24.507
13.6329 17.8 23.6511
13.9884 18.1542 23.8973
14.0777 18.5338 24.5687
14.1139 18.7182 24.9662
14.1379 18.4129 24.2712
13.7055 18.1408 24.1915
13.874 18.5375 24.798
13.9547 18.668 24.9628
13.6937 18.3939 24.7882
13.4449 17.826 23.9852
13.684 18.8227 25.7905
13.7334 18.417 25.197
14.7302 20.2275 27.5139
14.3011 19.5357 26.905
15.156 21.2222 29.6528
15.5109 20.6123 27.1335
12.6389 17.6513 25.7061
15.8288 22.2691 30.9718
15.5177 20.9432 28.4014
13.8439 19.1057 26.7222
13.7509 18.961 26.3053
13.3044 18.599 26.1536
12.9305 18.0524 25.6042
13.1155 18.0967 25.0843
12.4994 17.602 25.0061
12.7622 18.0992 25.6607
12.7035 18.1831 26.1309
12.6036 17.8083 25.6132
12.5417 17.5425 24.8629
12.3516 17.6456 25.3483
12.1502 17.313 24.9427
12.3314 17.8671 26.0636
12.709 18.1665 26.116
12.433 18.0442 26.3579
12.4269 17.845 25.9553
12.0915 17.3631 25.1945
11.9947 17.5272 25.6629
11.9522 17.5025 25.8272
12.088 17.7178 25.9966
11.8085 17.4375 25.9193
11.912 17.4633 25.9855
12.0664 17.8112 26.2989
11.5735 17.2047 26.002
11.8568 17.4588 26.0346
11.7558 17.4787 26.3673
11.8229 17.2809 25.5179
11.4874 17.4075 26.5361
11.8581 17.9903 27.5122
11.7364 17.5063 26.5039
11.4345 17.1611 26.1166
11.488 17.2249 26.0632
11.3896 17.2965 26.1089
11.1135 17.059 26.3334
11.1405 16.9761 26.1228
10.9483 16.7331 26.0254
11.192 17.3356 27.0992
11.4839 17.5374 26.9797
11.087 16.9622 26.4198
11.357 17.6837 27.5443
11.1658 17.2522 26.8805
10.87 16.6383 25.7665
10.9289 17.3569 27.3723
10.9793 17.2789 27.6487
11.283 17.3905 27.0861
10.6679 16.8058 26.7733
10.9043 17.066 26.8097
10.3922 16.4615 26.4639
10.8628 17.3323 27.7336
10.8581 17.1119 27.0761
10.4583 16.8421 27.1782
10.4263 16.546 26.6404
10.6425 17.2133 27.8239
10.5586 16.8258 26.9643
10.1255 16.4455 27.101
10.4828 16.9077 27.7622
10.6474 17.128 27.6626
10.2865 16.6854 27.1944
10.0027 16.454 27.4509
10.4351 17.0161 28.149
10.3371 16.6573 27.177
10.1319 16.7179 27.6928
10.2036 16.7689 28.0054
10.515 17.3205 28.6387
10.2078 16.7453 27.699
10.1458 16.9517 28.4469
10.0464 16.933 28.7207
10.0007 16.3366 27.4967
9.99547 16.5419 27.577
10.0246 16.7681 27.8628
9.69141 16.2655 27.1402
9.39415 16.0318 27.5984
9.69516 16.4165 27.54
9.43087 16.1572 27.9151
9.89508 16.9234 28.9783
9.65138 16.4337 28.5103
9.72406 16.3219 27.9002
9.61645 16.5448 28.6763
9.70234 16.6591 28.8315
9.26359 15.5327 26.8227
9.52405 16.657 29.119
9.64139 16.4759 28.3852
9.35495 16.2426 28.568
9.43858 16.2122 28.0261
9.241 16.1896 28.767
9.59263 16.7718 29.2413
9.25656 16.2485 28.8293
9.23092 16.1718 29.0525
9.57914 16.5547 28.8869
9.09272 15.9373 28.4676
9.3026 16.3946 29.1933
9.22469 16.032 28.3637
9.16151 16.122 28.2615
8.79698 15.7336 28.1377
8.94875 16.1745 29.0837
8.94544 16.1968 29.7727
9.13241 16.2251 29.4206
8.96726 15.837 28.7656
9.04148 16.0264 28.6486
8.80532 15.7993 28.5245
8.72339 15.8512 28.7804
8.67227 15.8984 29.3753
8.79988 15.9996 29.5826
9.06762 16.4897 30.0602
8.7036 15.6468 29.1114
8.8258 15.8957 28.7992
8.62093 15.9267 29.3569
8.67592 16.0796 29.9364
8.57718 15.4543 28.5325
8.52504 15.7921 29.3484
8.61165 16.0737 30.0439
8.62449 15.713 29.0246
8.2446 15.3046 28.9285
8.6236 16.2506 30.9059
8.77223 15.9938 29.5485
8.55962 16.2438 30.2656
8.22468 15.5251 29.7481
8.30792 15.5684 29.9193
8.61572 16.0336 29.9355
8.37452 15.8355 29.9179
8.16308 15.4737 29.5961
8.259 15.9055 30.7872
8.14475 15.1187 29.1377
8.21843 15.5465 29.6475
8.24279 15.7364 29.8846
7.90309 15.276 29.9389
8.12664 15.4959 30.0855
8.21331 15.6525 29.9241
7.96496 15.3348 29.8203
7.97759 15.4264 29.9525
7.90407 15.3507 30.093
7.94378 15.3961 30.1708
7.95024 15.2883 29.9557
8.15127 15.8992 30.5816
7.87891 15.6716 30.9977
7.89971 15.5051 30.6152
7.77567 15.3929 31.096
7.95888 15.4374 30.7568
8.14222 16.1172 31.7742
7.80011 15.2133 30.5422
8.0474 16.0781 31.9793
7.75045 14.9275 29.6365
7.61986 15.1767 30.5804
7.90749 15.7229 30.7205
7.45087 15.0564 30.437
7.48966 15.0502 30.874
7.70945 15.309 30.79
7.65482 15.3514 30.7803
7.38661 14.9047 30.4758
7.61098 15.3553 30.9132
7.40477 15.1709 31.0368
7.4872 15.0789 30.6746
7.31325 14.8604 30.7814
7.60684 15.3651 30.7416
7.17549 14.8882 31.2142
7.48945 15.1907 30.9532
7.11299 14.5839 30.3547
7.20841 14.7396 30.5991
7.39341 15.3878 31.7681
7.19192 14.9521 31.8328
7.38728 15.0093 31.2323
7.29211 15.0521 31.2703
7.07609 14.5319 30.3683
7.04446 14.5365 30.4579
7.1774 14.9148 31.0019
7.0069 14.7808 31.457
7.24144 15.0898 31.9009
7.26115 14.9976 31.1166
6.99674 14.7669 31.0683
6.95709 14.7556 31.704
7.0217 14.6788 31.1323
6.94385 14.7992 31.7887
7.02164 14.6757 31.5742
7.08933 15.03 32.1577
7.01356 14.5683 30.7726
6.88023 14.8759 32.1042
6.94984 14.7756 31.9125
6.90373 14.6912 31.8689
6.89065 14.5964 31.2519
6.79901 14.7716 32.2474
6.97542 14.9102 32.0657
6.68711 14.3365 31.6551
6.90445 14.776 31.7959
6.763 14.6525 31.9708
6.77555 14.6324 31.796
6.85672 14.8348 31.7437
6.60612 14.7588 32.5287
6.63304 14.5269 31.9181
6.57701 14.6523 32.8628
6.54323 14.1846 32.12
6.77928 14.6285 32.1991
6.67312 14.5519 31.6077
6.38472 14.1953 31.8063
6.3002 13.6803 30.6964
6.50667 14.3873 31.6294
6.37044 14.2469 32.26
6.49618 14.3033 31.9279
6.392 14.125 31.4737
6.24621 13.9098 31.8237
6.48831 14.4234 32.1505
6.34945 14.106 31.318
6.2151 14.106 32.2191
6.38449 14.305 32.056
6.24849 14.1302 32.4985
6.37717 14.2105 31.9185
6.35304 14.4583 32.3775
5.95433 13.3264 30.9137
6.2302 14.2298 32.5176
6.30158 14.4151 33.0137
6.20723 13.9793 32.299
6.18483 13.96 31.7261
5.91342 13.3711 31.0759
6.13594 14.1462 32.687
6.15128 14.0475 32.4689
6.10392 13.8898 31.9229
6.05737 14.1384 33.3479
6.24505 14.3314 33.1331
6.07905 13.9053 32.438
6.00648 13.7671 32.0804
6.02199 14.0696 32.73
5.9865 13.8813 32.6203
5.9204 13.7274 32.1591
5.85185 13.5959 32.1154
5.88518 13.7232 32.5028
6.01036 13.9819 32.4723
5.73769 13.4201 32.1994
5.9798 13.9916 32.5962
5.76337 13.6041 32.5281
5.97617 14.3658 34.2112
5.93671 13.7048 32.3158
5.78401 13.9079 33.5359
5.90507 13.9968 33.5272
5.9252 14.0499 33.6872
5.88006 13.838 33.3218
5.77225 13.6905 32.7688
5.69156 13.432 32.0006
5.55781 13.3704 32.8479
5.78759 13.8129 33.3319
5.73546 13.5874 32.5082
5.63742 13.5266 32.9339
5.72119 13.5882 32.4593
5.5766 13.4829 32.5114
5.56071 13.8415 34.197
5.70001 13.759 33.4526
5.52788 13.1504 32.3105
5.55466 13.4848 32.6478
5.47615 13.549 33.4454
