# pn-170911/RbIIR-50-USN3-1280-1959.psd
# Power spectrum* (dif=0,1,2) (really just |FT|^2)
# NOTE: only the first half! (symmetric)
# weeks: 1280-1959
# 1647 clock-days, 193 excluded
# PSD: 1441
1161.54 0.0847709 0.0307798
23259.6 0.426685 0.0405061
139257 2.9146 0.0364331
18704.3 0.786572 0.0358847
59998.5 4.67018 0.0377117
6885.09 0.708522 0.0381914
5766.18 0.93966 0.0369406
3593.7 0.736832 0.0414165
3876.62 1.06741 0.0377532
2194.38 0.754927 0.033807
1988.96 0.837733 0.0365247
1553.66 0.808745 0.0356088
1471.62 0.908825 0.0371082
1133.96 0.838113 0.0372689
1051.53 0.915075 0.0356952
926.112 0.906263 0.0368819
908.346 0.982962 0.036501
788.798 0.952792 0.0383288
744.027 1.01172 0.0386652
680.699 1.01567 0.0414853
650.815 1.10976 0.03904
599.069 1.1121 0.0380935
550.29 1.13963 0.0412928
508.236 1.09665 0.0404231
499.794 1.24868 0.0375731
471.194 1.20631 0.0426174
449.668 1.28317 0.0429484
431.346 1.30625 0.0400064
434.078 1.45549 0.0408118
404.21 1.40226 0.0420672
410.013 1.54743 0.0445956
385.773 1.54801 0.0467578
376.473 1.56087 0.0466641
355.036 1.6065 0.0458252
339.199 1.62741 0.0464742
345.632 1.71639 0.045835
311.309 1.63437 0.0450322
320.47 1.81884 0.0501167
303.239 1.88201 0.0483402
313.558 2.02029 0.0511373
300.957 2.07995 0.0492369
287.95 2.01019 0.0511224
295.528 2.19568 0.0543037
277.976 2.17578 0.0555016
275.556 2.25716 0.0551311
273.521 2.35658 0.055994
266.954 2.44079 0.058532
263.474 2.45888 0.0599065
275.212 2.69099 0.0617435
252.111 2.58745 0.0681758
245.916 2.67409 0.067626
257.25 2.81347 0.0676472
255.028 2.93517 0.0706089
235.214 2.78638 0.0708374
233.386 2.93637 0.0778467
237.878 3.05296 0.0828212
244.243 3.30415 0.0887804
233.278 3.2353 0.0849965
218.929 3.23781 0.0891811
216.836 3.36727 0.0914529
211.496 3.353 0.0934682
215.857 3.51441 0.10304
214.354 3.69414 0.104924
212.702 3.67508 0.106048
206.911 3.69742 0.111251
205.236 3.79868 0.111619
207.196 3.91226 0.117763
208.474 4.14773 0.128063
197.733 4.115 0.129444
194.141 4.08567 0.131215
200.852 4.3905 0.139555
189.697 4.17102 0.136657
192.674 4.48447 0.145783
192.258 4.50998 0.151041
188.899 4.59373 0.154756
191 4.75706 0.167339
194.792 4.96881 0.17264
180.487 4.76733 0.167633
180.538 4.85474 0.178597
178.594 4.83158 0.183844
176.87 5.08401 0.185849
180.297 5.31675 0.201678
178.185 5.46852 0.213447
194.066 6.06106 0.236075
171.58 5.4297 0.224521
176.948 5.73044 0.230248
164.581 5.59056 0.233583
168.508 5.76079 0.242048
164.706 5.71552 0.242069
158.505 5.65495 0.249093
168.47 6.16176 0.274585
170.059 6.36697 0.288953
163.209 6.28351 0.289365
157.873 6.14432 0.290083
158.739 6.33803 0.305161
159.834 6.48571 0.317881
167.595 7.04472 0.341854
151.673 6.43554 0.3249
150.284 6.51861 0.338784
161.092 7.1084 0.369473
158.545 7.1721 0.374094
157.51 7.2872 0.391374
148.342 6.91319 0.376425
155.935 7.55884 0.405767
147.909 7.27607 0.404852
151.876 7.53539 0.43212
158.116 7.99668 0.462601
153.589 8.03167 0.473193
138.44 7.34962 0.439055
141.208 7.61418 0.468343
136.496 7.48519 0.474699
139.666 7.85901 0.49711
136.465 7.76025 0.489006
138.588 8.0644 0.516422
146.952 8.77733 0.578032
138.123 8.3095 0.558279
140.136 8.57502 0.584377
138.37 8.76918 0.606242
138.156 8.82356 0.620097
139.936 9.08426 0.653504
132.146 8.71651 0.627931
139.744 9.35302 0.693968
133.853 9.14339 0.682146
131.828 9.08768 0.690368
132.792 9.4144 0.725192
131.659 9.4883 0.733528
137.31 10.0936 0.811464
128.044 9.4923 0.766029
130.642 9.7365 0.790419
130.124 9.91446 0.827182
123.143 9.6486 0.819669
125.445 9.97975 0.837525
129.268 10.3305 0.893977
126.914 10.3917 0.911611
127.488 10.5424 0.927495
122.593 10.2557 0.933255
123.798 10.5784 0.974193
127.572 10.8894 1.00736
125.496 10.8795 1.01122
125.229 11.1579 1.04892
124.806 11.3406 1.08877
116.422 10.567 1.02775
116.811 10.8313 1.07512
119.452 11.283 1.12395
119.993 11.4763 1.17593
111.896 10.7738 1.10773
116.036 11.2679 1.17095
115.863 11.5729 1.20985
118.349 11.7925 1.24333
113.755 11.6112 1.24379
112.103 11.6714 1.28972
113.545 11.9486 1.32696
121.569 12.8153 1.42942
115.175 12.5056 1.42544
111.222 12.3178 1.41041
111.861 12.3066 1.43787
110.776 12.5357 1.47727
113.503 12.9054 1.5452
110.023 12.606 1.52055
107.144 12.4689 1.54357
115.336 13.5935 1.66477
111.05 13.2644 1.66705
109.15 13.1891 1.67224
108.372 13.4257 1.72055
109.883 13.6023 1.77095
105.199 13.2621 1.74277
109.089 13.8964 1.82432
107.651 13.8059 1.8405
109.904 14.3039 1.9309
105.202 13.8121 1.90293
106.694 14.0754 1.93235
105.988 14.1973 1.97949
100.249 13.7971 1.97487
105.704 14.5038 2.08986
103.317 14.4074 2.08386
102.448 14.4006 2.10716
105.16 14.9946 2.21121
103.252 14.9264 2.24817
105.65 15.3622 2.33365
101.189 15.0979 2.31802
101.473 15.2239 2.34437
102.897 15.5093 2.43836
101.204 15.3705 2.42698
97.3497 14.9697 2.39397
96.767 14.9981 2.42856
100.495 15.652 2.52836
96.2226 15.4731 2.5609
99.4572 16.1399 2.68515
96.2756 15.6024 2.61464
97.238 15.925 2.71643
92.1002 15.4164 2.63646
95.3725 16.0291 2.8018
97.1529 16.3703 2.85834
95.9607 16.5531 2.94404
94.4067 16.302 2.90825
93.7213 16.5286 2.96663
95.8291 16.8174 3.0505
94.5047 16.8269 3.09707
86.6398 15.8299 2.95254
92.7669 16.7475 3.11004
90.7258 16.8684 3.19169
91.8425 17.0866 3.27519
96.5904 17.9833 3.44914
86.6831 16.4469 3.19057
90.1288 17.5155 3.45938
87.8107 17.0385 3.37939
90.9681 17.751 3.58242
90.2115 17.637 3.5582
89.3635 17.72 3.61493
87.0373 17.5138 3.64965
83.3212 16.8544 3.51393
86.1298 17.7584 3.74603
83.8951 17.283 3.69485
89.8067 18.7034 3.99936
86.7908 18.4457 4.03291
89.4639 18.8681 4.10631
83.8884 17.9083 3.9594
86.4354 18.5512 4.11562
84.1818 18.4933 4.13641
81.2439 17.7222 3.99644
84.4013 18.7343 4.26705
81.3942 18.1615 4.18667
84.3735 18.9868 4.40877
80.7364 18.4895 4.31962
84.2528 19.3421 4.57692
85.3477 20.1662 4.83368
83.3375 19.4926 4.68279
84.2433 19.9339 4.81549
83.4253 19.9317 4.85635
82.1741 19.5841 4.84217
79.1369 19.3877 4.82906
83.0819 20.3061 5.06522
81.2646 20.1116 5.06186
77.4342 19.3042 4.89272
79.9445 20.0086 5.13294
80.1135 20.382 5.25997
75.8282 19.3527 5.05047
77.8503 20.0372 5.30224
77.3898 20.159 5.35634
76.9589 20.1039 5.38871
76.3838 20.1212 5.38621
75.8588 20.3244 5.5285
79.2804 21.3606 5.87458
76.3041 20.5742 5.68015
77.3062 20.9919 5.84858
72.7437 20.1436 5.72193
79.3205 21.908 6.22097
75.7704 21.0447 6.01676
76.4663 21.5152 6.18969
73.273 20.6392 6.0081
71.9887 20.6913 6.05434
74.9412 21.5198 6.367
73.9448 21.2517 6.21653
74.2137 21.9916 6.62699
75.2593 22.0464 6.60895
69.9115 20.6136 6.23191
70.968 21.2316 6.55159
69.8515 21.0433 6.47484
70.4579 21.5953 6.7578
72.5516 22.0556 6.87763
69.8107 21.284 6.66127
69.2093 21.5395 6.84372
68.7367 21.593 6.89116
69.908 22.1713 7.20299
69.4398 22.1094 7.14791
69.2591 22.1825 7.2498
67.6071 21.7217 7.14315
68.3158 22.0169 7.22126
68.7652 22.7746 7.62507
67.0874 22.4683 7.75712
70.467 23.17 7.74862
67.4882 22.7696 7.90026
68.6698 23.0496 7.88237
65.5214 21.9493 7.52584
67.7127 23.0931 8.00604
68.6147 23.6686 8.37814
68.9637 23.7596 8.30443
66.9647 23.6104 8.46314
65.1315 22.8841 8.14933
66.4273 23.3028 8.41535
65.9361 23.3999 8.47729
66.1873 23.9056 8.71741
64.5373 23.288 8.57823
65.4657 23.8154 8.79017
60.6197 22.2947 8.32388
63.6411 23.2479 8.58328
63.1414 23.563 8.90142
61.2249 23.1828 8.88432
62.8452 23.9807 9.37534
64.3168 24.3466 9.35414
63.6741 24.4238 9.53805
60.0793 23.2964 9.15629
62.1396 24.0579 9.41582
60.8922 23.7302 9.45847
59.6649 23.5273 9.42414
61.9886 24.0956 9.54655
63.0259 25.1652 10.1462
61.35 24.7207 10.0641
60.8973 24.7133 10.1069
59.563 24.5874 10.3018
59.7535 24.1652 10.0133
58.0885 24.0077 10.136
58.5282 24.1809 10.1779
59.1517 24.7669 10.5062
58.2714 24.4815 10.4058
58.2195 24.3477 10.2864
58.282 24.746 10.6735
60.765 26.0092 11.3047
59.421 25.6369 11.2432
57.9216 25.0655 11.0469
56.4994 24.4562 10.8141
55.3601 24.2284 10.8017
57.3427 25.2572 11.218
55.233 24.9168 11.3129
59.3992 26.6055 12.1211
56.8557 25.2906 11.4982
57.6652 25.7035 11.6645
56.5663 26.0945 12.2848
56.278 25.574 11.7809
55.5832 25.6356 12.0418
57.1607 26.1459 12.1155
54.5392 25.6348 12.0918
52.758 24.6561 11.8061
54.8055 25.6932 12.1884
56.5655 26.385 12.5086
52.2379 25.294 12.4176
52.8176 25.2333 12.4112
54.2349 26.0776 12.7995
54.7612 26.2921 12.7742
54.2043 26.4096 13.0124
52.2777 25.7611 12.9686
52.9626 25.9159 12.9187
52.071 25.7458 12.9359
50.8372 25.2942 12.8655
51.5765 25.9893 13.3066
49.2555 25.0028 12.9491
52.2414 26.4332 13.5767
51.4693 26.2584 13.6239
51.5733 26.3731 13.5713
50.6866 26.4307 13.9567
50.0345 25.9394 13.6864
51.546 26.6959 14.1222
52.0272 27.0592 14.3731
51.5466 27.4067 14.8028
49.8817 26.4571 14.1774
48.2167 26.0416 14.3186
51.3828 27.399 14.8219
49.9159 27.128 14.8996
48.4687 26.3036 14.5227
48.4194 26.6015 14.7783
49.7187 27.6123 15.5987
49.674 26.8552 14.8882
48.2951 26.8903 15.0869
49.5691 27.8471 15.9202
49.1857 27.7923 15.936
47.5377 27.4686 16.5961
59.8753 32.6464 17.8737
50.3482 29.1908 17.57
63.1295 34.9134 19.3145
47.0954 27.494 16.3907
57.776 33.0633 18.7105
47.7698 28.1134 16.8646
50.026 29.0376 16.8196
45.5784 27.3623 16.5392
47.521 28.0454 16.7282
46.0153 27.7107 16.9528
46.8743 27.9231 16.8362
44.2368 26.4092 16.1862
45.5944 27.2735 16.6128
44.9835 26.959 16.2502
44.5305 27.6348 17.2634
44.5468 27.4073 17.1814
44.696 27.383 17.0333
45.9563 28.6336 17.9815
42.9154 26.4536 16.6122
43.2186 27.1452 17.1946
43.9966 27.73 17.7696
42.4581 26.7624 17.2573
44.3428 27.9028 17.735
42.0765 27.0092 17.5998
41.0673 26.3172 17.2036
43.773 28.011 18.0482
42.9988 28.4324 18.8856
42.6473 27.4152 17.7827
40.5527 26.9665 18.069
42.4957 27.9045 18.4768
42.161 27.9933 19.0015
42.5873 27.9585 18.6836
41.9135 28.1097 19.0975
40.3448 26.9265 18.3323
40.2034 27.0856 18.4104
41.3735 28.1096 19.2804
39.6163 26.5646 18.2394
41.5399 28.4921 19.5858
41.5339 28.9528 20.572
40.9454 27.8312 19.3589
40.5119 27.6752 19.3193
39.7818 27.5662 19.3698
40.1696 28.0203 19.7994
38.8234 27.3949 19.6147
38.6388 27.1339 19.4742
40.6058 28.7908 20.5503
38.6615 27.4117 19.7281
39.1967 28.0361 20.2326
40.0501 28.9728 21.005
36.9339 26.5375 19.474
40.6247 29.6959 21.9643
38.2977 27.9762 20.6638
37.5618 27.621 20.5988
38.8244 28.8825 21.5565
38.634 28.5003 21.2763
37.7153 28.1501 21.1853
36.6042 27.7011 21.262
37.3364 27.6335 20.8618
37.514 27.7769 20.9223
37.1338 28.3394 21.6222
37.3424 28.8044 22.3498
36.4365 27.5494 21.1486
36.9715 28.6782 22.5173
36.3218 28.0185 22.0438
38.4878 29.6393 22.9866
36.4924 28.1538 22.0994
35.0706 27.4236 21.7308
36.1396 28.1756 22.3581
35.8202 28.0846 22.167
36.5639 28.9981 23.0777
35.1991 28.0068 22.6674
35.6021 28.6083 23.2277
35.0175 28.1822 23.2978
37.1209 29.5848 24.0534
35.296 28.2188 23.0077
36.3001 29.8145 24.637
34.8024 28.4655 23.6904
34.7582 28.6076 23.7578
35.1253 28.4026 23.3018
33.0041 27.3056 22.9069
34.2293 28.4106 23.9528
33.9044 27.9713 23.4584
33.9081 28.2104 23.7431
34.8474 29.3672 24.9993
33.9221 28.5965 24.5079
33.8597 28.0772 23.6993
33.9972 29.4412 25.4421
33.1472 28.2016 24.3923
33.8094 28.931 25.0348
32.3674 27.9081 24.4317
33.1523 28.846 25.2507
31.641 27.6693 24.7081
32.5406 28.0956 24.7159
33.1719 28.8077 25.4268
31.9423 27.8349 24.7232
31.9293 28.4706 25.4993
32.5001 28.3713 25.1973
32.7919 29.3084 26.2491
32.0185 28.747 26.0218
32.0496 29.0217 26.7921
31.9428 28.6149 26.1526
31.8838 28.2621 25.7082
32.1341 28.8034 26.1348
31.5596 28.7862 26.3614
31.5621 29.0057 26.7451
30.5044 28.3772 26.5776
30.6646 28.1217 26.3128
29.579 26.9722 25.3888
31.9285 30.0226 28.0722
30.6432 28.0982 26.1436
30.1117 28.8017 27.787
30.639 28.7287 27.4653
29.5364 27.5829 26.2881
29.8161 28.5651 27.533
30.5288 28.8817 27.7449
30.4191 28.6644 27.2862
28.2167 27.2985 26.9744
29.6205 28.3522 27.4432
29.448 29.0286 28.5869
28.6726 27.3995 27.0362
29.8672 29.3481 29.0788
29.0576 27.6281 27.004
29.5568 29.5167 29.8478
29.8663 28.9879 28.7678
29.7553 29.0502 28.6437
28.8715 28.8612 28.86
27.4824 27.3815 27.6685
28.7762 28.5815 28.7276
28.5611 28.396 28.793
28.5327 28.8881 29.4192
27.3747 27.5972 28.3339
29.4854 30.188 30.9741
28.6112 29.1875 30.0744
27.5757 28.2349 29.3555
28.3592 28.9803 29.9283
28.0778 28.9792 30.1406
27.0608 27.7065 29.0254
27.2667 28.219 29.504
25.3438 26.4874 28.2421
27.3723 28.5121 29.962
27.959 29.7812 31.7848
28.0084 29.5817 31.6098
26.4438 27.9009 29.878
26.2437 27.7264 29.8718
26.5701 28.4853 30.8654
27.6429 29.7411 32.5613
27.3527 28.9724 31.0084
25.6158 27.5656 30.2773
25.6548 27.251 29.4285
26.0592 27.9741 30.11
24.6053 27.3243 30.2728
24.6452 26.9809 30.0327
24.6913 27.4063 31.0119
25.1134 27.4286 30.8653
26.5633 28.5714 31.1752
25.0894 27.7219 31.1258
25.4437 28.4653 32.147
25.5363 28.2623 31.5631
24.44 27.4378 31.3016
25.302 28.4082 32.3608
25.6985 28.4804 31.7053
23.7267 27.29 31.6299
24.1994 27.4582 31.4866
24.6133 28.5292 32.9872
23.1701 26.207 30.5511
24.8192 28.4152 32.8673
24.0741 27.5567 32.1072
24.4019 28.1739 32.707
24.262 28.3306 33.2962
24.0017 27.5479 32.102
23.8003 28.1356 33.4099
23.1224 27.0926 32.4775
23.9944 27.9724 32.9736
23.9922 28.1316 33.092
22.5731 26.3308 31.3427
22.4902 26.6037 31.8549
22.3976 26.8416 32.6635
23.124 27.6546 33.7005
23.2462 27.4133 33.1312
23.8331 28.3771 33.7487
22.926 27.6195 33.7194
23.4162 28.5323 34.9207
23.1692 28.2342 34.9314
23.4078 28.5259 35.1546
23.2878 28.2321 34.6521
22.8092 27.9254 34.5013
22.8756 28.2999 34.9749
22.021 27.4611 34.6665
22.2438 27.7873 35.2777
22.4911 27.3343 34.155
21.9678 27.0264 33.8114
22.5033 28.1262 35.6482
22.9132 28.7211 36.21
21.9749 27.377 34.9499
22.6196 28.3135 35.4724
22.1928 28.3939 36.1036
21.3987 27.2681 34.9971
21.4632 27.6778 36.0102
21.7177 27.7846 36.3779
22.3234 28.1693 36.003
20.9227 26.7521 35.0623
21.9357 28.2197 36.4814
21.2985 27.5553 36.3231
21.8711 28.4874 37.131
20.5881 26.5097 34.949
20.7412 26.5625 34.4696
20.7982 27.6181 36.6541
20.4633 26.9376 35.7177
20.7897 27.5551 37.0959
20.9795 27.3541 36.2666
20.6477 27.5334 37.421
21.1424 28.0258 37.081
19.754 26.5679 36.1918
19.4376 26.2491 36.1327
19.9312 26.47 36.0392
20.802 28.5102 38.5485
20.3606 27.3985 37.3168
19.9955 26.9654 37.3823
20.2734 27.4763 37.5523
19.3485 26.5323 37.2342
20.1791 27.0343 37.1547
19.9368 26.9885 36.9492
19.542 26.6878 36.7604
19.2949 26.6354 37.2873
19.6553 27.1869 38.057
20.0414 27.5871 38.3411
19.384 26.8387 37.5958
19.2931 27.0884 38.0228
19.522 27.5795 39.1645
19.5566 27.6757 39.4455
19.5586 27.273 38.6223
19.3571 27.5268 39.1837
19.2296 27.268 38.918
18.8121 26.3501 37.1091
17.5097 25.335 37.3614
19.0318 26.8471 38.1885
17.9548 25.8677 37.9749
18.8864 27.1205 38.8624
17.8158 25.6789 37.6854
18.9376 27.4165 40.0028
18.613 26.6173 38.1504
18.256 26.9393 39.8801
19.2878 28.4762 41.7055
17.7779 25.9539 38.9345
18.4728 27.1694 40.2009
18.1185 26.4512 38.7769
17.8043 26.8568 40.5712
17.78 26.2308 39.9518
18.2355 26.6486 39.9681
17.8061 26.0933 38.5522
17.2287 26.0038 39.6448
17.6582 26.3201 40.8771
19.0371 27.8835 41.0727
17.7669 27.0868 41.3514
17.4762 26.0534 39.9428
18.1774 26.9601 39.7697
16.3355 25.1162 39.5232
17.5914 26.6838 40.8777
18.13 27.4522 41.9763
17.7162 27.0992 41.4292
16.5902 25.7174 40.6579
16.7394 25.5192 40.1843
17.47 26.2694 40.2918
16.797 25.9709 40.3151
16.4272 25.6896 40.8083
16.518 25.3181 40.226
17.0461 26.2919 40.6464
16.2241 25.4057 40.8127
17.136 26.7018 41.7198
16.5469 26.2086 41.4873
16.4985 26.1325 41.8821
17.0626 26.9426 42.9803
16.1402 24.9422 39.9031
16.2242 25.4132 40.4005
16.259 26.2143 42.9434
15.8416 24.775 40.2886
16.0403 25.4686 41.3739
16.756 26.7748 42.7958
15.7183 25.1939 41.4991
15.852 24.9036 39.7625
15.0888 24.5362 40.5539
15.9048 25.3555 40.7215
15.6973 26.0939 43.2393
15.1403 24.9225 41.9835
16.1405 26.1407 42.9169
15.7518 25.77 43.2137
15.6799 25.0737 40.9036
15.0476 24.958 42.5943
15.9348 25.4839 41.7946
15.6425 26.0723 43.1976
15.4145 25.1699 41.7877
15.4595 25.8549 43.1872
14.8423 24.5748 41.4397
15.3304 26.2557 44.5318
15.0827 24.9322 42.5724
15.1399 25.4644 43.3879
14.9639 24.9373 42.2512
15.1371 26.1905 45.31
14.8202 24.4708 42.2912
15.1982 25.1496 42.4418
15.1906 25.7339 43.5663
14.7331 25.3885 43.9996
15.062 26.4011 46.1351
14.733 24.7099 43.4922
15.1655 26.0595 45.5511
15.4145 25.5645 43.3496
14.2488 25.0136 44.49
14.6176 25.1299 44.3136
14.285 24.2267 42.1103
14.5048 25.3682 44.5505
14.5576 25.6008 45.4238
14.1058 24.3161 43.5341
14.5975 25.4039 45.3058
14.4619 24.7279 43.8381
14.2314 25.1777 45.5887
14.3693 24.8331 45.7346
19.0318 35.4815 61.6246
15.4677 25.7345 45.1972
14.0913 25.1381 45.6064
14.0158 24.8088 44.4689
13.8904 24.9389 45.6608
14.2241 25.3562 44.8477
12.87 23.3214 43.8901
14.1054 25.4511 47.3738
14.4116 24.5987 42.9567
13.1902 24.2281 45.1384
13.5888 23.9696 43.409
13.7908 25.4685 46.014
13.3522 23.7987 43.2639
13.2768 24.4142 44.5246
12.6193 23.3119 44.297
13.4594 24.4605 45.0485
13.0685 24.1799 45.6036
13.1936 23.8922 44.456
13.1604 24.5347 45.6327
13.3174 24.1686 44.8498
13.0646 24.3619 45.8138
12.6519 23.2822 43.9546
12.8611 24.4109 45.8431
12.5651 23.5459 45.6339
13.1978 24.2377 45.395
12.2657 22.9687 44.6034
13.0441 24.372 46.4647
12.9483 23.6533 44.2476
12.9368 24.6739 46.9389
12.3457 23.3531 44.8092
12.3006 23.708 46.8876
13.0723 24.3809 46.3312
12.6406 23.8999 46.2114
12.643 24.1882 46.8422
12.5905 23.4244 44.5374
12.2762 23.9892 47.1426
12.7354 24.0189 45.0683
11.9822 23.3555 45.131
11.5667 22.9192 46.6152
12.658 24.2487 46.8619
11.9394 23.4005 47.3421
12.6779 24.3543 47.7117
12.439 23.6809 46.4881
12.2277 23.6517 46.3422
12.1675 23.9562 47.1001
12.2973 24.5784 49.6072
12.4596 24.0021 47.1974
11.8894 23.7338 48.0264
12.3367 23.9382 47.3257
12.1762 24.6501 49.9506
12.2685 24.005 48.6595
12.5148 24.1311 47.2282
11.2917 22.3417 45.6264
11.5267 22.6354 45.6267
11.4931 23.448 48.5861
11.9187 23.2162 46.3608
11.7957 23.5893 47.254
11.1119 22.1905 46.489
11.6718 23.1228 46.9111
11.8355 23.3633 46.8427
11.5964 23.3582 46.4914
10.9707 22.5233 46.5429
11.1737 23.6503 49.7674
11.1298 21.9935 45.4504
11.0309 22.3696 46.9008
11.5082 23.7187 49.3631
11.6677 23.4685 48.0154
10.8138 21.9189 46.1511
11.2184 23.3384 49.214
11.179 23.1579 49.3484
11.4549 22.9758 46.9402
11.0929 22.7454 46.8045
10.5853 22.2726 47.4617
10.8153 22.1855 47.0555
11.1504 23.1153 48.1669
10.6881 22.6514 49.143
11.2239 23.0691 49.237
11.1528 22.636 47.6321
10.8807 22.4077 47.4398
10.8364 22.9495 48.8067
10.8728 23.0321 49.7956
11.1129 23.2979 49.043
10.3025 21.4078 46.6014
10.7862 22.9971 48.2495
10.2392 22.0551 48.6316
10.5522 22.1939 47.963
10.2604 21.6509 47.3788
10.5014 22.1382 46.9332
10.0289 21.6876 48.0964
10.4509 22.076 47.8586
10.8701 23.3532 49.9049
10.128 21.6234 47.3953
10.2022 22.4532 50.8597
10.5849 21.8871 47.0455
10.324 22.1563 47.5159
9.69936 21.3836 47.5371
10.1817 22.1265 48.2035
10.144 22.3521 48.796
10.1664 22.7168 50.6763
10.0644 21.7802 48.3717
10.1186 22.2652 48.7651
9.91103 22.3561 50.5846
10.0687 21.7741 48.2927
9.38313 20.7173 48.1704
9.85725 21.1673 47.5829
9.81038 21.4622 48.012
9.54513 21.3449 48.5851
9.63757 20.9613 47.6761
9.72758 21.2231 47.5773
9.68298 21.5522 49.1012
10.0258 22.2361 49.7598
9.69855 21.4794 48.276
9.69517 21.7013 48.4267
9.29525 20.5917 47.5574
9.93898 22.8443 51.2475
9.47704 21.3458 48.8932
9.5273 21.8334 50.7916
9.57838 21.5064 49.071
9.25241 20.9836 48.438
9.37964 21.446 49.5226
9.56837 21.5312 49.1427
9.30632 21.8733 51.4413
9.56448 21.6667 50.5876
9.42416 21.5697 51.5415
9.51573 21.1183 49.8829
9.81533 21.9707 49.8447
9.60108 22.0237 50.5076
9.30246 21.3379 50.5425
9.29529 21.2902 49.9406
9.11937 20.3147 47.0202
9.35049 22.244 51.5244
9.05651 21.2472 50.4672
9.14556 20.949 49.4071
9.08135 21.1661 49.4045
8.86145 20.8792 49.2467
8.61975 20.2466 49.3656
9.13626 21.3096 50.1526
8.91978 20.9827 49.9418
8.60526 20.5044 50.1713
8.8697 20.5719 50.1968
9.02281 20.8307 48.8324
8.88833 21.2741 50.8684
8.90357 21.5095 53.3296
9.21159 21.1878 50.078
8.7857 20.8267 50.3102
8.79491 20.8645 50.3896
8.80027 20.9837 50.9613
9.01539 21.3737 50.5805
8.30551 20.3569 51.4445
8.93221 20.9189 50.5283
8.5297 20.4906 51.1238
8.72515 20.8293 50.0701
8.26274 19.2318 47.3162
8.32078 20.4456 51.1161
8.86987 21.6522 51.7402
