# pn-170911/RbIIF-73-RbIIR-1280-1959.psd
# Power spectrum* (dif=0,1,2) (really just |FT|^2)
# NOTE: only the first half! (symmetric)
# weeks: 1280-1959
# 595 clock-days, 5 excluded
# PSD: 1441
73.7158 0.042526 0.0215418
24155.9 0.529433 0.0154261
102477 2.18766 0.015844
27547.9 1.06155 0.0154095
69380.9 5.23222 0.0145364
8881.45 0.826897 0.0149959
8065.09 1.14466 0.0151969
4710.48 0.810874 0.0150691
3841.19 0.988036 0.0147203
2903.94 0.869405 0.0146193
2545.57 0.962966 0.0164341
1851.48 0.869959 0.013661
1576.97 0.874332 0.0145891
1316.72 0.850302 0.0157096
1217.2 0.921614 0.0155619
1108.07 0.961736 0.015636
918.459 0.909384 0.0151622
880.27 1.00262 0.0175087
755.9 0.943226 0.0162796
649.774 0.921102 0.016811
621.459 0.988111 0.0173822
593.286 1.01789 0.0169229
524.148 1.03344 0.016149
481.272 0.997599 0.019955
455.745 1.09803 0.0178468
421.539 1.04674 0.018466
396.715 1.09188 0.0187135
392.397 1.16147 0.0173933
387.986 1.23451 0.0195204
350.231 1.18797 0.0203256
374.823 1.36189 0.0215562
328.114 1.24881 0.0198996
318.554 1.33573 0.0223736
300.015 1.40131 0.0218087
299.382 1.43108 0.0236814
278.294 1.42142 0.0225753
258.87 1.33386 0.0225303
268.54 1.56838 0.0240817
260.198 1.55782 0.0253812
249.878 1.59294 0.0274812
238.811 1.56227 0.0248553
239.145 1.74949 0.0299452
215.163 1.62545 0.0281595
222.013 1.77007 0.0293285
241.541 2.02395 0.0338718
205.642 1.75304 0.0321272
218.359 1.93327 0.0353635
206.953 1.95116 0.0362745
210.491 2.05836 0.0383762
195.205 2.04635 0.0382174
207.438 2.24111 0.0407655
206.673 2.25959 0.0413926
186.514 2.1544 0.0427639
173.74 2.09235 0.0421705
180.289 2.27687 0.0496605
176.85 2.40367 0.0517361
175.131 2.34224 0.0516344
172.112 2.4775 0.0579429
170.046 2.53692 0.0547665
181.121 2.81993 0.0616476
161.502 2.45371 0.0556918
166.515 2.7171 0.0608416
164.069 2.89308 0.0680194
158.501 2.78986 0.0705319
156.329 2.8324 0.0694914
166.835 3.11416 0.0770834
163.385 3.11665 0.0800527
165.466 3.29853 0.0858541
160.596 3.34198 0.0889591
148.772 3.15725 0.0854305
148.366 3.21393 0.0932415
151.46 3.45184 0.0952479
149.016 3.37342 0.101883
150.996 3.55729 0.104793
141.436 3.53615 0.113083
151.247 3.82695 0.118073
138.119 3.5578 0.111614
133.67 3.58034 0.116867
141.243 3.74357 0.121654
132.259 3.74092 0.13187
136.536 3.90329 0.135957
135.339 3.92573 0.135176
142.658 4.32953 0.150259
129.648 4.05968 0.147086
129.874 4.02017 0.149018
134.942 4.339 0.16759
139.24 4.73222 0.182866
128.927 4.31303 0.166163
122.33 4.2398 0.177142
120.047 4.33582 0.176092
131.616 4.8426 0.200321
127.485 4.7377 0.200063
130.555 5.02444 0.209845
128.488 5.05628 0.224897
118.031 4.8135 0.220581
117.625 4.88521 0.228589
122.125 5.28284 0.247653
126.003 5.46364 0.256768
123.431 5.4289 0.263125
114.968 5.13223 0.254165
121.689 5.55807 0.278748
120.028 5.55839 0.279408
130.584 6.11782 0.317331
125.585 6.09976 0.316588
124.029 6.02633 0.325381
113.854 5.74404 0.318046
112.273 5.8348 0.332195
112.872 6.04047 0.33859
114.216 6.06001 0.362831
113.79 6.20921 0.374852
117.933 6.2963 0.367599
113.315 6.32793 0.382739
106.241 6.15299 0.377815
115.137 6.84717 0.425959
113.406 6.7685 0.421004
113.729 6.85013 0.444979
116.142 7.1173 0.466453
113.286 7.10335 0.47485
106.623 6.77054 0.463243
106.589 6.88257 0.474212
116.905 7.69273 0.538467
98.1071 6.85044 0.487971
111.497 7.48877 0.532272
100.856 7.14037 0.529948
112.699 7.88389 0.586188
108.265 7.79981 0.597321
110.155 8.0889 0.625979
106.01 7.83355 0.613327
104.498 7.90798 0.623963
102.718 7.81514 0.632053
98.4466 7.66716 0.63346
99.8607 7.89655 0.670507
103.155 8.26354 0.695419
98.265 8.0951 0.68828
96.215 7.94565 0.694859
102.424 8.58304 0.753623
94.0448 8.13737 0.716893
97.9948 8.43139 0.768958
96.985 8.5618 0.787227
94.1914 8.28557 0.778989
103.707 9.21469 0.855681
90.976 8.44674 0.813748
91.2191 8.37664 0.814253
95.8869 9.03419 0.901311
95.9814 9.09651 0.906752
94.2395 9.11083 0.919494
94.9892 9.3059 0.936808
92.2073 9.41421 0.985821
87.1478 8.66864 0.932374
101.807 10.371 1.0965
94.3949 9.68801 1.03193
98.3143 10.3905 1.149
87.962 9.25283 1.00302
94.7903 10.1971 1.14867
84.0981 9.19095 1.05491
86.7715 9.76522 1.14085
88.105 9.84566 1.1239
87.0769 9.78855 1.15394
91.2677 10.6299 1.26066
91.6429 10.6862 1.28496
89.676 10.5932 1.30997
88.9267 10.6842 1.32488
88.8769 10.7494 1.34253
96.9953 11.6967 1.44682
81.7191 10.1048 1.29588
87.9752 10.913 1.40263
82.1974 10.3667 1.37024
84.8229 10.936 1.44176
79.5331 10.4344 1.38493
83.2676 11.0432 1.49761
85.9857 11.5347 1.57737
80.8257 10.8369 1.5034
80.6566 11.0658 1.54963
84.8217 11.6078 1.65624
86.8989 11.9711 1.69842
80.0022 11.249 1.63776
79.1898 11.2592 1.64454
76.9823 11.2236 1.66621
79.5753 11.619 1.73758
73.0594 10.8593 1.67213
78.0967 11.5103 1.75793
80.1789 12.0576 1.86486
78.0078 11.9936 1.88679
78.1391 12.0412 1.9139
73.7295 11.4147 1.81727
83.2599 13.0815 2.1381
79.1055 12.4313 2.0434
83.1876 13.3265 2.18264
72.9905 12.0375 2.02735
80.7022 13.2563 2.22596
72.4013 12.1038 2.08218
71.4086 12.1966 2.15861
75.6262 12.507 2.1452
72.6789 12.4617 2.16957
75.1841 13.1654 2.35496
71.2318 12.5004 2.24218
72.1445 12.6608 2.27281
73.9027 13.2534 2.42297
74.936 13.5572 2.51851
77.349 13.8962 2.60151
72.0358 13.2039 2.51034
79.1372 14.5663 2.74768
75.702 14.0537 2.69025
75.2879 14.3458 2.79422
70.8449 13.7866 2.6876
75.6619 14.7713 2.94989
73.0559 14.1671 2.83479
67.5782 13.0215 2.60351
71.1656 14.3451 2.92752
67.6462 13.5642 2.78494
72.1889 14.285 2.96721
67.298 13.8209 2.86481
65.335 13.833 2.94531
65.1214 13.5038 2.88473
65.0117 13.8071 3.00284
69.5119 14.7471 3.16974
66.7094 14.3919 3.13236
66.4592 14.2349 3.12387
66.9716 14.6857 3.27041
66.2611 14.5767 3.24801
63.465 14.1321 3.2442
61.9623 14.1928 3.2698
66.8161 14.9753 3.46936
63.9201 14.4858 3.36385
59.0631 13.8725 3.3382
68.2225 15.5207 3.60976
61.6253 14.397 3.45997
62.9551 15.0027 3.65236
64.406 15.0847 3.63868
63.1287 15.0952 3.68051
63.6243 15.4116 3.82425
60.845 14.6325 3.63282
65.4699 16.2481 4.06629
61.5345 15.2746 3.85607
61.4625 15.5116 3.97078
59.1311 15.1689 3.98408
59.3348 14.9579 3.84007
60.5404 15.5798 4.0978
58.3156 14.9936 3.92842
58.1836 15.5662 4.22088
61.2119 16.0465 4.28142
58.3068 15.3842 4.14792
59.6104 15.6742 4.2536
58.0834 16.0412 4.48151
56.8635 15.2285 4.22882
62.7112 17.3634 4.89788
57.8104 16.0812 4.55808
61.6041 16.7443 4.63867
58.1231 16.7333 4.81205
58.1514 16.7616 4.86802
58.1975 16.8271 4.97649
59.3728 17.1736 5.06028
59.6735 17.4465 5.17838
58.8803 17.1201 5.04756
57.3732 16.6518 4.93848
52.8753 15.8127 4.78388
55.9544 16.8668 5.14366
52.1305 15.5765 4.74542
53.3823 16.3833 5.18433
55.1114 17.0642 5.3243
49.9269 14.9769 4.61761
54.3636 17.1801 5.4316
57.602 18.2908 5.80831
51.2753 16.3802 5.32432
54.5644 17.3127 5.5398
52.5601 16.925 5.5392
50.2965 16.4991 5.45093
50.6284 16.4364 5.44059
53.5187 17.3994 5.78238
50.7955 16.4869 5.5406
51.2218 17.0293 5.7769
54.916 18.3221 6.19922
50.7102 17.0507 5.86367
51.9658 17.8158 6.17405
50.846 17.317 5.97875
49.5715 17.1216 5.98061
47.4412 16.2987 5.73744
50.7248 17.6779 6.22937
47.2661 16.6234 5.99519
49.2942 17.4822 6.28077
49.6024 17.5412 6.35149
49.7621 17.9735 6.49581
45.0748 16.3193 6.03204
49.3837 18.3508 6.89753
50.8045 18.3731 6.74975
49.3338 18.133 6.78593
52.9639 19.7575 7.45225
50.8736 19.2138 7.29532
51.2531 19.5067 7.45741
46.7689 17.7995 6.87042
48.377 18.4432 7.23306
48.0384 18.185 7.03762
46.9648 18.3501 7.26982
44.1613 17.4435 6.89747
43.3722 17.3193 7.14291
46.7162 18.0773 7.15428
47.3302 18.631 7.33386
46.785 18.8305 7.66292
45.9411 18.7699 7.64918
44.2408 18.1059 7.60282
43.006 17.4732 7.31703
43.4021 17.6973 7.27868
47.3771 19.6642 8.29618
45.0083 18.4871 7.7302
43.8741 18.2897 7.72646
42.0022 17.7668 7.58829
46.5158 19.6212 8.42012
44.7407 18.766 8.03479
44.6752 19.5787 8.69236
47.1593 20.6675 9.05404
45.1467 19.4631 8.5445
45.6659 19.8315 8.64412
42.2623 18.716 8.47909
42.878 18.8999 8.48443
43.0246 19.0642 8.54533
44.9549 20.2478 9.11636
39.3733 17.8814 8.3423
41.1912 18.5547 8.5584
41.1901 18.8267 8.63992
40.8195 18.8039 8.72653
39.0116 18.2392 8.64402
42.1465 19.8666 9.47633
43.1115 20.1451 9.47321
39.117 18.3489 8.86719
40.776 18.9775 8.96267
37.8996 18.3503 9.05171
40.5948 19.2443 9.21397
38.6951 18.4896 9.03034
41.9229 20.2257 9.91544
39.8372 18.9564 9.24431
39.8251 19.5981 9.6687
38.5529 19.0405 9.49754
39.5854 19.4615 9.71377
38.523 19.3959 9.86407
39.4841 19.8243 10.215
39.6619 19.9419 10.0463
36.6563 19.0755 10.0421
37.7581 18.7656 9.55379
38.2918 20.131 10.5992
38.6429 19.7114 10.2782
37.9085 19.656 10.4157
35.9726 18.45 9.66758
35.5873 18.7194 9.93501
37.1767 20.0597 10.6936
36.0979 19.1868 10.424
35.8084 18.7693 10.2833
38.0435 20.3956 11.1135
39.1631 21.1361 11.5022
34.509 18.7337 10.4956
35.8172 19.0513 10.431
34.1923 19.0949 10.6687
35.4735 19.6811 11.1508
38.8745 20.8513 11.3882
38.0864 21.4978 12.1503
35.1293 19.2584 10.6823
35.1373 20.1204 11.4849
34.1923 19.0708 10.8318
35.2851 20.3056 12.107
37.3238 20.8686 11.8973
32.5843 18.6755 10.7679
35.0198 20.7494 12.2219
33.2258 19.5487 11.6616
33.3244 19.121 11.2912
33.4686 19.431 11.4466
33.4543 20.6715 12.6569
34.3468 19.4856 11.4475
36.2925 21.3766 12.6366
31.5857 18.8718 11.4283
33.9674 20.7512 12.5958
32.2986 20.099 12.6378
32.9503 19.5783 11.8506
31.1845 19.5652 12.3176
31.1053 18.9258 11.7417
30.6207 19.0993 12.2195
31.9573 20.0395 12.8871
33.3508 20.1271 12.3573
28.5429 17.9542 11.6039
32.6431 20.1215 12.51
31.0697 19.8037 12.5403
27.6016 18.0104 12.0797
30.462 18.9937 12.1944
30.7078 19.5505 12.642
30.0344 19.6081 13.0715
32.8835 21.0889 13.6792
31.0017 21.0939 14.5081
32.9983 21.1283 13.8486
30.9615 20.0793 13.293
30.4131 20.4097 13.9199
30.1387 19.992 13.3693
29.4254 19.8967 13.6342
31.341 20.9084 14.2341
30.2647 20.0515 13.5795
31.1859 21.783 15.3112
31.2693 21.0734 14.3339
29.8061 20.6364 14.8004
32.2232 21.5253 14.3731
28.8368 20.4464 14.672
29.7818 20.3899 14.2774
28.8029 20.0501 14.1468
29.2328 20.5568 14.7276
29.2534 20.6525 14.734
27.0058 19.4553 14.2288
29.8385 20.848 14.7393
26.8313 19.791 14.885
28.8626 20.4701 14.9328
29.083 20.2266 14.4469
27.2551 20.0807 14.912
28.8615 21.198 15.5598
28.4371 20.636 14.8959
26.3964 19.8118 14.9855
25.8582 19.189 14.6349
28.5143 20.8829 15.341
26.5077 19.8744 15.0944
28.8044 21.5146 16.0863
26.7476 20.5567 15.8395
27.6329 21.0192 16.1538
26.6851 20.1607 15.552
25.9091 19.6438 15.2621
25.4668 19.2136 14.9823
26.8235 20.8784 16.4215
25.3357 19.2473 14.9979
26.2455 20.2651 15.9993
25.7165 19.6274 15.3372
25.0514 19.3862 15.1392
25.794 20.2699 16.0165
25.261 20.468 16.8183
26.1386 20.1868 15.9063
25.504 20.4398 16.6763
26.8141 21.0313 16.7955
24.4958 19.8395 16.3292
26.3774 21.2599 17.2298
23.6146 19.6588 16.487
23.8205 19.2131 15.8475
25.8453 21.2224 17.4813
25.0819 20.6423 17.2094
24.4307 20.0025 16.8526
24.6984 20.674 17.5161
24.4496 20.044 16.8628
24.5076 20.7891 17.9625
25.7569 21.4191 18.1931
21.976 18.125 15.5744
23.9063 20.1615 17.2287
23.8445 20.2239 17.7633
26.4003 22.2264 18.5746
25.1802 21.6027 18.6068
22.5966 19.4844 17.0548
23.1306 20.1833 17.7176
22.6613 19.8171 17.6616
22.9264 19.8705 17.6501
24.3723 21.4593 18.4509
21.866 19.2813 17.4784
23.8111 21.007 18.9142
24.3517 21.8821 19.759
24.2956 21.4004 19.1298
23.3282 20.7225 18.5278
22.7805 20.7978 19.1179
23.2713 21.2284 19.4887
22.4392 20.0987 18.5335
24.474 21.8715 19.5299
23.011 21.0253 19.266
20.8416 19.7181 18.8643
23.1067 20.3859 18.6974
22.3194 20.2301 18.8812
22.1373 20.2038 18.6858
21.8184 20.5809 19.9542
22.1395 19.9669 18.5083
22.6179 20.9064 19.5169
21.5734 20.6415 19.9584
22.0789 20.9086 20.1842
21.5291 19.9501 18.7984
20.7458 19.7447 18.882
21.5256 20.8806 20.2884
21.8353 20.8474 20.1088
20.9288 20.2409 19.9761
21.1046 20.472 20.266
21.6637 20.5749 20.0927
21.7945 20.8454 20.1452
20.2267 19.9025 20.0291
20.1638 19.5442 19.2443
20.6527 20.0769 19.5501
19.9488 19.858 19.9337
20.7092 20.7357 21.1999
19.524 19.0178 19.0552
21.0472 21.6154 22.0971
20.7179 20.5632 20.6046
18.8896 19.3969 20.3707
20.1534 20.2514 20.7676
20.0219 19.7611 19.7195
19.782 20.3917 21.1604
19.3709 19.2787 19.6347
19.1992 19.9718 21.3853
20.674 21.2121 21.7465
19.5807 20.5525 21.882
19.5421 20.1141 21.1075
20.0647 20.7581 21.5423
17.9806 19.116 20.8947
20.3094 20.913 21.8586
18.1565 18.9721 20.3554
19.1041 20.117 21.4056
19.7743 21.4237 23.1951
18.671 19.6931 21.6074
20.005 20.7895 21.8104
19.7388 21.1602 22.7223
17.3592 18.1695 19.6497
18.0593 19.7333 21.5587
17.9101 19.7046 22.2324
18.7246 19.6872 21.0768
18.1682 20.3388 22.9686
18.7368 19.9924 22.0515
19.2433 20.5898 21.7197
17.7016 20.5818 23.781
18.2286 20.0153 22.2435
17.2554 19.3784 22.1796
18.36 20.3017 22.6462
19.0626 21.5927 24.2659
16.7662 19.046 22.3176
17.6426 19.9931 22.9582
17.2204 18.511 20.8819
17.4979 20.3079 23.6902
17.3539 18.8721 21.5639
17.5963 20.3368 23.7166
18.1787 20.8111 23.9967
17.7305 20.1867 23.4008
16.8704 19.5976 23.2543
17.8108 20.1641 23.1533
18.2814 20.7695 24.0503
17.3852 20.1525 23.6086
16.053 18.5765 21.8518
16.2259 19.2125 23.1569
16.4192 19.372 23.2409
16.757 19.7211 23.6377
16.446 18.7877 22.0467
17.176 20.5055 24.2117
15.3236 18.2473 22.6247
16.848 20.1444 24.3709
16.4816 19.1728 22.9008
15.4542 19.0661 23.9536
16.8969 20.0551 24.3034
16.2009 19.4426 23.7187
16.1441 20.08 25.2496
16.4436 19.5627 24.0476
15.7805 18.7649 22.8659
15.5354 18.7399 23.0118
16.5574 20.7613 25.644
16.2285 20.3555 25.5902
15.2491 18.9854 24.22
15.9413 19.4743 24.1162
15.0766 18.8363 24.4574
16.8121 20.9918 26.3761
16.1209 19.3396 23.9272
16.2379 20.6938 26.2418
15.6148 19.9072 25.6116
14.6495 17.8168 22.5722
15.4374 19.9398 25.2202
15.728 20.6155 26.6206
14.8165 18.9945 24.6386
14.6575 18.9598 24.9155
14.8306 18.9493 24.8134
14.8431 19.2051 24.9496
15.5379 20.5957 27.6041
16.1462 20.7538 26.6514
14.7988 19.7983 26.5654
14.2763 18.5628 24.9633
14.8422 19.6884 26.3443
15.2409 20.492 28.249
15.6188 19.8523 25.8263
14.6129 19.2186 25.7816
14.5943 19.3966 26.0671
14.245 18.9429 25.9509
14.5424 19.3269 26.5366
14.9608 19.5902 26.1853
14.8323 19.8915 26.8853
13.8354 18.1465 24.5209
14.3437 20.0842 27.5523
14.3877 19.9224 27.8198
14.8009 20.2458 27.8752
14.6996 20.0089 27.9623
14.3884 19.376 26.6872
15.5623 21.5955 29.3033
14.3511 19.8883 27.9016
14.382 19.9682 28.6603
14.3878 19.3594 26.617
13.0962 18.2436 26.2537
14.1369 19.7407 27.6599
13.1428 18.1765 26.4199
13.5516 18.0513 25.4345
14.843 20.5627 28.1207
13.5701 19.3226 27.8251
13.258 18.8211 27.2038
13.7415 19.3468 27.5647
14.0682 20.3587 28.7572
12.5997 18.6407 27.8525
12.9897 18.2103 26.8442
13.4351 18.9398 26.9957
13.8096 20.0676 29.8759
13.8147 19.161 27.4333
13.7072 19.3477 27.3256
12.8886 19.0449 27.5645
12.7254 18.8216 28.3865
12.5959 18.1007 26.8759
12.8705 18.7121 27.5522
12.4581 18.3408 27.0475
12.2228 18.249 27.5533
12.7681 18.2114 26.8349
11.9971 17.5213 26.7122
13.0918 19.8244 30.3749
13.0395 18.7637 27.7182
13.0664 19.4086 28.327
12.4403 19.467 30.4313
12.4605 18.3313 27.7273
12.5262 18.7579 28.5262
12.2227 18.4106 28.1694
11.8643 17.8114 27.5236
12.329 18.3687 27.7641
11.6159 17.7598 27.7751
12.3591 18.2538 26.8106
11.5115 18.6536 29.7001
11.7168 17.599 27.4801
11.4885 17.9734 28.498
11.9971 18.5659 29.4125
11.1525 17.1541 27.7455
12.729 19.5056 30.185
11.8256 18.5095 30.0039
11.8347 17.8295 28.0726
12.143 18.4767 28.3328
11.3444 18.0394 29.2169
11.9913 18.2715 28.0176
11.1494 18.2709 29.5513
10.8898 17.003 27.5688
11.502 18.091 28.5109
10.8288 16.7983 27.4449
11.6846 18.2464 28.8668
10.6403 17.321 28.4943
11.028 17.0704 26.8806
11.0459 18.3774 30.6402
11.5312 17.8072 27.4969
11.0769 18.9602 32.3146
11.7732 18.3432 29.6534
11.031 17.5605 27.8604
10.5295 17.8607 30.6745
10.8617 17.7328 30.379
11.4722 18.432 30.307
11.3778 18.3776 30.1206
11.7134 19.6641 32.2943
10.285 16.7084 28.2715
10.4438 16.8765 28.0905
10.1082 16.9552 28.7733
11.0533 18.0676 29.5042
10.0976 17.4062 30.4078
10.5857 17.3324 29.5408
11.352 19.4032 32.4571
10.5928 17.6039 30.0383
10.7183 18.3978 32.346
10.967 17.9534 29.8907
10.1944 17.2524 30.3411
11.1234 18.596 31.2255
11.2722 19.4603 33.1441
10.9855 18.3031 31.5748
11.1156 18.5659 30.4625
9.8019 18.11 33.2668
10.2698 17.6068 31.7127
10.7632 17.7506 30.0221
10.4412 17.8194 30.908
10.3982 18.1212 31.5481
10.1184 17.4484 31.1723
10.5906 18.0047 30.1668
10.0612 18.5482 33.5628
10.0642 17.6045 32.0206
10.0093 17.4594 31.5509
10.617 18.2444 31.8559
10.1467 17.7462 31.3052
9.86859 17.6413 32.1093
10.4361 18.1579 31.7637
10.5037 18.9594 33.9242
9.4246 16.3837 29.3419
9.79572 18.146 33.0362
9.64662 16.6177 30.7894
10.4853 18.8207 33.498
9.85985 17.3934 31.3369
9.86228 18.0762 33.6494
10.2476 18.5445 33.6135
10.1 18.0397 31.9969
9.23234 16.6617 30.8744
9.233 16.0907 29.6055
9.48356 17.9008 33.3531
9.40874 16.7173 31.0361
9.26048 16.6522 30.637
9.47052 17.2199 31.655
9.5163 17.5728 32.725
9.77073 17.8501 32.2581
9.58334 18.5507 34.9603
9.27198 16.6706 31.2432
9.29996 16.9577 30.5375
8.30331 16.3464 32.0881
9.48269 17.8638 33.5729
9.08238 17.2151 33.4676
9.01898 16.1706 31.0211
9.42487 17.7059 33.5148
9.71958 18.1904 33.7165
9.19293 17.0477 31.621
8.7481 17.1397 33.4419
9.20287 17.3647 32.8448
8.38189 15.8978 31.7548
8.93981 16.548 31.4125
8.73138 16.8096 32.243
8.82776 17.322 33.9993
8.84194 16.5742 32.4549
8.49255 16.2679 32.3581
8.51979 16.1544 31.6783
8.57711 16.2907 32.3243
9.25229 17.7791 33.5321
8.42613 16.5001 33.2572
8.79103 16.4623 32.4488
9.01664 17.5215 33.78
8.41724 16.6649 34.7233
9.29478 17.2931 33.1144
8.83468 17.3148 33.9413
7.65682 14.7327 30.3432
8.81704 17.7755 36.1395
8.93799 16.9777 33.9306
8.50509 15.8715 31.859
8.7389 17.1343 34.1368
8.6598 16.7858 33.3294
8.3101 16.1903 31.7582
7.82497 15.909 32.2436
7.86548 15.7486 33.0895
8.35778 16.0549 31.8434
8.48801 17.2099 33.7875
8.09582 16.786 34.4802
8.10044 16.3078 33.5956
7.99789 15.6784 32.0102
7.86597 15.9526 33.29
8.16981 16.519 33.611
8.033 16.0114 33.2985
7.99057 15.5162 31.7709
8.13401 16.8014 35.2093
8.58072 17.6592 36.2401
8.52222 17.0561 34.204
7.41502 15.0159 31.6047
7.59512 16.2517 34.8801
8.06926 16.4698 34.5579
7.96209 15.7909 32.8152
8.41031 17.7574 36.7205
8.04982 16.3281 34.4478
7.60418 15.2649 31.5797
7.66984 16.5342 36.0828
7.92363 15.7902 32.6275
7.99843 16.8338 34.51
7.31253 15.7095 34.4737
7.66257 15.7019 33.01
7.93 17.0482 36.6724
7.84533 15.7034 33.3078
7.75022 16.5725 35.0766
7.45126 16.6684 38.747
8.39512 16.4797 34.627
7.79992 16.0207 33.5019
7.31068 15.5136 33.036
7.72578 17.0168 36.5824
7.81125 16.223 34.1089
7.20903 15.6018 33.7813
7.45044 16.6718 37.3199
7.43127 15.3436 33.4842
7.83898 16.6375 35.1353
7.3604 16.1743 36.0397
7.84965 16.8388 36.2121
7.63273 16.2962 34.4406
7.13302 15.9787 35.7717
7.44876 15.6752 33.5313
7.15175 16.5677 37.412
7.35959 15.5253 34.3452
6.83333 14.9263 33.3552
6.74707 13.9527 31.1341
6.73602 14.6689 32.7079
7.20896 15.9239 34.1408
6.95887 15.9577 35.3947
6.8175 15.1003 34.5667
7.08189 16.1068 36.6505
7.23523 15.8281 35.3946
6.77303 15.2273 35.0302
6.96276 15.2014 34.609
6.90114 15.648 36.4078
7.18588 15.6234 35.8074
7.07565 14.8921 31.4437
6.56834 15.7521 36.3516
6.44744 14.085 33.6877
7.32901 16.7623 37.3652
7.00281 16.0204 37.3301
6.77789 14.1097 32.1076
6.97986 16.2 37.0605
7.33895 16.727 37.7281
6.99261 15.9023 36.0875
6.71003 14.9521 34.721
6.62974 15.0992 33.84
6.3272 14.4961 33.5481
6.55993 15.7962 38.1004
7.05175 15.6952 36.5907
6.75442 14.9314 34.7609
6.74441 15.9478 37.8489
6.99536 15.5512 34.7654
6.25784 15.117 38.1164
6.97908 15.6178 36.8026
6.66091 14.5869 33.863
6.67665 15.028 33.4802
6.43876 15.3119 35.074
6.09583 14.6284 36.4606
6.59513 14.7988 34.7244
6.31002 14.8232 35.963
6.58899 14.3583 32.201
6.03089 15.0461 36.3122
6.4136 15.5651 38.1444
6.4897 14.6007 34.9055
6.37778 14.9723 35.6004
6.44788 15.6916 36.1922
5.92323 13.7984 34.9431
6.56803 15.3241 36.2701
6.28186 14.609 35.1232
6.17311 15.1578 37.0457
6.30711 14.7188 35.6025
6.09536 14.1939 35.4124
6.39807 14.9434 34.8279
6.03206 15.1101 39.0914
6.65144 14.8892 34.1238
5.84038 14.9336 39.1033
6.93072 16.2005 37.6573
6.11883 14.6601 36.0768
5.99892 14.2163 35.4151
6.22574 15.0179 36.7022
