# pn-170911/RbIIF-66-RbIIR-1280-1959.psd
# Power spectrum* (dif=0,1,2) (really just |FT|^2)
# NOTE: only the first half! (symmetric)
# weeks: 1280-1959
# 1452 clock-days, 42 excluded
# PSD: 1441
244.289 0.0471782 0.0208446
24355 0.465421 0.0120809
118271 2.45891 0.0122311
24085.9 0.929065 0.0121082
68061.8 5.26409 0.0121001
7631.32 0.712682 0.0119975
7763.56 1.17638 0.0121282
3960.92 0.732798 0.0119275
3668.82 0.926522 0.0119612
2313.03 0.705114 0.0119348
2231.41 0.857167 0.0127063
1573.64 0.7331 0.0116746
1512.47 0.836698 0.0120962
1168.59 0.770333 0.0125131
1028.88 0.798216 0.0123503
901.18 0.804096 0.01247
809.192 0.798438 0.0124713
726.349 0.826607 0.0134819
685.523 0.868314 0.0132239
578.092 0.814824 0.0134054
533.008 0.863676 0.0139412
541.93 0.917728 0.0138244
472.791 0.910446 0.0138087
441.554 0.936432 0.0150965
416.419 0.961445 0.014612
391.452 0.961298 0.0150866
363.468 0.980932 0.0152127
363.408 1.06334 0.0148047
344.557 1.09515 0.015765
301.88 1.0022 0.0164553
311.04 1.17597 0.0169642
295.824 1.16349 0.0172111
294.439 1.24499 0.0181515
278.567 1.24938 0.0181744
277.936 1.33518 0.0196643
242.268 1.24864 0.0188312
237.963 1.26171 0.0194558
242.103 1.40134 0.020112
236.708 1.45938 0.0224118
229.99 1.44375 0.0225098
208.145 1.43612 0.0222681
216.569 1.56654 0.024775
212.627 1.61307 0.0257335
208.207 1.65765 0.0265602
218.996 1.80776 0.0282561
195.504 1.68103 0.0286101
192.882 1.74958 0.0302045
188.46 1.80512 0.0316212
192.874 1.93165 0.0336266
179.225 1.85986 0.0339218
182.696 1.95803 0.034803
186.253 2.09659 0.0379567
176.733 2.06912 0.0375813
176.545 2.14959 0.0401603
182.972 2.30925 0.045467
173.657 2.33834 0.0468431
173.58 2.38027 0.0481048
163.126 2.28178 0.0489563
169.329 2.5029 0.052233
174.402 2.72202 0.055864
162.538 2.56506 0.0541007
161.495 2.66102 0.0581518
157.84 2.71552 0.0627426
157.993 2.79834 0.0651588
147.757 2.75603 0.065065
157.314 3.02671 0.0722817
155.269 2.99678 0.074849
151.505 3.05132 0.0781767
150.445 3.12773 0.0802786
148.564 3.16316 0.0836868
140.538 3.13536 0.0857648
144.309 3.28332 0.089305
135.872 3.18198 0.0914994
141.952 3.40252 0.0996572
139.489 3.43411 0.103674
140.162 3.5638 0.106169
142.796 3.71049 0.11404
139.235 3.72456 0.116376
136.869 3.67775 0.117142
131.843 3.80848 0.127924
128.457 3.76358 0.128256
140.043 4.12846 0.141448
134.135 4.13263 0.143314
133.299 4.15089 0.146005
131.657 4.13592 0.150599
132.434 4.31222 0.16217
137.103 4.58628 0.174829
126.533 4.35567 0.167401
126.831 4.42084 0.177035
133.406 4.85535 0.196394
133.858 4.88502 0.201723
126.572 4.78594 0.200208
126.053 4.90931 0.206453
128.143 5.07003 0.218859
122.242 4.92883 0.217726
119.566 4.92821 0.221466
122.919 5.21331 0.240954
127.491 5.4513 0.256182
123.572 5.47059 0.262148
116.594 5.26594 0.259317
123.592 5.59261 0.280093
113.659 5.26654 0.266095
118.477 5.65566 0.294609
121.784 5.92109 0.309927
114.757 5.61353 0.301152
118.366 5.94088 0.323521
118.032 6.08712 0.340612
115.099 6.05274 0.339183
110.856 5.94112 0.344105
112.765 6.21895 0.368029
117.904 6.42197 0.381617
112.763 6.35337 0.38334
112.873 6.55002 0.401302
116.567 6.85894 0.426519
117.74 7.05801 0.444222
113.282 6.86874 0.444514
112.859 7.0203 0.462551
115.041 7.25701 0.482664
105.946 6.85921 0.468223
105.662 6.8573 0.470718
111.163 7.36478 0.517937
110.759 7.53835 0.538751
104.901 7.10831 0.510901
107.439 7.55328 0.552869
110.597 7.84227 0.58827
104.932 7.59287 0.579575
108.487 7.91474 0.610853
100.356 7.46925 0.58375
103.673 7.84415 0.615504
103.448 7.9266 0.635057
101.507 7.94769 0.648988
100.145 7.91637 0.661862
99.4153 8.08937 0.679702
101.522 8.3119 0.704103
96.3316 7.94455 0.687519
102.581 8.70231 0.762873
96.8801 8.37598 0.741135
100.202 8.68608 0.785962
96.6083 8.53379 0.782634
97.5419 8.64586 0.803371
102.859 9.2698 0.865956
97.4165 8.99172 0.857651
97.6566 9.03091 0.874721
94.6517 8.99886 0.888538
95.9668 9.16357 0.906344
97.8129 9.55121 0.959093
90.9472 8.99353 0.918209
93.9547 9.45574 0.973585
92.6686 9.34585 0.992337
98.9871 10.1504 1.08084
95.944 9.88893 1.05663
93.6013 9.83194 1.07665
86.5751 9.28179 1.01932
96.1613 10.4209 1.17021
89.6208 9.74915 1.10282
89.0042 10.0081 1.1553
90.3006 10.1547 1.1783
86.3433 9.79981 1.14712
93.1939 10.7708 1.28034
97.5054 11.3903 1.37314
92.0375 10.8768 1.33216
85.5712 10.2927 1.28288
86.8407 10.5277 1.30991
95.8008 11.6906 1.46174
91.3617 11.3657 1.45061
91.8821 11.6187 1.5026
86.5617 10.9533 1.44058
87.7238 11.419 1.5125
83.9833 11.0085 1.4674
88.0182 11.613 1.57715
86.5094 11.6591 1.60296
87.0909 11.6737 1.60967
87.254 11.9915 1.68026
87.5276 12.1106 1.7167
88.9227 12.3855 1.77199
83.6366 11.7377 1.70417
81.9258 11.6956 1.70887
83.8113 12.0437 1.79504
82.9363 12.1492 1.81158
77.7241 11.5253 1.76472
81.4297 12.0545 1.84491
79.2839 11.9753 1.8459
81.4131 12.4682 1.9573
80.9603 12.5872 2.00223
77.7588 12.1313 1.94524
85.829 13.7386 2.23348
80.8401 12.9445 2.11528
83.3412 13.4663 2.21111
78.7442 12.9136 2.17909
83.4782 13.8298 2.32128
78.7263 13.0859 2.23231
80.7442 13.7959 2.40321
79.8963 13.3644 2.31031
77.4492 13.2387 2.30726
75.6957 13.2184 2.36459
76.6536 13.4285 2.39834
78.1669 13.8242 2.50336
75.0651 13.3858 2.45247
78.5877 14.3101 2.63986
74.0767 13.4873 2.52107
75.0033 13.8025 2.61369
75.5484 14.1332 2.67733
76.3651 14.3212 2.76814
74.0202 14.1497 2.7517
73.5977 13.9911 2.70825
73.3399 14.2632 2.8313
76.2859 14.9239 2.97459
71.5646 14.1735 2.87508
75.8652 15.1887 3.07411
70.3254 14.2261 2.92903
72.0932 14.5592 3.03163
72.7773 14.8883 3.08519
70.9293 14.8605 3.15489
68.3487 14.3167 3.06638
69.1749 14.7114 3.17428
68.2566 14.5574 3.16018
70.3798 15.2317 3.31029
69.4224 15.0483 3.3124
71.4268 15.6045 3.47737
68.6274 15.1932 3.40182
67.2411 15.0257 3.4443
66.5117 15.0416 3.46891
70.3424 15.7903 3.62346
65.8671 15.0918 3.52426
67.581 15.7276 3.69805
66.8077 15.5859 3.6597
64.5041 15.0962 3.60623
63.9727 15.2535 3.69213
65.4817 15.6212 3.80777
66.6181 16.0689 3.93617
63.9989 15.4233 3.80867
62.1883 15.3734 3.84139
65.4788 16.1683 4.05941
66.0277 16.3916 4.1472
63.111 15.9866 4.11173
63.364 16.1625 4.17683
62.4338 15.9094 4.10908
63.2473 16.3998 4.33937
60.9414 15.7272 4.15988
63.6759 16.9104 4.54196
64.3213 17.0213 4.60102
62.1526 16.3346 4.3989
62.9162 16.8654 4.61978
59.1833 16.2353 4.50326
61.2047 16.7049 4.63839
63.3429 17.5219 4.91492
56.8716 15.8403 4.48916
59.2039 16.3323 4.59242
62.947 17.8375 5.10217
59.7283 16.8562 4.8546
58.7045 17.0928 5.04214
60.089 17.5318 5.21811
61.7699 17.8175 5.21759
60.3083 17.7158 5.26142
58.0707 17.2055 5.18583
59.6223 17.5404 5.25966
58.145 17.5199 5.32414
55.3365 16.7716 5.15781
58.1308 17.7131 5.49796
57.849 17.8832 5.57907
56.2723 17.3033 5.40963
57.6623 18.0144 5.6812
57.5883 18.1012 5.75186
52.8513 16.8958 5.4587
54.7441 17.3377 5.57065
54.984 17.7507 5.79059
54.442 17.8388 5.88507
54.2407 17.8218 5.85892
53.8313 17.8025 5.99362
54.5323 17.7435 5.89308
52.5742 17.5657 5.97603
55.7344 18.7432 6.34098
51.4556 17.4992 6.07765
54.6106 18.5516 6.3861
52.7371 18.071 6.28138
51.7764 17.7332 6.17441
51.4006 17.945 6.32863
51.3657 17.7831 6.26437
49.3939 17.2424 6.16349
53.0636 18.9284 6.80915
50.2361 17.9336 6.49403
53.3854 19.1642 6.93672
50.59 18.525 6.83912
49.3677 18.1758 6.78534
49.0732 17.8474 6.63285
50.5535 18.6387 6.98758
50.7819 18.8358 7.12969
52.7822 19.852 7.54315
52.9371 19.9404 7.5547
47.8696 18.3387 7.13097
49.1287 18.7952 7.32337
50.2289 19.1765 7.39312
46.6831 18.4461 7.36659
48.6218 18.9881 7.52376
48.0349 18.8579 7.58116
46.4089 18.2202 7.22774
45.4477 18.1197 7.28212
47.1935 18.9875 7.71932
46.1766 18.8223 7.73452
45.3833 18.3976 7.62456
47.6502 19.3288 8.017
47.0473 19.1851 7.895
46.4156 19.2844 8.1188
45.5479 18.8433 7.92234
45.3533 19.1153 8.08532
43.9156 18.5899 7.93589
45.7515 19.4867 8.35942
45.276 19.3768 8.4434
47.2468 20.5291 8.99163
46.6664 20.2813 8.87899
46.2149 20.0986 8.90925
45.9908 19.903 8.70282
44.0954 19.5277 8.82573
45.9266 20.3978 9.17728
44.5363 19.7718 8.89094
44.2057 19.8088 8.94722
40.2119 18.2209 8.4691
43.1709 19.5216 9.03272
43.7328 19.7928 9.03502
42.1502 19.37 8.93743
40.7109 18.873 8.87727
44.3341 20.767 9.77685
42.8327 20.1404 9.54772
41.5806 19.6379 9.47348
42.6013 20.0352 9.49377
39.0298 18.9413 9.32475
41.8942 20.011 9.64393
40.0637 19.3557 9.5025
42.8866 20.7898 10.1236
41.0876 20.1039 9.97463
40.998 20.0782 9.93781
40.1735 19.9679 10.0179
40.4415 19.9646 10.0701
41.079 20.4979 10.3953
40.205 20.0625 10.2097
40.3358 20.2945 10.2705
38.9285 20.1816 10.5161
38.5922 19.5059 9.99063
40.5209 20.9245 10.843
38.4555 20.0348 10.5969
39.6756 20.6785 10.9436
37.2289 19.3145 10.2228
36.7008 19.1259 10.171
38.6884 20.4976 10.8409
36.2608 19.2945 10.4549
37.2847 19.794 10.8168
39.8817 21.3311 11.5201
37.8265 20.355 11.0554
37.5313 20.5948 11.519
37.8993 20.5358 11.3391
36.3586 20.0017 11.1889
38.0643 20.8125 11.55
39.187 21.571 11.9303
36.8787 20.7639 11.8484
37.6804 20.796 11.6098
35.8416 20.3085 11.6083
36.2726 20.5211 11.6737
36.2902 21.1063 12.4956
38.2765 21.543 12.3019
32.855 19.05 11.2881
35.1496 20.18 11.7294
34.562 19.9219 11.6808
35.3784 20.7916 12.2915
35.0635 20.4912 12.1575
34.5894 20.8477 12.649
34.5041 19.9289 11.7659
35.447 21.3484 12.7638
32.7664 19.8186 12.0858
32.8158 19.9133 12.269
34.3025 20.7886 12.7853
34.4042 20.5612 12.4492
33.8207 21.001 12.9896
32.7711 20.4421 12.8405
30.2852 18.858 12.1288
34.2943 21.3968 13.6238
33.4456 20.7467 13.0411
32.0145 20.2662 13.0724
32.7205 20.3619 12.8322
31.6058 20.197 13.026
31.9524 20.3761 13.1982
31.8011 20.3176 13.1742
30.8262 19.6121 12.7425
29.7743 19.3973 12.9464
33.5703 21.9138 14.4132
31.1946 20.6177 13.7528
32.0389 20.8861 13.8389
30.9571 20.5066 13.8487
32.2962 21.221 14.1556
30.9421 20.4206 13.6491
30.5876 20.6028 14.0082
31.2444 21.2736 14.6115
31.5793 21.0403 14.3515
30.6698 20.8408 14.3851
29.7444 20.332 14.0193
29.8932 20.7748 14.7576
32.2014 21.7389 14.7236
29.9305 20.9487 14.7676
29.4754 20.4689 14.3511
28.8996 20.439 14.4881
28.6325 20.1639 14.3469
28.0419 19.9434 14.4054
28.5641 20.4824 14.8569
28.6773 20.1867 14.4973
28.7017 20.9243 15.4114
28.6353 20.496 15.0053
29.2434 20.9066 15.1834
28.9394 21.2199 15.7593
29.6248 21.5324 15.7704
29.2507 21.3515 15.614
26.8572 20.1935 15.4543
27.3704 19.953 14.8771
28.2443 20.7245 15.3103
26.1247 19.5455 14.7376
26.8562 20.2843 15.5055
27.2295 20.4317 15.5851
27.0723 20.462 15.5342
26.9753 20.5301 15.8978
26.9569 20.4938 15.8934
26.7402 20.2721 15.6176
26.955 20.938 16.3867
27.0129 20.9664 16.4949
27.3131 21.3123 16.8534
27.7799 21.4455 16.8118
25.8631 19.8981 15.6194
25.6261 20.2792 16.2142
25.9567 20.589 16.5068
27.0127 21.3887 17.1012
26.2751 20.9326 16.9963
27.0954 21.5863 17.4425
25.7683 20.6271 16.7363
25.1825 20.3664 16.6714
25.4139 20.7758 17.101
25.293 20.8053 17.2429
26.2635 21.5903 17.6413
23.7201 19.6475 16.6013
24.9041 20.6304 17.3874
26.4708 22.0598 18.5352
25.4383 21.1742 17.786
24.7055 20.711 17.7295
25.2392 20.7596 17.3107
24.3334 20.8132 18.0392
25.3829 21.4937 18.4539
24.8085 20.9295 17.9835
25.5371 21.8768 18.8871
25.3869 21.7151 18.801
23.5828 20.3698 17.9097
24.4749 21.204 18.636
24.2216 21.0394 18.4785
24.1752 21.1909 18.7665
24.6573 21.5876 18.9238
23.7277 20.8909 18.5749
24.2687 21.5447 19.3314
23.7619 20.9754 18.6962
24.0138 21.6452 19.733
22.9926 20.1706 17.9738
22.9595 20.8352 19.0179
22.7857 20.6633 19.0607
24.0655 21.3362 19.2693
23.1489 20.9308 19.109
22.5145 20.4693 18.8597
22.9319 21.2289 19.9564
23.6934 21.2925 19.5394
22.6381 20.624 19.1086
22.4234 20.7218 19.3091
22.6416 21.1153 20.0923
22.5625 20.8605 19.424
22.3399 21.1474 20.0861
22.1645 21.2685 20.6089
22.0791 20.5015 19.617
22.3344 21.0701 20.126
22.5915 21.3831 20.3241
22.3399 21.399 20.5893
21.8261 20.8084 20.0582
21.0377 20.7492 20.8405
23.126 21.9808 21.149
21.2598 20.389 20.1041
21.9821 21.2133 20.5489
21.1292 21.1894 21.4254
21.138 20.4614 20.2874
20.7073 20.2805 20.0346
20.584 20.5766 20.7003
21.8036 21.9907 22.2454
20.6503 20.2359 20.3348
21.8029 22.1332 22.5434
21.2929 21.1966 21.6307
20.7072 20.9027 21.3995
20.7626 20.7478 21.0486
20.4162 20.4452 20.5396
19.7144 20.4249 21.4417
20.4542 20.8262 21.5345
20.3962 21.0221 21.9084
20.7764 21.3958 22.0577
20.1843 21.3756 22.7795
20.4018 21.044 22.1322
21.1598 21.8543 22.5988
19.9074 21.2947 23.1167
20.9705 21.7069 22.9331
19.5481 20.4394 21.8391
19.3456 20.1261 21.1857
19.4225 20.8433 22.3475
19.0624 20.4806 22.2782
19.5381 20.644 21.9158
18.8222 20.4915 22.6056
19.3112 20.6216 22.2067
18.4798 20.0525 22.0279
18.9946 21.1555 24.0004
19.7035 20.7305 22.1157
17.9734 19.8909 22.5173
18.944 20.445 22.6197
19.9384 21.6476 23.5058
19.4818 22.0389 24.8554
19.3164 21.1248 23.3671
18.4499 20.8183 23.7519
18.8682 20.6475 23.1049
18.8795 21.4643 24.3398
17.9079 20.0274 22.8283
17.9388 20.2251 22.9867
17.7775 19.7153 22.5542
18.2683 20.6984 23.7756
17.9555 20.0251 22.5917
17.2159 20.063 23.753
18.9128 21.4139 24.1941
17.3708 20.1807 23.7704
17.8007 20.8704 24.4337
17.0447 19.8487 23.7696
18.6217 21.0728 24.1957
17.6251 20.3339 23.8802
16.9475 19.6235 22.9699
17.0977 20.4921 24.7036
17.6345 20.7883 24.7918
16.8579 19.4472 23.0856
15.8759 18.4923 22.2884
16.9654 20.0675 23.6193
16.2926 19.6747 24.1331
17.8951 21.3526 25.3555
16.645 20.2056 24.8577
17.4979 21.3584 26.1779
17.1061 20.3316 24.5963
16.8842 20.6389 25.5737
17.2514 21.3636 26.6943
16.3934 19.4907 24.0568
16.1615 19.8712 24.7379
16.3886 19.8232 24.7754
17.1034 20.7966 25.393
16.7236 20.6137 25.2459
15.5601 19.6353 24.8929
15.5292 19.3099 24.6397
15.7851 19.6147 24.948
16.484 20.3673 25.5616
16.1065 19.7933 24.4644
15.5561 19.8579 25.4394
16.0547 20.5084 26.1215
14.9935 18.8085 24.0878
14.9889 19.3519 25.1216
15.3463 19.7101 25.4575
15.3512 19.843 25.6757
14.3211 18.5092 24.5399
15.1728 19.4191 25.1964
15.5049 20.2271 26.2429
15.0076 19.5869 25.9206
15.6193 20.1227 25.9717
14.915 19.8259 26.5102
14.8014 19.0836 25.3917
14.8601 19.6634 25.9478
14.8835 20.0571 27.1713
15.1835 19.8717 26.4379
14.8451 19.7808 26.5413
14.2688 18.9484 25.635
14.294 19.1346 25.9913
13.8742 18.3375 25.4195
15.5509 20.6949 27.595
14.8488 20.0448 27.241
14.4887 19.4149 26.4602
14.333 19.4628 26.4662
14.0451 19.4592 27.2527
14.6698 20.0625 27.9378
14.7027 19.9919 27.712
15.1866 20.8215 29.0927
16.0784 22.094 30.0712
14.834 20.4667 28.4656
14.3855 19.7854 27.8649
14.3233 19.8145 27.5681
13.4876 18.8841 27.2027
14.1264 19.4593 27.142
13.2913 18.7082 27.0829
13.7776 18.8807 26.9275
14.7728 20.3569 27.8495
13.2505 18.7319 26.9786
13.3939 19.1589 27.8485
14.1748 20.3383 29.3779
13.6769 19.1518 27.1291
13.0785 18.791 27.3849
13.3532 19.096 27.7574
12.8614 18.0619 25.9683
13.1678 19.3988 28.9073
13.3996 19.0534 27.9121
13.55 19.3345 27.7681
13.1274 19.0924 27.6687
12.934 19.1529 28.5753
12.6344 18.2907 27.4105
13.3725 19.3599 28.207
12.8573 18.8297 27.9302
13.1095 19.5966 29.3343
12.9744 19.067 28.7194
12.8813 19.0175 28.9419
13.2366 19.629 29.6522
12.8425 18.7029 28.159
13.4304 20.1059 29.648
12.6525 19.2096 29.6835
12.5745 18.9513 29.4927
12.9373 18.7606 28.0324
12.399 18.8094 28.6264
12.0361 17.8502 27.1784
12.3857 19.0668 29.2973
11.9296 18.2756 28.8556
12.3348 17.8576 26.5412
11.7998 18.2543 27.9585
11.9859 18.9565 29.4827
11.8196 18.4446 29.6258
12.2584 18.6297 29.0622
11.6395 17.9786 28.815
12.7471 19.8436 30.9688
12.3818 19.2203 30.3642
12.0271 18.3709 29.0429
12.5124 19.4679 30.2632
11.9489 18.9966 30.5211
12.2474 18.7814 29.0221
11.4416 18.5471 29.8107
11.0548 17.2051 27.6077
11.4011 18.2851 29.5456
11.5966 18.2669 29.5777
11.8899 19.0847 30.9323
11.6769 18.332 29.0481
10.9416 17.6048 28.9061
11.6802 18.9797 30.8945
11.7712 18.8034 30.0863
11.7255 19.4397 32.439
12.0524 18.7603 29.9486
11.4244 18.8217 30.2027
10.4765 17.3487 29.6244
10.9104 17.5249 29.263
11.4589 19.1344 32.1521
11.781 19.1505 31.8333
11.5241 18.741 30.404
10.8745 18.0033 30.2841
10.8983 17.9398 30.0681
11.0589 18.2474 30.1168
10.7638 18.105 30.4641
10.9249 18.4974 31.4745
10.9155 18.3596 31.1149
10.876 18.562 32.0151
10.6963 17.4972 30.3731
11.0626 18.4213 31.2723
11.4057 19.2055 31.8702
10.3062 17.6208 30.828
11.2073 18.8216 31.5423
10.9635 19.0173 32.9852
10.7354 18.0856 31.4016
11.2667 19.3208 32.7486
10.9185 19.2708 33.728
10.263 17.8614 32.4739
10.8203 17.6629 29.9813
10.4465 18.0837 31.3932
10.2506 17.7709 31.2303
10.3238 17.9463 31.755
10.6263 18.397 31.6834
10.3617 18.6751 33.6622
10.7335 18.706 33.1413
9.9322 17.2068 31.1867
10.3557 18.0589 32.317
10.414 17.8702 31.5018
10.1311 18.0814 32.4862
10.5788 18.4257 32.5747
10.7145 19.1187 33.8467
10.3002 18.2625 32.5204
9.93934 18.1669 33.0936
9.65835 17.0275 31.6914
10.4012 18.3397 32.1129
9.57878 17.7983 33.549
10.4674 18.5298 33.5593
10.1805 18.4444 33.7501
10.3188 18.4289 32.7958
9.77542 17.9925 33.3242
9.95427 17.609 31.6542
9.37954 17.4384 32.5168
9.30563 16.8032 31.4331
9.41969 16.8021 30.8557
9.78824 18.4766 34.2381
9.39294 16.8981 31.647
9.95255 18.3867 33.5643
9.49439 18.0241 34.605
9.62854 17.1623 31.4133
9.09192 16.5888 30.492
8.81995 17.1234 33.5339
9.43183 17.2909 31.9656
9.02434 17.3349 33.8114
9.573 17.6095 33.377
9.50608 17.3695 32.1258
9.11369 17.4561 33.1266
9.1798 17.8012 34.4947
9.25321 17.092 32.7573
9.12144 16.9489 32.1403
8.98619 17.1807 33.7275
9.72904 18.6014 35.4375
9.13375 16.8807 32.1084
9.29286 18.0681 34.1452
8.5663 16.3145 32.0061
8.65528 17.0366 33.7602
8.81853 17.0464 33.5495
8.69969 16.4518 32.3261
8.90582 17.1685 33.5402
8.86141 17.203 34.231
8.8856 16.658 32.1705
8.85424 17.8641 35.7861
9.04053 17.5559 35.2473
9.07619 17.1588 33.8542
9.02519 17.3569 33.439
8.21768 16.1625 32.4188
8.69689 17.2134 34.3763
8.70148 17.1066 34.256
8.68903 17.0638 34.2029
8.67137 17.0107 34.847
9.02411 17.4548 34.5834
8.70057 16.8576 32.5924
8.22674 16.8674 33.5944
7.85311 16.1089 34.5102
8.68283 16.6436 33.1427
8.7416 17.7011 34.9204
8.38461 17.1471 34.8785
8.15506 16.4718 33.8149
8.28547 16.5891 33.0676
7.88139 16.4795 35.3021
8.6688 17.1011 34.1424
7.9013 15.968 33.1034
8.09538 16.5699 34.4525
8.02389 16.5317 34.8818
8.28342 16.6746 34.1174
8.26809 17.128 35.5284
7.88083 16.0362 34.2042
8.10489 16.4135 34.186
8.23427 16.832 34.7424
8.12098 16.659 34.3272
7.97264 16.4292 34.3843
8.00268 16.5124 34.841
8.06707 16.4132 33.4909
7.51545 15.9781 34.6685
7.92786 16.0623 33.5993
7.90922 16.7417 34.8911
7.58637 16.0241 34.1119
7.88818 16.7609 35.2834
7.79647 16.463 35.2846
7.52571 15.7077 34.1744
7.7911 16.3167 34.1996
7.22723 15.6787 35.6676
8.25682 16.7796 34.8481
7.79115 16.8385 36.0009
7.40557 15.334 32.759
7.41424 16.132 34.679
7.42532 15.8807 34.5222
7.269 15.444 33.9612
7.72366 16.6694 35.74
7.43566 16.2108 36.0454
7.74401 16.2541 34.9621
7.4711 16.3287 35.6063
7.39737 15.993 35.2179
7.51966 16.3833 35.9702
7.42971 15.9607 35.5462
7.50624 15.8459 34.2738
7.17486 16.0729 36.108
7.39068 15.5791 34.0525
7.14574 16.0079 35.7256
6.98871 14.9526 33.8235
7.31004 15.8927 34.9112
7.43245 16.4453 35.8134
7.23539 15.8783 34.0388
6.61751 14.9566 34.3966
6.92174 15.6385 35.4684
7.06825 15.9635 37.1946
7.54117 16.6623 36.8607
6.9865 15.2159 34.7225
7.00608 15.7419 36.6969
7.49972 16.2052 35.5425
6.80196 14.9809 33.6964
6.92078 15.8294 36.1468
6.76561 14.6694 33.2997
6.96359 15.814 35.4925
6.78326 15.3809 35.39
6.65396 14.7546 33.835
6.95169 16.3044 37.86
7.38258 16.5245 36.598
6.75553 15.6446 35.9042
6.60487 14.7801 34.58
6.89582 16.0067 36.1163
6.58875 14.834 33.8924
6.70028 16.0708 38.2717
7.00312 15.8307 36.0913
6.40946 14.8636 35.4997
6.7407 15.8924 38.7921
7.37011 16.1911 35.687
6.48066 15.4944 37.7955
6.81807 15.4793 36.3908
6.61533 14.8638 34.8468
6.786 15.9585 36.8515
6.62964 15.2415 35.2851
6.22677 14.8456 35.8401
6.32799 14.667 35.656
6.62032 15.275 36.5437
6.74042 15.2672 34.2964
6.02988 14.648 35.6691
6.42036 15.2669 36.5141
6.17051 14.0772 33.4782
6.02074 14.4821 35.891
6.52589 15.4205 36.0094
6.24457 14.5775 34.9232
6.36544 15.248 36.6231
6.18875 14.5842 35.6508
6.46638 15.6333 38.115
6.57321 15.537 37.1754
6.28501 14.5894 34.7078
6.18462 15.2925 37.1169
6.41395 15.8426 39.7235
6.688 15.7436 37.851
6.33198 15.5609 39.7334
6.7704 15.7408 38.2825
6.61615 15.9515 38.8198
6.39453 14.9697 36.7113
