# pn-170911/RbIIR-57-RbIIF-1280-1959.psd
# Power spectrum* (dif=0,1,2) (really just |FT|^2)
# NOTE: only the first half! (symmetric)
# weeks: 1280-1959
# 2386 clock-days, 160 excluded
# PSD: 1441
892.512 0.181716 0.0318617
41601.3 0.699313 0.0526066
248525 6.14994 0.0545577
24726.3 0.827138 0.0501127
95237.5 8.17476 0.0565337
8264.5 0.709633 0.053833
8613.53 1.50654 0.0535607
4159.38 0.704465 0.0510405
5340.89 1.48997 0.0497076
2535.95 0.657146 0.053279
2348.46 0.923644 0.0531931
1671.34 0.726882 0.0504952
1821.89 0.951881 0.0529713
1338.1 0.745974 0.0526471
1156.86 0.827827 0.0521978
1034.9 0.796026 0.0540842
984.673 0.97033 0.052699
800.312 0.863058 0.0511571
805.35 0.927164 0.054402
699.693 0.883213 0.0519924
682.893 0.992743 0.0523768
605.744 0.993328 0.0534155
567.12 1.03452 0.0580872
525.182 1.03994 0.0548515
504.769 1.12591 0.0562595
467.952 1.14208 0.0543493
456.562 1.18216 0.055502
446.764 1.21006 0.0547474
437.639 1.36602 0.0593615
384.671 1.31223 0.0568908
398.889 1.4809 0.0605742
391.453 1.45715 0.060945
395.209 1.56373 0.0604938
347.443 1.53517 0.0583882
341.291 1.60142 0.0618957
362.998 1.82255 0.0631014
347.054 1.90164 0.0650612
327.493 1.86481 0.0640105
326.221 1.95786 0.0649963
323.5 2.00888 0.0663403
333.644 2.20934 0.0708955
295.788 2.10391 0.0683843
298.592 2.19804 0.0696411
304.677 2.37397 0.0739582
293.367 2.38323 0.0710588
290.841 2.52533 0.0751989
274.495 2.47058 0.079754
286.244 2.69694 0.0812834
288.885 2.85996 0.0856046
267.31 2.72183 0.0846103
270.009 2.90984 0.087727
263.402 2.91133 0.085707
263.398 3.00128 0.0960748
266.954 3.18716 0.0952447
254.909 3.2968 0.0966269
263.085 3.48457 0.103194
258.896 3.4749 0.106276
257.53 3.61288 0.105728
252.724 3.76415 0.113951
245.294 3.72739 0.112398
254.46 3.88796 0.119333
240.194 3.9081 0.125611
249.565 4.29107 0.131661
228.589 3.99641 0.13042
235.403 4.21229 0.135859
239.802 4.57709 0.145844
224.665 4.34909 0.144432
231.973 4.67599 0.15322
224.464 4.59325 0.158247
234.339 4.89036 0.166823
224.005 4.84887 0.163982
218.039 5.00507 0.169502
212.854 4.93962 0.17474
208.318 4.87454 0.173601
228.704 5.63171 0.196328
210.481 5.29887 0.193162
209.271 5.42349 0.202251
205.368 5.39241 0.20473
215.567 5.82245 0.220341
202.78 5.66974 0.223497
204.99 5.84438 0.23081
202.688 5.95243 0.236317
196.648 6.03829 0.250106
199.919 6.21696 0.259363
197.186 6.32147 0.263363
192.576 6.38676 0.268931
189.006 6.3238 0.279095
197.065 6.71586 0.288414
182.988 6.37905 0.290846
188.907 6.72555 0.308541
184.849 6.7962 0.310822
184.259 6.96822 0.314609
179.868 6.99692 0.336261
171.164 6.72438 0.325519
182.109 7.22605 0.351444
172.344 7.07071 0.348198
227.203 9.63268 0.468216
172.374 7.26075 0.364675
167.502 7.36447 0.384592
163.76 7.21544 0.390163
168.999 7.65641 0.410508
178.353 8.33902 0.44984
173.177 8.14029 0.460265
172.697 8.28579 0.466415
156.826 7.67408 0.447184
174.593 8.72115 0.501035
157.235 7.938 0.471274
160.383 8.29007 0.496876
163.305 8.64563 0.522944
166.405 9.07878 0.561636
159.799 8.70608 0.540179
152.845 8.558 0.548006
153.1 8.72741 0.556548
159.062 9.49329 0.617754
170.175 10.1676 0.683247
160.793 9.74706 0.659932
151.721 9.29861 0.631269
143.305 8.96503 0.627427
147.438 9.43133 0.67702
143.874 9.34111 0.65816
148 9.72743 0.709667
146.259 9.81605 0.721485
142.603 9.74366 0.732353
147.841 10.3013 0.780583
137.913 9.6204 0.739745
137.512 9.90139 0.780592
149.711 10.8643 0.853975
137.375 10.0967 0.806461
138.609 10.4587 0.851313
137.03 10.4524 0.856883
136.363 10.5273 0.889871
143.188 11.3424 0.973646
146.761 11.6639 0.99933
137.669 11.0448 0.965326
135.415 10.9778 0.969811
134.381 11.2896 1.02871
133.701 11.2555 1.03109
130.198 11.225 1.02829
130.317 11.2443 1.05246
125.735 11.1394 1.06755
132.223 11.932 1.14232
127.869 11.6368 1.13089
123.747 11.3985 1.13178
128.779 12.2926 1.22683
136.041 13.0633 1.30775
131.715 12.6036 1.27859
121.82 11.7738 1.22946
121.983 12.0964 1.28088
127.018 12.9315 1.38716
120.541 12.2395 1.31745
123.69 12.7927 1.39642
124.359 12.755 1.41056
118.327 12.529 1.41428
125.801 13.444 1.52306
118.266 12.8595 1.48256
122.272 13.3036 1.54142
123.998 13.8034 1.62768
114.892 13.0177 1.54593
118.805 13.6594 1.63836
111.39 12.8873 1.58707
110.191 12.9527 1.59373
119.007 14.3219 1.79381
116.762 13.8567 1.73358
113.349 13.7929 1.75813
117.409 14.4685 1.8785
112.423 13.924 1.81012
112.6 14.2283 1.88927
112.533 14.3951 1.92087
113.656 14.6971 1.99657
108.546 14.1572 1.92998
108.268 14.4637 2.0022
112.369 15.03 2.096
109.659 15.0256 2.13314
107.102 14.6276 2.09345
114.035 15.7872 2.26499
114.501 15.9695 2.30761
105.326 15.0633 2.21571
105.801 15.1728 2.26351
104.138 15.2929 2.32378
103.286 15.0303 2.2847
106.123 15.8056 2.43585
108.093 16.0642 2.49166
101.868 15.4091 2.42874
107.234 16.4776 2.63593
105.678 16.2194 2.57064
103.577 16.2277 2.656
103.332 16.3473 2.65282
102.397 15.9415 2.63025
100.168 16.3491 2.76878
99.8592 16.0945 2.72078
99.6722 16.4998 2.8084
103.092 17.1112 2.96121
119.528 20.1572 3.49038
99.9587 16.7113 2.90222
93.4724 16.1014 2.87406
96.8597 17.06 3.10124
98.4628 17.2699 3.12613
93.1436 16.4263 3.00305
96.4481 17.2267 3.19005
93.2093 16.8519 3.17306
92.7918 16.9558 3.18966
95.4426 17.6549 3.37732
92.846 17.4582 3.39191
90.3073 17.038 3.32263
100.864 19.2587 3.77539
94.6771 18.1886 3.61156
93.0623 18.0405 3.605
92.4286 17.9619 3.60667
91.6537 18.2899 3.73453
89.667 17.9762 3.72899
92.4326 18.5702 3.84192
90.2347 18.3771 3.88331
88.3855 18.1026 3.82645
88.3654 18.4117 3.912
85.3203 18.0374 3.9128
89.4286 19.1648 4.20827
93.6949 19.8392 4.32015
91.3823 19.5007 4.2789
86.8188 19.0772 4.28458
87.7454 19.2941 4.36283
88.0745 19.4765 4.42563
82.923 18.6623 4.28592
85.8709 19.4655 4.52504
84.5244 19.1035 4.44174
83.366 19.0499 4.47082
86.527 19.9856 4.70966
80.8591 18.6502 4.4554
87.6325 20.812 5.01367
88.9749 21.0252 5.05856
81.1645 19.4384 4.75192
81.8583 19.8943 4.91359
80.6877 19.7727 4.93039
79.2368 19.6573 4.95561
82.6231 20.5732 5.24595
81.9274 20.616 5.28437
79.1168 20.0313 5.17605
82.9469 20.7936 5.34393
78.4119 20.1037 5.24676
77.7451 20.1229 5.34308
77.0327 20.2118 5.451
80.2358 21.1159 5.66905
78.7029 21.0064 5.7075
77.0627 20.4035 5.54085
77.7694 20.9651 5.73822
76.1981 20.6177 5.7748
79.2123 21.6834 6.02415
76.0382 21.0622 5.9877
77.3487 21.4392 6.09265
79.1454 22.1723 6.32204
76.5504 21.5267 6.18653
73.7672 21.1313 6.11346
72.4187 20.9701 6.16781
72.4345 21.1613 6.29682
72.7938 21.1225 6.32778
73.248 21.315 6.28304
71.3864 21.284 6.41352
75.5854 22.3916 6.81738
74.6929 22.6956 6.97083
71.5324 21.6623 6.68649
68.513 21.3811 6.72879
68.8674 21.368 6.69346
71.0748 21.8713 6.90471
70.3768 22.0299 7.08364
73.3871 23.2348 7.49445
73.3504 23.2078 7.42363
70.2685 22.2811 7.16281
67.4956 21.8881 7.18579
69.6231 22.8068 7.59006
68.9807 22.5702 7.54192
69.9669 23.1192 7.75877
68.7243 22.8761 7.76095
68.5891 22.7162 7.67241
66.8053 22.4429 7.72272
67.635 22.9505 7.9564
65.9908 22.3856 7.77072
68.022 23.1828 8.07527
69.8917 24.2971 8.58754
68.8937 23.6731 8.31034
66.8826 23.4613 8.3437
64.1566 22.7878 8.25456
66.9648 23.7111 8.56148
64.5456 23.0187 8.45843
66.8833 23.7071 8.63212
63.149 23.0529 8.57125
63.6823 23.0929 8.5856
62.7433 23.0645 8.6384
63.6606 23.6704 8.996
64.1051 23.7369 9.04397
76.9689 28.5316 10.6423
63.357 24.0437 9.25697
61.4922 23.4038 9.1731
61.7558 23.41 9.13837
60.6881 23.292 9.17901
61.173 23.8355 9.39266
61.8363 23.9982 9.49117
58.9929 23.1027 9.23462
60.7048 24.1691 9.72691
60.1724 24.3298 10.0019
61.0224 24.3396 9.90723
60.2729 24.604 10.2279
59.573 24.1391 9.96109
57.3723 23.4776 9.8092
57.1864 23.5141 9.81987
59.0021 24.3136 10.24
57.4965 23.9995 10.1343
57.6891 24.4972 10.5456
57.5593 24.2229 10.4526
58.1026 24.4424 10.5429
57.7706 24.7456 10.7812
56.9465 24.3683 10.7234
55.1996 23.8183 10.5586
57.4443 25.0362 11.144
59.1908 25.6493 11.2913
56.4412 25.1082 11.3581
55.2368 24.3973 11.0175
56.2008 25.2061 11.478
54.1807 24.2171 11.0014
55.3351 25.2366 11.6035
54.4389 24.8011 11.5928
56.8128 26.096 12.1423
53.491 24.4041 11.5174
55.9354 25.8617 12.1442
56.3547 26.1428 12.2728
55.5455 25.7472 12.1692
54.6468 26.1158 12.6526
51.1412 23.865 11.3743
52.9488 25.522 12.4029
50.6995 24.5917 12.1622
53.9713 26.0873 12.9012
53.9668 26.1516 12.9597
53.7771 26.3374 13.0377
51.9925 25.4874 12.8102
52.5672 25.7775 12.9451
52.293 25.6412 12.7647
51.1072 25.8165 13.2174
52.1631 26.0636 13.2892
50.7922 25.3943 12.8997
49.4839 25.6003 13.4022
51.3088 26.1053 13.6201
50.1124 25.8265 13.6646
50.7062 25.9339 13.5285
50.9415 26.3097 13.7603
47.4401 25.0618 13.2993
50.3496 26.6418 14.1223
48.5035 25.5447 13.6363
48.8548 26.334 14.3882
47.0574 25.2467 13.8682
47.9396 25.3287 13.7402
48.7312 26.4348 14.5227
47.1691 25.7325 14.1439
47.1887 25.9511 14.5257
47.535 25.9768 14.5117
47.1712 26.1956 14.7132
49.519 27.4057 15.425
47.9938 26.658 15.1478
44.3435 24.5715 14.0525
46.7425 26.4797 15.2255
46.9975 26.3794 15.1961
48.1544 27.5148 15.8341
45.0806 25.7555 14.9587
45.5463 26.2706 15.4493
46.9984 27.1191 15.8926
45.1853 26.2624 15.5806
45.1817 26.4065 15.5426
44.516 26.6595 16.2913
45.7406 26.687 16.0441
43.9105 25.9606 15.7257
43.4799 25.9337 15.8042
44.9604 26.7931 16.1197
42.0028 25.3936 15.5992
42.807 25.964 16.074
42.0128 25.6888 16.0128
43.9624 26.8317 16.6939
43.7007 26.8507 16.8958
42.4845 26.2743 16.5489
41.3421 25.389 15.9728
40.518 25.5236 16.2861
42.1189 26.2211 16.7018
41.0569 25.9972 16.685
41.6897 26.9191 17.5166
41.2162 26.2037 17.1315
41.9895 26.6132 17.2012
41.228 26.528 17.3607
41.4791 27.3216 18.3508
47.7813 30.8095 19.9186
42.4372 28.0537 18.8847
41.4103 26.8073 17.8095
40.4488 26.4931 17.7967
39.9151 26.2805 17.5347
39.5934 26.4666 17.9442
38.8202 26.0022 17.8398
40.1004 26.8577 18.3278
40.4471 27.3602 18.7191
38.4976 26.0069 17.9926
38.8814 26.4959 18.408
37.9163 26.1313 18.4254
39.5313 27.117 19.0227
38.4188 26.5928 18.768
39.0267 26.7448 18.707
37.2342 26.1943 18.884
39.9014 27.9393 19.7878
37.7597 26.6241 19.1097
38.3978 27.1584 19.6088
36.5437 25.8892 18.6283
37.5641 27.0926 19.7755
36.338 26.4596 19.6285
37.0805 26.7289 19.6872
37.2579 26.9393 19.9196
37.7608 27.3517 20.0824
35.7448 26.3479 19.7536
37.1208 27.4325 20.6485
38.5473 28.4439 21.2878
35.6876 26.7188 20.4789
36.9047 27.6087 21.0557
36.5497 27.1253 20.6199
35.8893 26.8627 20.4445
35.0255 26.177 19.9472
36.1426 27.518 21.2051
36.1222 27.8276 21.6629
35.5271 27.333 21.546
36.0343 27.8733 21.7625
35.0544 27.3076 21.8622
36.8069 28.1463 21.8796
35.3585 27.3604 21.7487
35.5113 27.7097 22.0129
35.4238 27.4461 21.7862
35.4763 27.6168 21.8467
34.4905 27.6582 22.3425
34.6069 27.6031 22.5254
35.389 28.2254 22.6973
33.4616 27.2968 22.5872
34.5117 27.7868 22.8142
34.7308 28.3975 23.5548
31.5719 25.3166 21.093
33.8883 27.5082 22.8127
33.1661 27.203 22.9267
33.7867 27.5028 22.7304
32.3875 26.8296 22.5609
33.5787 27.6884 23.1611
32.7566 27.9022 24.0214
31.3777 26.1318 22.5232
32.781 27.7991 24.0013
32.6876 27.4 23.2877
31.2871 26.6757 23.149
31.8917 27.2363 23.5327
31.9065 27.225 23.7618
31.3242 26.9541 23.3727
32.2489 28.2331 24.8117
30.8046 26.6174 23.7525
31.8081 27.7618 24.507
32.4308 28.0468 24.5733
30.4661 26.7582 23.9885
31.8521 28.13 25.5385
32.3631 28.1411 24.9439
30.5566 27.2536 24.9858
31.0658 27.2139 24.3696
32.5003 29.469 27.1577
32.0619 28.6446 26.1667
31.8581 28.9299 26.8791
30.1964 27.3577 25.2783
31.1513 28.1052 25.9622
30.896 28.2832 26.1313
29.3855 26.9419 25.1402
30.7261 28.3679 26.7797
30.9895 28.487 26.4904
29.8741 28.0431 26.6456
29.1701 27.0158 25.4691
28.8646 27.0382 25.9179
29.4686 27.5036 26.2242
29.7193 27.8689 26.5821
28.9523 27.1542 26.2488
29.4008 27.9631 27.2162
29.6882 28.0004 26.7589
28.7261 27.7968 27.4217
29.7554 28.1475 27.113
28.1114 27.2767 27.1366
29.927 28.6279 27.6277
28.2003 27.5609 27.4584
28.044 27.48 27.6908
27.8882 26.9731 27.6569
34.4191 33.4537 32.0781
28.5443 28.2574 28.5323
28.1221 27.8002 27.8227
27.7397 27.7469 28.225
27.394 27.4184 27.8731
27.3732 27.0701 27.248
26.6994 27.2823 28.2248
27.4348 27.9324 28.8161
26.8549 27.0297 27.988
27.561 27.648 28.3947
27.1149 27.752 28.9661
27.7981 28.3514 29.0296
26.3298 27.16 28.4521
27.0533 28.1925 29.71
26.8272 27.7888 29.3739
27.3346 28.395 29.8922
26.0025 26.9224 28.5782
26.2198 27.2558 28.906
25.2683 26.5446 28.5017
25.535 26.7183 28.5028
25.1938 26.7606 28.7527
24.8639 26.3961 28.6972
25.344 27.0359 29.2708
25.2721 27.3236 29.8148
24.6199 26.3384 28.3985
25.1196 27.3144 30.1786
24.5909 26.4722 29.052
24.2728 26.3233 29.3745
25.0671 27.19 30.0821
23.8187 25.7623 28.6164
23.7754 26.3349 29.7322
24.7557 27.1457 30.2359
24.0033 26.3405 29.5752
24.9827 27.1481 30.0949
24.1002 27.0353 30.277
23.357 26.1494 29.954
23.6472 26.3381 30.1369
23.4797 26.3719 30.2505
23.9806 26.9936 30.6589
23.7514 27.0156 31.1434
24.2289 27.7694 32.1218
24.1173 27.3206 31.5336
23.4305 26.9491 31.7348
24.7164 28.0308 32.1308
22.8383 26.4912 31.2022
23.4011 27.0397 32.0188
23.2077 26.8133 31.4993
22.5033 26.1154 31.2476
23.2031 26.7138 31.462
22.2639 25.9434 30.9319
23.0628 26.6954 31.3396
22.6488 26.9952 32.3268
22.1067 26.247 31.8265
21.8859 25.7152 31.35
22.8044 27.1342 32.9192
22.3263 26.7116 32.593
22.9297 27.5391 33.4329
21.9573 26.4766 32.4695
22.584 26.9401 33.0991
22.4906 26.6478 32.468
22.4624 26.9675 33.1144
22.5975 27.64 34.1467
21.9954 26.5552 32.6589
21.1525 25.7203 31.9798
21.003 26.0553 33.1129
21.9214 27.0478 34.0712
21.6437 26.4851 32.8566
20.8972 25.9933 33.1605
21.452 26.7364 33.8689
21.5436 26.937 34.4099
21.5167 26.4928 33.3238
20.9101 26.4405 33.857
20.3248 25.8562 33.7221
21.485 27.0806 34.7832
20.6002 26.1403 33.7747
19.9643 25.2914 33.1975
20.5859 26.3709 34.6341
21.2035 26.9396 35.2343
20.9522 26.701 34.6274
21.5614 27.4906 35.3756
19.848 25.7236 33.9402
20.4857 26.7931 35.7615
20.9295 26.9174 35.5339
20.6919 26.7909 35.4032
19.6876 25.5211 33.9742
19.1907 25.0916 33.8472
20.6436 26.7405 35.6515
19.8188 25.9632 35.0349
20.3128 26.2544 34.8273
19.7115 26.4668 36.0558
20.6198 27.7085 38.0666
20.5082 26.893 36.3358
19.8592 25.8666 35.0065
18.6942 25.4409 35.3963
20.4794 27.0409 37.2649
19.8354 26.8009 38.5685
23.9164 30.7634 40.2286
20.1879 27.2746 37.2109
19.312 26.301 36.9945
19.8948 26.9585 36.5997
18.8355 26.1182 36.6317
18.5221 25.6423 36.55
19.0487 26.4964 37.8339
19.1802 25.9019 36.3209
18.9548 26.2093 37.4425
19.3688 26.8213 37.5423
18.8667 26.2643 37.4398
18.656 26.2354 37.7711
19.4089 27.1226 38.3877
18.8642 26.3517 37.5639
18.4005 26.3499 38.2688
18.3999 26.1807 38.2081
17.9832 25.2884 36.7614
17.9198 25.5634 37.3957
18.3975 26.5996 39.2975
19.2503 27.2434 39.5852
18.9492 26.8662 38.7699
18.1503 26.4092 38.3198
18.348 27.1311 40.495
18.2711 26.7287 40.3233
19.225 27.7319 40.6929
18.3481 26.5017 39.139
18.4674 27.0165 40.4312
17.5172 25.2164 37.6615
17.384 25.6956 39.2716
18.6159 27.0458 39.531
17.5279 26.2125 39.6831
18.1597 26.507 39.2186
16.7161 24.7731 37.677
16.8351 25.5896 39.327
17.0297 25.6444 39.7168
17.1722 25.5546 39.1934
17.2146 25.7283 39.7783
17.554 25.7655 39.0297
16.5479 24.728 37.6195
16.515 25.4131 39.5856
17.3779 26.4269 40.6541
17.0559 25.933 39.9857
16.4456 25.3201 39.9275
16.6883 24.7856 38.2768
16.5334 25.7109 40.126
15.9455 24.4895 39.0031
16.231 24.2528 37.4105
15.7543 24.8306 40.1377
16.5027 25.4183 39.6379
15.8729 25.1856 40.3189
16.0431 24.7983 39.7058
16.369 25.3059 39.8398
15.835 25.121 40.6473
16.3317 25.8962 41.4088
16.5129 26.1117 41.9733
16.0444 24.9927 40.114
15.4642 24.3609 39.632
15.7865 25.1071 40.7524
15.7381 24.7545 39.1955
14.7461 24.1374 39.9528
15.3864 24.7785 40.1895
15.4081 24.7949 40.2289
15.1794 24.6116 41.0733
15.0933 24.4553 40.3998
15.0822 24.5384 40.8591
15.104 24.0939 39.876
15.1428 24.9542 41.3681
14.9048 23.9901 39.9647
15.5742 25.3704 41.2259
14.9206 24.7487 41.5729
14.7435 24.6684 42.1951
15.0563 24.6047 41.4285
14.8604 24.8512 42.2226
14.6636 23.8586 40.9989
14.7863 24.1225 40.5739
14.3642 23.3348 39.0451
14.2611 23.9342 40.7197
13.7661 22.7008 38.7351
13.7935 23.2457 40.6038
14.5851 24.2229 41.1236
13.7398 23.013 39.4807
13.6343 23.0025 40.4323
14.831 25.2173 42.8591
13.7716 23.0954 40.7569
14.0896 23.566 40.7803
14.1281 23.8433 41.1954
14.1833 24.4029 42.2469
14.2126 24.4638 42.3177
14.0107 24.2755 42.734
13.6788 23.4607 41.1811
13.4355 23.2508 41.6486
14.0617 24.5804 42.9933
13.4549 23.6067 42.5775
13.9308 24.3211 43.3087
13.4124 23.0316 40.937
13.5287 24.6787 47.3282
16.8975 28.439 46.9547
13.3519 23.2955 41.7292
12.9852 23.0868 41.8649
13.6347 23.9931 43.3217
12.9905 22.8077 42.0237
13.6167 23.8875 43.0887
13.3668 23.3564 42.0053
13.0078 22.8833 41.1339
12.9542 23.1924 42.8145
12.9275 22.8643 41.6856
12.7409 22.6316 41.3281
12.7497 22.68 41.4974
13.0056 23.5522 42.8937
12.417 22.4105 41.9323
12.9025 23.5425 43.7167
12.4506 22.2838 41.8155
12.8999 23.1346 42.8867
12.9612 23.6396 43.949
12.9896 23.5445 43.3913
12.609 23.6278 44.3557
12.3504 22.4973 42.9444
12.91 24.0451 45.2842
12.287 21.9766 41.6685
12.3768 22.7423 42.9291
12.5349 23.1036 42.807
12.0011 22.4044 42.9091
12.5322 23.5326 44.7223
12.332 22.8901 43.94
12.5546 23.2693 43.9029
12.1245 22.6381 43.4255
12.4464 23.4749 44.4167
11.8535 22.6767 44.0276
11.9458 22.2374 42.8822
11.859 22.5535 43.6628
11.7417 22.3217 43.6471
11.8973 22.6353 44.2574
12.2841 23.2111 44.9835
11.8376 22.5163 43.7882
11.7414 22.7812 45.5061
12.0747 22.2754 43.9095
12.0394 22.2258 42.7814
11.6919 22.6844 44.7313
12.0438 22.8927 44.679
12.0452 23.0769 44.829
11.4201 22.3428 45.0205
11.5484 22.0941 42.6704
10.7182 21.1063 42.8253
11.561 23.0267 47.4542
12.5722 23.8099 45.3419
11.0474 22.0059 44.9603
11.1461 21.5739 43.9651
11.5392 22.4795 44.7629
11.2333 21.893 43.47
11.0079 22.5223 46.7868
11.8437 23.0776 46.5193
11.5258 22.676 45.9817
11.1812 22.3974 45.8093
11.3979 22.6131 45.4874
11.0799 22.1307 45.6065
10.8759 21.6108 44.5604
11.2595 22.3119 45.1561
10.8681 21.503 44.4359
10.9349 22.2356 45.8213
10.6421 21.0999 44.1078
11.1567 22.5306 46.2621
11.0064 22.1952 45.7134
10.5384 21.5456 45.7677
10.898 21.4979 44.5799
11.2261 23.3495 47.6089
10.466 21.9662 47.449
10.9227 21.9543 46.2467
10.5743 20.8566 44.2105
10.8693 22.2557 46.1546
10.3643 20.8639 43.8484
10.5251 21.9912 46.7063
10.6132 21.8565 46.2221
10.376 21.2449 45.1964
10.7053 22.4459 47.5285
10.6414 22.104 46.5695
10.4623 22.249 47.9526
10.3297 21.0825 45.4146
10.1638 20.7048 44.2562
10.3759 21.658 45.1525
9.82427 21.1379 46.8043
10.6614 22.154 47.2677
10.1934 21.425 45.843
10.0038 20.9407 44.9775
9.95071 21.2257 46.7617
10.2138 21.3319 45.6857
9.862 21.0849 45.8947
10.0132 21.468 47.6497
10.3354 21.7655 47.4208
10.1314 21.6186 47.6033
10.3919 22.523 49.2975
10.1372 21.3553 46.5083
9.65819 21.5678 52.068
12.0218 24.8546 50.8054
9.98891 21.1916 46.979
10.1147 21.5277 46.8285
9.77942 21.564 46.6191
9.55502 21.4319 49.2393
10.116 21.8873 47.9328
9.76104 20.9958 46.5591
9.48852 20.8699 47.4091
9.71254 20.8509 45.8112
9.0899 20.3472 46.7223
9.35699 20.4293 45.762
9.36079 20.6185 47.3166
9.83721 21.3403 46.8302
9.10022 20.1878 46.5555
9.31182 21.0072 48.2086
9.27134 19.9251 45.5942
9.3053 20.3803 45.8714
9.28703 20.4033 46.8428
9.55028 21.1487 47.2489
9.03801 20.3995 46.9828
9.22691 20.793 48.2211
9.07255 20.0499 46.9862
9.12787 19.8592 44.8987
8.98524 20.371 47.3062
8.9647 20.159 47.0072
8.95134 19.6034 45.3209
9.15386 20.7673 47.4138
8.87568 20.2162 47.3765
8.91444 19.8941 46.7504
9.1465 20.836 48.0823
8.98769 20.2162 46.9652
8.77404 19.8 46.6199
8.75513 20.1747 46.7867
8.77129 20.4081 48.7827
8.98677 20.1461 47.6428
8.70155 19.8748 46.4235
8.65228 19.7433 46.2075
8.66649 20.0541 47.5005
8.50508 19.1744 45.3745
8.24926 19.181 47.3358
8.98692 20.6103 48.1901
8.70839 19.8044 46.6287
8.61966 20.1299 48.1748
8.70468 20.0978 47.7557
8.71823 20.5393 48.7935
8.39093 19.3977 47.3691
8.67564 20.2888 47.4257
8.02384 19.0206 47.6694
8.55982 19.553 46.6919
8.19539 19.1249 46.8021
8.39217 19.7885 46.7837
8.10436 19.2847 47.2227
8.1384 19.1238 46.5588
8.09441 19.335 48.0031
8.36264 19.5872 48.5278
8.4837 19.6892 47.8451
8.36423 19.3251 45.9532
8.0613 19.2741 46.7725
7.93007 19.1962 48.6484
8.31735 19.2333 46.8784
8.2712 19.5039 47.0707
