# pn-170911/RbIIR-57-WTZR-1280-1959.psd
# Power spectrum* (dif=0,1,2) (really just |FT|^2)
# NOTE: only the first half! (symmetric)
# weeks: 1280-1959
# 17 clock-days, 2 excluded
# PSD: 1441
2010.52 0.0923428 0.0605544
34079.9 0.69894 0.0653083
191701 3.80634 0.0563807
11078.5 0.524748 0.0595662
63193.9 4.58622 0.0548276
6053.94 0.31522 0.0642882
5687.69 0.731364 0.0603606
2022.73 0.326646 0.0419877
2485.56 0.664216 0.0472797
1835.03 0.495328 0.0590615
1282.72 0.432283 0.0548115
1389.41 0.695181 0.0354616
1296.66 0.5033 0.0426428
672.496 0.504306 0.063514
691.083 0.545505 0.0515802
767.474 0.439035 0.0573841
740.242 0.857072 0.0497927
508.36 0.55714 0.0651276
773.004 0.921318 0.0559682
396.084 0.361607 0.0692437
319.968 0.712995 0.0545763
559.185 0.766816 0.0555502
293.985 0.636529 0.0667367
543.802 0.966697 0.060914
527.145 0.806568 0.048062
468.445 0.770645 0.0504425
300.293 0.821444 0.072501
366.603 1.20935 0.0456098
308.393 0.805139 0.0484765
236.108 0.603261 0.0658262
324.292 0.971677 0.0428495
487.582 1.9033 0.0400666
279.579 1.33369 0.0618676
320.615 1.89415 0.0698714
405.838 1.43523 0.045025
322.275 1.73871 0.0556985
350.436 1.55278 0.0932105
337.041 1.76235 0.0811091
255.109 1.96405 0.0599518
290.009 2.35306 0.090232
335.752 2.52067 0.084808
207.337 2.00119 0.061874
383.769 3.06512 0.0850353
379.467 2.71448 0.0776658
192.453 1.65986 0.064014
297.329 2.42266 0.0696458
301.207 3.08559 0.105818
335.698 3.18766 0.0524936
224.173 2.04516 0.0601157
237.683 2.8073 0.0808964
252.521 2.36532 0.0768489
171.814 2.28005 0.0662238
333.154 3.38909 0.135756
220.643 3.42768 0.0813788
240.778 2.63515 0.0670005
286.745 4.12824 0.120627
188.214 2.7758 0.0837054
215.791 2.86115 0.074615
284.718 3.91064 0.12577
218.005 3.57083 0.127013
274.563 3.93962 0.124748
175.602 2.7281 0.0984031
310.553 5.09437 0.114238
148.517 3.34001 0.135098
215.396 3.79168 0.120212
287.088 5.73606 0.167219
223.42 3.75082 0.152749
273.427 5.96621 0.207448
145.362 3.25537 0.0986451
184.538 3.71625 0.107306
259.74 5.60019 0.168268
215.104 6.04173 0.161629
196.263 4.37625 0.212097
197.526 5.0204 0.207824
147.861 3.55549 0.156347
272.618 6.9029 0.24221
294.948 7.91254 0.31225
193.99 4.89029 0.182831
196.269 5.71151 0.212909
158.176 4.26321 0.241592
220.025 6.76421 0.227125
161.489 5.10588 0.29881
193.496 5.68132 0.187363
267.243 8.83018 0.365847
175.132 5.62021 0.241253
175.411 6.25624 0.272377
213.962 7.95071 0.264498
176.405 6.06971 0.253805
129.649 4.09946 0.244908
170.555 6.45132 0.303942
228.507 8.23318 0.343198
246.408 8.06621 0.325963
210.278 8.96656 0.436243
122.614 3.93907 0.2403
156.778 6.3174 0.241228
147.312 6.273 0.348002
238.068 11.4106 0.587471
180.406 6.84905 0.39762
135.902 6.73225 0.399915
195.2 8.62816 0.4179
179.884 8.45168 0.507276
155.275 6.65414 0.388871
291.391 13.6312 0.679822
119.951 6.02192 0.375922
140.151 6.65205 0.329926
77.3579 4.07322 0.282603
132.754 7.35078 0.359509
220.741 12.4767 0.64283
119.384 6.2029 0.479692
159.517 9.25514 0.605195
145.334 8.27807 0.511956
239.854 12.4491 0.922989
179.549 9.84037 0.552809
143.869 9.87594 0.655621
129.661 7.69085 0.627257
157.196 9.71481 0.613134
100.647 7.15463 0.429388
131.694 9.83804 0.691159
124.703 7.9935 0.688003
168.632 10.9407 0.757504
89.889 7.23113 0.535549
194.181 13.7813 1.20022
168.12 11.2661 0.863355
107.587 7.53281 0.52247
95.8476 6.38186 0.412047
205.045 13.253 0.997133
172.136 12.3006 0.967255
100.112 7.61091 0.626876
177.719 12.0373 0.895171
212.753 14.7881 1.33298
182.807 13.8165 1.28943
154.166 12.6344 1.12458
121.472 9.3735 0.988782
141.5 11.0061 0.877237
152.227 12.7904 1.12019
156.672 13.9151 1.34568
132.98 11.9322 0.999397
169.233 15.5067 1.57737
132.249 11.7561 1.05869
94.0391 8.26599 0.853275
123.157 10.5336 1.02252
103.453 9.8489 0.969218
67.9581 6.84479 0.727557
134.939 13.5649 1.41907
141.474 14.3611 1.31954
119.938 11.3718 1.16808
142.885 15.1674 1.55393
74.8852 6.52478 0.788885
135.01 15.4881 1.6486
97.6736 9.74981 1.00496
131.618 12.9668 1.32594
66.0905 6.49522 0.797087
92.8501 10.2002 1.05929
95.2858 10.4885 1.1778
95.8605 10.1127 1.17968
92.3511 9.20437 1.06878
140.487 16.3965 1.95918
110.852 14.2183 1.69105
120.539 14.0915 1.7511
101.249 12.7522 1.74274
155.385 16.6282 1.88099
104.839 12.8583 1.5121
122.469 14.1183 1.56822
135.736 19.2509 2.34889
112.49 15.7225 2.16462
73.3944 10.239 1.33099
121.413 16.2906 2.22662
62.6043 8.05387 1.11841
74.3915 9.96363 1.41465
66.5959 9.19646 1.26491
95.2466 11.4954 1.70237
96.5717 11.2174 1.4477
106.832 14.5393 1.98157
93.4147 13.9097 1.90397
115.242 16.9766 2.21239
120.538 17.0378 2.6295
114.171 15.5016 2.4351
58.4593 8.65931 1.18191
144.758 20.7418 3.15634
109.607 16.4926 2.59046
81.8809 13.3204 1.9634
75.0492 12.4675 1.92329
102.703 15.4256 2.41786
98.9356 15.5075 2.58442
133.204 23.0545 3.71913
98.1365 15.7391 2.54013
84.7744 12.3965 1.86994
95.0268 13.9584 2.14937
111.593 15.7457 2.53077
84.7707 14.1949 2.81981
107.34 16.5637 2.78658
68.2116 12.7676 2.40481
153.472 26.6916 4.16979
101.959 18.8417 3.15024
158.542 29.6995 5.11626
69.3664 13.4167 2.76279
81.5015 13.7543 2.21502
79.8933 13.8739 2.51914
84.8477 14.9997 2.88012
72.9919 11.5886 2.23956
94.7226 17.0518 3.14899
111.867 21.51 4.34785
71.9625 11.6036 2.11321
73.6874 13.3761 2.39641
117.261 22.5598 4.67478
89.13 15.9569 2.88932
83.4183 17.8369 4.14989
156.523 29.422 5.69504
63.0495 11.7044 2.74399
80.0164 15.3026 3.30586
112.008 22.0732 4.61368
74.4482 14.9048 3.01179
57.4357 11.5891 2.51065
67.1619 14.9092 2.99382
77.6363 17.346 3.62673
107.971 25.3212 5.8172
98.1491 19.2337 4.10767
103.931 24.201 5.44575
86.8682 20.2944 5.0171
88.8826 18.9796 4.18823
117.137 24.3133 5.65583
80.1848 20.3094 4.82672
108.173 23.4122 5.01509
61.4449 14.0378 3.43972
75.8598 18.6157 4.69625
101.566 21.6605 4.65127
80.8325 20.3876 5.03247
78.1996 18.3548 4.59142
78.9575 17.4055 4.2258
59.4063 15.2559 3.78739
39.2599 8.65455 2.10059
99.2508 23.486 5.59121
63.3824 18.5074 5.13503
129.987 31.4874 7.62232
70.0911 19.2066 4.77373
77.2806 21.2434 5.21445
75.8956 19.7727 5.76133
89.8468 23.2228 5.77962
62.4889 16.133 4.31381
62.0349 15.7785 4.01074
93.9943 23.269 6.12843
60.18 17.4816 4.942
85.3151 23.7845 6.56228
76.4499 18.8123 4.99729
75.9162 20.9626 6.06875
115.411 31.2508 8.88501
52.5318 12.9562 3.9005
67.4867 16.8955 4.56929
91.1394 28.2012 8.04503
62.5606 17.2972 4.85088
75.4303 24.3167 7.9454
85.9565 23.3234 6.37083
97.1223 30.1594 8.75887
80.4547 24.0312 6.63609
70.1188 21.4472 6.68473
66.4462 19.1435 5.50236
74.3718 22.9391 7.82578
60.9675 17.2835 4.99667
109.791 30.9871 8.81425
91.1334 30.5993 10.2765
49.3852 15.1579 4.7066
52.7469 18.2896 5.84004
61.3399 19.9196 6.40467
94.7679 29.1064 9.31824
80.3492 23.4017 7.73345
69.5378 20.9224 6.97494
75.0996 22.4174 7.15509
61.6273 21.3169 7.2994
59.9231 22.1645 8.05364
104.881 32.482 10.1962
66.9124 23.3028 8.50016
65.1996 20.2947 5.83145
74.591 27.0674 9.80025
84.3727 29.7804 11.0386
73.9583 24.4364 8.17539
69.017 25.0733 8.91514
60.4725 19.8754 7.08249
46.0748 15.5328 6.11443
105.153 36.2755 12.1986
64.4831 21.97 8.40018
67.3356 24.5806 8.69174
78.9683 25.9501 8.19446
61.3099 23.2942 8.72606
86.4758 31.6083 11.4483
51.7725 20.7127 7.74562
40.9077 16.8414 7.16054
88.279 33.2571 11.2137
68.8314 25.9455 9.79674
72.5055 26.5343 9.35783
101.315 41.3987 16.364
72.4427 30.4516 12.9596
89.405 40.3667 19.3108
220.922 86.2647 34.2069
166.438 59.2775 20.6751
128.325 50.9359 19.3025
122.042 56.8338 26.0086
295.822 120.254 46.8493
120.561 41.876 15.7827
52.9906 20.0469 7.35326
117.879 64.8486 33.6995
179.684 62.5736 20.6982
36.6955 16.1426 7.94631
78.7888 33.4979 14.8424
83.4913 31.0821 12.4294
81.9701 32.8386 12.9459
68.8574 29.3617 12.0088
55.5039 20.6501 7.84668
45.476 19.1512 8.63202
58.3645 23.4113 9.6673
41.5164 20.2243 9.69941
56.2144 22.8927 10.1043
60.137 26.4482 11.8484
48.594 19.6487 8.95575
73.8083 28.8624 11.8457
37.1553 16.4543 7.07239
74.4519 36.9272 17.1824
48.381 18.2402 7.83718
49.0365 21.6344 8.86905
37.0923 19.7074 10.7207
88.0555 38.5229 16.9424
63.2818 28.9856 14.2744
38.7607 17.1129 8.4484
42.3783 17.8815 8.58432
58.604 30.9488 15.9436
59.6812 25.9459 12.7102
45.7534 16.1349 6.2609
45.1422 22.5767 11.4528
57.5965 23.5384 10.0046
57.108 24.4027 11.521
71.1765 34.5687 16.759
116.087 53.5963 25.336
48.6451 24.3695 11.9071
51.8103 28.3148 15.5377
61.9748 29.7404 15.3637
76.3955 37.1412 17.0358
35.6232 17.853 9.80604
36.793 20.8244 11.7062
51.1121 28.5595 15.2226
39.0533 16.7553 9.26024
63.7388 34.4972 18.1748
64.6098 32.7048 17.4417
58.5764 30.2783 17.4271
50.7457 26.2901 14.0758
58.9244 28.6413 13.7648
37.8562 20.6071 11.6218
61.0635 32.053 17.1907
37.8369 17.9511 9.5274
37.6482 19.5648 10.9177
66.0198 37.8369 22.3066
51.3885 24.3792 12.5189
40.2242 21.0224 11.6292
43.6272 23.4147 13.9928
40.279 23.259 13.288
44.9947 21.858 12.0346
44.5476 23.7114 13.5279
42.6322 24.9101 15.2278
68.5242 34.2569 17.7471
40.0005 21.5355 13.6394
72.6972 43.5802 22.7588
36.5523 24.7355 16.7825
37.8815 17.3917 9.91469
52.4019 27.165 14.2749
51.0978 33.1965 19.9294
64.1641 35.3838 18.6688
31.7287 19.0613 12.2828
59.0209 31.7511 18.4363
57.934 32.5012 19.5682
69.1477 41.9402 24.6253
58.1499 35.1513 20.9871
43.1041 28.6274 17.9152
29.9593 19.7588 14.4105
69.7545 42.4499 26.4003
40.8638 25.1477 16.253
56.1397 34.1908 21.4599
52.5304 30.1802 19.1834
77.596 47.1737 27.1152
31.5078 21.9487 14.2622
45.1772 28.0296 17.7044
31.4004 20.2929 13.9797
33.4936 25.9678 19.194
47.5093 27.9958 16.0651
26.9356 19.5462 15.9159
79.9228 47.0184 27.1315
42.8658 31.709 21.7834
42.938 29.99 21.4791
54.6753 33.1061 21.2512
34.1865 22.1669 15.2367
54.1191 37.0472 24.5176
19.6267 13.8846 11.5835
54.5859 33.0972 20.2305
39.8481 29.9662 23.4454
44.1122 27.5285 17.9945
40.7185 24.4682 13.7714
30.5639 21.9621 15.5246
53.7556 37.6876 25.6412
40.8753 24.7529 16.161
55.1749 37.4778 26.6952
54.1638 34.8442 23.0711
35.4991 23.7409 17.5586
40.2715 28.1432 18.8152
46.0256 32.2269 20.7697
29.9463 27.6942 23.0281
25.8915 20.0159 15.6823
35.5929 26.7326 20.0731
39.9882 25.9738 16.6366
22.6769 19.3386 16.9626
38.4089 24.7299 17.9886
30.8739 23.0995 17.6341
41.962 29.2372 20.3618
19.7059 14.8107 11.6961
26.8665 21.6894 15.93
34.545 29.3526 26.0655
33.6797 21.8679 14.0163
34.4697 28.3983 22.4695
56.6362 39.5793 30.4953
34.9609 25.0651 18.3891
42.2669 32.2416 23.6791
22.7671 15.4183 11.9015
46.7996 36.9802 27.7041
30.5115 23.4104 18.167
30.1891 24.9458 20.5883
44.2003 34.3471 26.3645
36.6212 31.9032 24.5549
28.2814 21.9857 18.3299
38.88 31.3611 23.3362
51.9231 40.2187 30.8724
33.4518 29.7984 25.659
32.4134 22.8698 18.2129
29.4933 27.1852 23.7757
33.51 27.0235 22.7038
39.6489 31.7017 25.4218
33.9189 22.6563 16.0441
14.8467 14.6098 13.813
23.8832 19.8746 17.1531
34.6366 27.9873 23.1559
26.7248 22.3685 19.0639
42.6576 34.4579 27.8435
41.4706 34.0837 26.7531
30.7056 28.3489 26.4965
22.9452 18.8041 17.9862
39.9422 32.7008 25.3757
17.0606 15.3849 13.8361
23.1286 20.9897 20.5809
28.2814 24.0332 23.9303
40.2868 24.9166 15.4712
31.3645 23.8286 18.4444
27.583 25.6931 24.0042
35.4309 34.7338 27.6854
24.2823 25.089 25.9215
30.2038 28.0553 25.0368
49.0727 43.6032 37.3202
33.4301 27.6118 22.5305
46.6597 48.2631 46.1867
36.291 28.6938 24.2484
28.0458 23.3277 24.9912
40.9771 30.6058 24.8001
40.2651 37.0476 32.5816
24.1649 21.3635 20.2156
24.1564 23.7873 24.4469
31.1659 29.5779 25.7139
19.6042 16.4015 15.801
23.1187 22.2605 24.7823
43.9454 33.671 25.1402
29.3309 28.9851 28.2969
27.4898 25.4158 24.0812
27.2303 24.7258 24.0259
26.2646 24.9831 23.9592
33.867 31.8177 28.7373
28.1652 21.0002 17.1285
29.8238 31.1556 30.7625
16.3332 18.972 23.3811
42.7187 37.0421 32.3044
33.0794 33.3471 32.8845
28.9649 26.0665 24.7414
29.8725 30.228 29.8072
42.2393 45.4303 43.4482
21.1558 22.0241 21.8903
20.4227 18.3066 17.0651
19.4354 22.1732 23.1968
17.1678 17.6047 20.4912
24.1903 23.9357 25.7536
23.2054 18.3848 17.0598
15.7815 16.6668 21.2014
33.8445 28.8106 24.9333
18.4553 21.3111 24.9158
30.2884 27.9148 26.9451
31.9518 29.8346 28.522
23.2809 22.402 23.2042
18.5439 17.7128 19.0629
26.3017 27.647 27.9777
22.1679 21.045 22.515
30.1719 31.2475 30.4222
44.138 56.2154 65.3168
42.6276 34.2115 31.0809
32.3681 32.7914 33.1031
17.9683 16.4524 17.6974
22.6893 26.544 32.4016
22.8989 23.0948 25.3161
24.7481 25.0079 28.5163
46.8395 48.9903 42.8098
20.4794 20.8085 22.168
19.8007 23.9876 28.4521
33.7629 35.4877 39.095
29.6649 30.2997 32.4949
27.8483 30.7732 35.4845
34.1726 40.4123 44.6985
20.0854 17.1548 16.1528
23.1773 30.0967 37.9233
31.3183 29.2714 25.5394
20.2764 22.6343 21.5503
20.0013 29.5836 40.2152
33.7301 33.9284 33.4796
30.5924 34.461 37.3972
25.7913 28.9818 35.0493
37.8156 43.7906 45.9793
30.3347 36.1204 41.0992
25.3807 29.6187 37.1925
23.3032 25.5948 29.5895
21.2529 24.9854 31.9586
26.0704 26.2478 27.7876
25.7938 31.2422 36.0561
22.3106 23.8054 25.5551
24.7481 33.6669 43.6039
24.9493 26.3713 26.5387
15.9696 23.5563 34.7017
29.4626 30.3718 37.7748
23.5999 21.672 23.0368
25.0886 26.9383 26.2713
14.7426 25.2636 38.7549
22.2563 25.276 35.1447
28.4398 28.8176 32.2294
23.7264 23.4631 25.0192
22.6321 26.2901 28.2241
17.5391 23.2672 31.0365
24.3547 25.6367 27.5618
24.2495 33.5083 42.7024
24.2973 27.1222 31.9858
26.6065 36.2308 45.221
15.7278 19.0809 31.2308
29.8294 25.6825 24.6345
26.5202 31.8803 33.9469
26.8814 29.9219 34.1082
25.2839 26.9247 31.3242
15.1847 20.7083 28.1805
21.5115 31.8735 46.8108
23.6137 26.219 32.5673
16.2061 18.1833 26.7235
18.6957 19.7279 23.5091
23.2446 27.591 35.6516
25.4733 29.9499 33.5166
27.2092 33.0615 36.0827
23.2263 36.3194 50.4458
15.0231 13.763 17.6332
18.6454 25.2463 37.2917
27.2597 28.3547 32.5823
24.2191 35.1912 44.9299
22.2682 30.8049 47.9836
41.0467 49.7214 58.4212
26.5677 25.4249 22.6115
19.6907 29.301 39.3026
21.4108 29.208 37.0297
16.912 25.8863 39.5144
17.4761 18.794 26.6187
24.9273 33.8187 43.2851
21.14 26.9774 34.4957
18.0467 22.4577 31.7447
30.0648 43.1601 53.6561
11.4982 15.93 27.4237
24.398 34.7863 44.9973
22.5037 31.3528 45.1955
21.2986 27.6567 43.0266
24.9294 21.3378 21.3954
20.2567 26.4988 35.7731
20.8253 23.665 25.8475
21.9551 40.0821 59.4269
18.7651 25.732 42.5099
31.3846 37.0087 40.6082
13.2921 20.4747 29.119
15.808 21.8307 34.0002
21.4059 30.1141 38.2075
14.5552 23.169 37.7811
17.6043 20.7335 32.0626
23.2881 32.9039 44.9413
16.2118 21.7522 35.0407
25.3647 30.2432 38.8147
15.225 21.2025 36.5638
29.2591 34.855 40.8382
14.6446 20.8904 30.261
16.7286 27.9052 40.3143
20.3719 30.8344 45.2906
15.1279 19.4229 24.9434
9.91638 20.5856 41.0722
23.8998 29.0448 40.8063
20.052 23.1607 30.5473
18.5072 24.3328 31.2217
21.742 29.8174 35.8378
17.4384 32.3588 54.0765
23.4616 31.6067 42.6379
21.4032 31.3785 41.8728
11.9354 16.0498 25.1984
17.9764 31.0782 45.6183
13.4478 22.6675 37.6527
13.0939 16.6433 28.3007
22.8212 32.5034 47.8539
15.6059 23.3193 37.4914
20.3232 30.6311 46.1038
18.48 28.749 45.0801
19.451 29.9954 46.4925
26.0162 42.709 66.838
19.3246 26.9505 47.061
19.4332 22.5785 26.748
14.8431 20.8853 35.5856
23.117 35.5417 54.5669
24.54 34.8514 44.2653
16.8087 31.8923 51.4713
15.5254 28.8328 53.6097
20.802 29.9997 52.3214
23.5971 31.5369 45.8812
12.8479 18.8304 32.5034
15.5952 21.405 38.6457
27.7701 36.6028 43.523
23.8068 41.0323 60.6381
15.7889 25.9296 48.4487
19.5087 25.2343 32.9595
12.31 23.4647 41.1648
13.5515 21.9868 37.8402
18.0044 28.8913 50.55
21.4724 30.274 39.9212
16.954 25.0589 34.9304
10.9397 18.7943 31.1744
15.2366 30.0606 53.9604
18.4541 24.7718 36.367
15.9608 24.1177 38.0375
18.6618 32.3644 50.0778
15.0512 21.8757 32.9408
8.49387 15.3502 34.0245
19.5653 30.7236 38.9416
14.5028 23.5484 30.5176
13.9097 33.5285 62.0061
14.8723 24.7383 47.4371
21.95 33.5478 59.3284
19.7794 24.3661 32.906
13.8509 19.8434 30.9112
12.0591 19.1628 33.9109
18.6761 29.0114 43.6356
14.6302 23.4396 37.4223
11.7843 22.8466 45.8357
16.6324 24.3475 39.2879
12.4913 19.5449 33.071
14.0293 25.2192 45.9253
19.6386 34.7284 61.0891
14.9591 20.8286 33.4575
11.6363 17.2298 31.2318
15.2619 26.2258 43.9132
11.1795 17.6547 33.314
11.6084 19.6454 35.4281
15.3078 25.6481 43.886
18.6037 26.0712 35.947
14.6399 31.8775 54.3358
10.5065 17.8289 41.5993
15.4775 22.4046 33.7325
11.6031 19.4951 32.5616
14.6812 26.2162 49.5395
19.1336 30.0195 43.4125
14.3159 27.9955 53.0023
13.0165 22.7169 36.2998
14.5509 26.959 53.7796
17.4471 28.3927 49.7384
16.0619 27.7835 48.4685
12.3538 19.9714 35.0414
10.8887 19.9601 34.8206
9.46786 19.6078 47.2494
20.3047 30.8729 46.4457
11.6572 21.5113 36.8137
14.5914 30.7328 61.5246
19.2871 34.2342 55.8889
14.6395 24.9171 36.8214
5.76386 14.2405 36.6405
15.007 21.1484 33.4075
12.7513 26.5762 54.3522
13.9393 23.1014 46.1595
14.2724 25.3431 45.9746
14.0535 27.2445 46.7162
13.4024 22.0011 35.6531
6.501 16.3011 38.7337
13.1019 23.8041 46.7234
11.419 21.0794 44.1142
13.6505 23.6657 39.7333
10.8848 16.8904 31.6735
15.1055 33.7362 59.3058
15.4201 29.0576 52.7463
10.0553 18.8558 50.5519
13.3088 15.5401 22.9842
9.79291 17.5004 34.0996
17.7003 36.9341 64.5942
12.2658 15.6485 26.9852
11.1338 24.7301 46.2156
9.17014 14.4757 29.8103
16.1817 26.5088 36.6704
13.3749 29.9338 55.2227
12.3616 19.854 30.7811
11.2018 33.1559 75.7041
12.4106 15.3185 25.5389
13.9788 32.5566 69.665
13.777 21.5697 42.0962
14.5835 29.9004 60.5363
15.606 26.7133 44.1357
9.35532 15.7684 33.0484
10.4716 19.2114 35.921
12.4906 28.0168 47.585
13.3317 29.966 61.8866
14.3098 24.2272 43.3883
11.5799 26.0047 57.9262
19.5951 42.2127 83.8764
15.785 23.8867 41.1269
11.0709 23.5034 49.9301
11.4643 18.9479 33.8064
9.39014 19.3993 39.4706
10.7921 20.0556 42.7687
12.1777 23.9139 39.8433
6.46752 19.9201 52.4998
14.6895 26.7286 55.3964
13.6981 23.9998 42.5549
10.1483 16.9913 35.6217
10.4183 20.9548 37.0197
8.45329 18.3637 44.0021
12.9424 23.6414 49.0868
13.8287 25.0833 48.5722
11.7002 22.1521 40.7638
14.2554 33.0381 65.5695
11.8601 20.0595 41.3313
8.02341 15.5697 36.3944
10.4088 20.8898 50.647
13.4359 28.0752 59.084
11.9272 19.3272 35.7375
9.20701 19.445 43.967
10.1863 18.7953 41.8223
11.5043 19.4874 31.7437
9.44879 22.1671 41.6572
7.2497 13.939 34.8598
11.7262 24.9485 51.9269
14.49 29.6519 63.725
14.5787 26.583 43.751
8.35443 19.0769 50.5337
10.6169 16.7716 31.2728
7.80086 17.1619 35.3204
9.2273 19.7911 46.9024
10.7497 24.3033 57.7663
14.0961 32.0947 63.5074
8.22696 11.833 22.2031
7.77738 14.6314 32.7017
10.8952 23.3766 48.5189
8.93305 19.5546 41.5636
8.67736 13.8841 22.7421
9.86273 31.8427 72.1599
11.9136 24.4446 54.0001
13.201 24.0541 43.0927
7.68251 18.0333 42.0642
8.77634 23.8173 60.9059
9.20545 17.7854 46.175
10.7235 19.7425 41.0301
9.27761 18.7979 45.1195
11.3066 21.5645 38.8457
8.31842 21.8043 56.692
12.8109 27.0122 50.3793
8.89401 18.1135 48.3199
10.0457 18.5314 37.9814
12.3748 32.3236 77.8634
13.6112 23.9644 44.6125
9.10202 22.3379 61.9435
9.72725 14.3034 38.2907
11.4188 24.7733 41.0823
8.59077 19.6518 46.6163
13.1547 26.2728 46.4221
7.84374 19.2728 38.5124
8.91608 17.746 45.5415
12.7828 29.5526 54.8567
9.64044 24.4736 66.2599
11.6057 26.3173 61.6643
12.8352 27.3491 62.5285
13.1181 22.0869 32.0716
6.44116 20.8111 55.2236
10.454 23.1531 50.4508
8.46423 18.0445 49.2738
9.87388 19.3154 38.9504
8.01902 17.7842 37.0058
8.47524 22.3737 51.7642
8.50484 20.7478 65.0579
16.8095 36.4049 79.5234
23.027 65.1216 166.579
30.4474 60.3372 101.457
8.22773 16.4788 57.3957
18.5487 39.8093 75.8212
10.0533 22.7561 51.3684
8.34038 18.1847 37.4007
5.48217 15.1719 45.6469
10.7997 28.475 68.4815
9.90501 16.271 39.1212
9.98832 22.2225 43.0003
5.80109 14.6251 39.3323
5.59061 16.0694 51.4261
12.2284 25.5061 64.0834
11.0847 18.5531 40.1133
10.7559 18.1318 26.6716
5.64552 14.9488 38.7743
6.59301 19.0854 43.8795
8.23406 20.6031 51.7434
9.20625 18.6885 45.1873
9.37271 21.1638 49.7023
13.4195 33.8875 62.847
6.9502 19.5543 54.5647
8.77988 20.0758 47.931
10.3582 24.561 55.6447
8.8687 19.0427 45.8607
10.3198 25.3556 59.1639
8.93523 17.0427 42.1525
6.91132 17.4721 44.1744
6.77027 15.3685 31.5548
8.40171 19.3986 48.3201
8.61579 22.9138 45.9328
6.02824 13.6776 35.6546
7.58496 18.7843 40.3186
7.27678 15.2836 30.7427
6.4081 25.5747 78.8945
10.6856 24.5353 61.4673
10.6402 25.1441 65.0168
