# pn-170911/RbIIR-52-AMC2-1280-1959.psd
# Power spectrum* (dif=0,1,2) (really just |FT|^2)
# NOTE: only the first half! (symmetric)
# weeks: 1280-1959
# 509 clock-days, 7 excluded
# PSD: 1441
395.981 0.0720112 0.0249089
23284.9 0.486113 0.0288595
88198.4 1.7482 0.0287551
16160.5 0.556595 0.0307258
49840.5 3.70541 0.0295191
5427.51 0.502909 0.0302687
5278.1 0.720995 0.0293201
2974.59 0.519139 0.0307262
4979.23 1.33601 0.0310611
1802.48 0.543476 0.0316524
1724.81 0.684408 0.0306618
1235.54 0.534885 0.0328578
1239.68 0.707016 0.033079
883.828 0.568403 0.0288067
886.084 0.707655 0.0306733
746.842 0.632404 0.0307209
749.149 0.799379 0.0335045
571.898 0.619574 0.0311156
536.577 0.681601 0.0326126
508.602 0.740332 0.030418
469.16 0.774407 0.0319735
415.113 0.713995 0.0326713
390.579 0.787889 0.0329716
375.927 0.800784 0.0313318
406.031 0.978506 0.034341
319.871 0.83072 0.0331713
334.242 0.920897 0.0332235
303.223 0.912997 0.0343556
295.25 0.962071 0.0321017
312.773 1.13136 0.0307954
293.128 1.10729 0.0345246
277.306 1.14425 0.0349389
266.358 1.1326 0.0344559
273.355 1.30913 0.0382783
245.498 1.19747 0.0368799
258.521 1.33416 0.0368645
253.469 1.40467 0.0384262
235.818 1.391 0.041989
232.398 1.46397 0.040316
204.377 1.38712 0.0414924
216.61 1.45093 0.0431564
219.342 1.55421 0.0417568
208.615 1.6427 0.0479615
216.396 1.73357 0.0485154
201.009 1.67895 0.0453825
211.42 1.83476 0.0536449
196.166 1.79638 0.0501426
197.279 1.99384 0.0493652
223.877 2.23343 0.0574132
187.95 2.01522 0.0543167
184.615 2.07125 0.0581067
193.045 2.23315 0.0578353
209.856 2.51392 0.064598
190.051 2.37514 0.0626407
191.85 2.57648 0.0669666
185.05 2.48708 0.0742009
192 2.66687 0.0696992
193.542 2.81565 0.0729041
184.788 2.84681 0.0717965
194.251 3.03764 0.0817583
190.689 3.05196 0.0798962
178.09 2.99092 0.0866815
168.443 2.90444 0.0812309
172.367 3.14177 0.0913197
163.925 3.01903 0.0859266
184.879 3.45146 0.103839
180.86 3.58016 0.102626
181.123 3.8049 0.113744
168.957 3.56223 0.101849
171.678 3.62154 0.115034
156.212 3.44837 0.115943
163.038 3.80133 0.128019
193.157 4.71113 0.14606
164.324 3.93629 0.139439
170.171 4.28534 0.148077
138.948 3.58002 0.129462
169.824 4.47524 0.157369
157.067 4.23889 0.156363
171.842 4.72939 0.16753
155 4.31161 0.155026
154.343 4.52787 0.159646
150.361 4.51231 0.174682
151.514 4.68294 0.188005
153.827 4.88708 0.185
173.138 5.51315 0.216564
134.991 4.47229 0.17432
156.086 5.27052 0.21456
144.115 5.03337 0.204255
144.613 5.268 0.234145
143.675 5.3434 0.233703
142.821 5.4054 0.236962
162.37 6.18955 0.291551
138.417 5.45994 0.246872
131.606 5.28569 0.242713
140.169 5.59805 0.269582
133.35 5.54926 0.272158
217.281 9.45356 0.425807
129.331 5.46115 0.280016
133.59 5.89718 0.305595
132.708 6.02856 0.321317
139.726 6.32116 0.330286
147.945 7.12379 0.38614
157.941 7.79322 0.407009
131.277 6.36206 0.346951
143.64 7.0771 0.389339
115.113 5.93669 0.344277
124.872 6.49942 0.377216
126.812 6.78961 0.407656
140.094 7.6062 0.453334
120.46 6.62267 0.410007
135.646 7.7101 0.469162
130.737 7.33289 0.454112
113.88 6.57592 0.413779
132.897 7.90904 0.506386
152.783 9.24748 0.581311
128.291 7.78289 0.504822
124.613 7.76753 0.535689
131.997 8.33237 0.570173
119.553 7.72921 0.540214
129.013 8.52062 0.604761
135.138 9.11154 0.641039
121.708 8.36921 0.600288
130.182 9.02479 0.656453
119.493 8.36761 0.608431
121.915 8.72039 0.657031
112.002 8.25055 0.649487
149.643 11.076 0.858065
121.384 9.0546 0.71801
122.143 9.18326 0.721487
115.328 8.89534 0.725616
107.308 8.2027 0.679299
124.125 9.8752 0.829299
134.148 10.882 0.921502
108.559 8.92422 0.781441
109.74 9.24479 0.832623
104.394 8.88465 0.812002
114.121 9.95327 0.892389
110.569 9.73302 0.896091
108.932 9.37273 0.869731
109.631 9.90775 0.941446
117.392 10.7825 1.02671
110.787 10.2404 0.984469
108.066 9.96374 0.966624
107.189 10.1507 1.00263
123.917 12.1156 1.22723
111.185 10.5617 1.03321
104.852 10.4117 1.05573
104.011 10.3889 1.08718
107.414 10.9708 1.1697
100.833 10.2454 1.111
126.597 13.1116 1.42493
101.679 10.8727 1.22254
110.924 11.7075 1.29064
96.1032 10.5444 1.18323
102.033 11.1341 1.28203
104.574 11.9184 1.38875
119.492 13.5708 1.54965
100.123 11.491 1.37543
96.3628 11.1329 1.33986
98.5023 11.4439 1.39986
98.9738 11.3813 1.38221
111.129 13.6047 1.70096
98.3579 11.9058 1.45595
98.9092 12.342 1.5738
94.6781 12.0146 1.53619
102.359 12.9953 1.70344
98.2252 12.5247 1.63268
92.3548 11.9732 1.5931
104.993 14.1197 1.92371
102.323 13.5473 1.79438
101.45 13.4631 1.85069
92.1284 12.2858 1.69126
86.5812 11.95 1.69895
88.1039 12.4518 1.79975
103.155 14.3653 2.03839
97.623 13.8016 1.98347
87.2701 12.2966 1.7884
87.0947 12.8961 1.91877
98.6946 14.4789 2.19053
89.7662 13.6931 2.10502
99.037 14.8646 2.23416
82.93 12.5204 1.93432
85.9649 13.3041 2.09827
85.4317 13.2102 2.09359
83.0419 13.2043 2.10706
100.296 15.7651 2.48844
92.6805 15.0433 2.48637
85.0656 13.6482 2.23602
82.4042 13.2381 2.20194
94.0362 15.7308 2.66664
85.8605 14.2631 2.45078
80.8589 14.013 2.47596
133.759 23.2556 3.94982
90.1672 15.6624 2.7738
82.4727 14.1932 2.52411
88.7675 15.6496 2.7815
86.0016 15.2146 2.73431
81.1899 14.5156 2.64798
86.6346 15.7953 2.92575
86.8588 15.8968 2.97331
83.3741 15.3412 2.85865
74.9486 14.0447 2.67027
81.9547 15.2742 2.89676
80.7001 15.5232 3.06746
87.4351 16.6487 3.26649
80.6806 15.8651 3.11172
77.1016 15.107 3.0176
78.2712 15.256 3.00064
75.1853 15.1733 3.08109
77.8978 15.9393 3.30052
84.4777 16.9809 3.45152
73.371 15.2244 3.20026
72.2369 15.1998 3.18728
70.4922 15.0257 3.22508
71.5617 15.0846 3.25791
76.3835 16.4438 3.60846
75.4037 16.2952 3.56295
74.9136 16.322 3.58968
75.2017 16.5156 3.72016
67.2825 14.8844 3.374
75.1173 17.0418 3.8032
71.553 16.1269 3.69225
74.7587 17.2613 3.99525
78.7721 18.0648 4.16087
65.5201 15.4449 3.72043
72.4674 16.5616 3.89139
73.1796 17.4056 4.17223
68.7755 16.8762 4.19139
74.4005 17.8632 4.40828
70.01 16.7842 4.07315
75.5303 18.3567 4.51429
67.9667 16.6884 4.14481
63.927 16.0694 4.13393
76.4813 19.4658 4.90835
74.5389 18.7664 4.80132
66.1995 16.9046 4.40687
69.9717 17.8892 4.60977
65.9824 17.5436 4.6282
68.093 17.7139 4.70512
66.6015 18.0778 4.95058
74.985 19.2544 5.03335
69.6433 18.534 4.9655
68.5039 18.4927 5.09711
71.3163 19.3794 5.37741
65.9929 18.3626 5.17673
66.8682 18.0093 5.02815
68.1478 18.9124 5.23512
62.5519 17.6574 5.02159
62.1179 17.5132 4.98838
68.8747 19.6852 5.67818
65.2032 18.5605 5.36051
62.698 18.186 5.28471
63.1973 18.775 5.5797
61.1825 18.1176 5.42418
62.2302 18.3701 5.5778
67.1656 19.6105 5.83732
57.5707 17.5144 5.4526
63.9021 19.4789 6.02961
66.6757 19.6819 5.94218
60.4484 18.3768 5.64393
62.232 19.548 6.10573
53.7767 17.0907 5.51049
55.1348 17.2733 5.48485
60.2966 19.3505 6.24206
63.16 20.0825 6.45568
55.5979 17.9878 5.88962
64.9942 21.0174 6.89641
59.6352 19.2168 6.26458
60.1213 19.9432 6.69783
61.5613 20.0836 6.68962
57.4256 19.8488 6.88006
60.2612 19.8444 6.63884
58.3384 19.4008 6.57825
53.0515 18.4091 6.40913
57.2995 19.4541 6.66013
51.7082 17.9733 6.46284
55.2216 19.188 6.72901
54.5122 18.7577 6.58387
54.5896 19.4081 6.97201
48.2721 17.1859 6.26003
55.8687 19.8091 7.11417
50.0981 18.1215 6.60766
57.8217 21.4795 8.01243
48.3149 17.58 6.52907
56.5108 20.5533 7.5369
52.2731 19.6426 7.48499
53.4676 19.8131 7.51032
52.891 20.3349 8.06937
84.642 31.5431 11.5606
54.5675 21.0742 8.34429
55.9701 20.8126 7.95601
53.264 20.7308 8.12387
48.6039 18.5635 7.28585
54.9594 21.6878 8.61239
52.6112 20.5898 8.16569
51.998 20.8659 8.52506
49.7109 19.5148 7.85257
53.7177 21.4685 8.58726
51.4847 20.6192 8.17731
47.4283 19.9963 8.53374
53.3067 21.2527 8.60644
48.634 19.9612 8.23216
50.1458 21.0155 8.82071
48.7465 20.0192 8.27639
46.9498 20.0928 8.6443
47.9672 20.0116 8.53351
48.1697 20.1239 8.51237
43.8515 18.7468 8.09993
45.3037 19.7095 8.64304
42.743 17.9682 7.68221
47.8477 21.597 9.76835
44.5909 18.9969 8.3303
47.0893 21.3641 9.80145
47.3395 20.3282 8.9058
45.7964 20.5413 9.37681
46.6301 20.8184 9.46534
46.0493 20.4154 9.21011
45.7611 20.8967 9.56354
44.3232 20.4323 9.51349
43.0071 19.5121 9.04971
44.9726 20.9159 9.75107
43.3145 20.2969 9.5445
44.5467 20.9266 9.89586
44.9624 21.4951 10.2473
42.9027 20.2415 9.61436
41.3428 20.2556 9.93983
41.9595 20.6153 10.1855
44.0162 21.0128 10.1321
47.1874 22.8542 11.0942
43.5285 21.1711 10.4493
43.3013 21.6907 10.8527
42.963 21.4712 10.75
39.5674 19.2802 9.71332
38.8859 19.7899 10.0411
42.0391 21.6015 11.037
43.6227 22.1222 11.2866
38.3865 19.2513 9.8448
40.6229 20.9786 10.8135
38.3608 19.7589 10.2562
40.0923 20.9404 11.0341
42.1483 21.7446 11.2579
41.7764 22.3547 11.9966
40.7083 21.5887 11.6685
39.1602 20.4454 10.8346
42.1113 22.4074 11.8761
40.4617 21.8539 11.8562
38.1999 20.5328 11.0081
35.7896 19.5858 10.8351
37.5498 20.6303 11.427
36.7725 19.8134 10.805
40.4856 22.3064 12.2342
38.0859 21.5272 12.1579
38.6502 21.3607 11.9606
37.9625 21.2814 12.0183
40.7844 23.2372 13.378
37.1243 20.9238 11.9662
40.267 23.324 13.4678
37.9375 21.1525 12.1038
35.9584 20.5239 11.9118
35.1087 20.112 11.7447
37.2026 21.5945 12.7221
38.2404 21.9588 12.5915
34.5704 20.2143 11.826
34.7659 20.9091 12.6245
33.4151 19.7827 11.8597
34.8793 21.5717 13.264
36.2354 21.6443 13.1117
35.7543 21.0234 12.6519
35.7593 22.129 13.6345
34.6257 20.6742 12.6383
32.5512 19.6007 11.9663
33.5718 20.8227 12.8526
34.1663 21.1577 13.1843
33.7823 21.1093 13.3964
34.4734 21.714 13.7276
32.1317 19.9788 12.6602
32.1849 20.1766 12.818
30.9625 19.3574 12.1414
31.552 20.3104 13.2176
35.9875 23.5262 15.2926
34.7023 22.3336 14.4777
32.0129 20.0627 12.9162
30.5857 20.4613 13.7304
33.3504 22.1062 15.3178
52.2642 33.3355 20.6371
29.9008 19.6912 13.3233
31.7106 21.2857 14.4139
31.6302 20.8809 14.01
31.0924 20.7972 13.9955
32.0352 21.3611 14.4364
31.6352 20.9108 14.1388
29.5346 20.5581 14.3639
30.9372 20.7039 13.9286
29.808 20.9357 14.8527
31.3136 21.9969 15.6786
30.0096 19.7662 13.3433
30.2874 21.0883 14.9768
30.0304 20.6691 14.5072
30.9272 21.9952 15.7966
30.6601 21.3322 15.0441
29.6813 20.8683 15.1172
29.4554 20.3847 14.5033
30.3741 22.5832 16.4162
28.2282 19.776 14.3304
32.7809 23.4195 16.5118
26.2289 19.2118 14.2095
28.0908 20.6739 15.4222
29.0916 21.3505 15.7721
29.8566 21.7935 16.1489
28.7321 20.8131 15.1884
25.6967 19.7114 15.2437
26.5446 18.7664 13.8041
27.741 20.8364 15.6924
26.769 19.9853 15.0049
27.4926 21.1672 16.6754
30.1379 22.3212 16.6518
26.9867 20.8071 16.3568
30.4846 23.0088 17.6551
27.9847 21.0313 16.1303
26.4438 20.6185 16.2062
26.9863 20.9662 16.4237
27.4687 21.5656 17.1543
29.8351 22.9339 17.7563
27.7871 22.0537 17.627
28.2693 22.2938 17.838
25.5592 19.7214 15.6701
26.0351 21.0304 17.1176
26.3039 20.1635 15.8627
28.4351 22.9605 18.1461
26.8756 22.2993 18.1973
26.1266 21.2831 17.2433
24.7928 20.2666 16.8567
26.6611 21.6867 17.9831
27.8814 22.5357 18.3322
24.994 20.841 17.649
25.0951 20.1415 16.5854
24.8678 20.5972 17.0773
24.2765 20.5349 17.5755
25.3934 21.7506 18.9428
27.7556 23.1144 19.3393
24.5621 20.2952 17.0273
26.0086 22.2187 19.2128
26.6364 22.5492 19.2781
22.9127 19.6094 17.2891
23.6503 20.0296 17.2015
23.1191 20.4556 18.1019
24.6617 20.7043 17.7472
24.5411 21.4097 19.0255
24.8428 21.2421 18.1638
24.4706 22.2455 20.2494
22.8897 20.4292 18.4241
23.5293 20.9571 19.2056
25.5048 22.1913 19.5857
24.1312 20.5598 17.7266
22.4666 20.6193 18.8205
22.9524 20.5014 18.5738
22.0228 20.2476 19.0635
24.3841 22.199 20.1583
24.009 21.641 19.6954
21.567 19.3933 17.962
22.8689 21.2381 19.7299
23.153 20.7336 18.819
24.2155 22.6952 20.8302
22.5409 21.6211 20.9457
24.6274 22.3188 20.4098
23.8756 22.7042 21.5458
21.7963 20.584 19.7708
22.8892 21.3378 20.248
24.1363 23.2044 22.3997
21.8343 19.9101 18.8043
20.953 19.9977 19.5064
22.4053 21.2174 20.3262
23.0922 22.2152 21.2
22.2875 21.7296 21.2741
21.4629 20.2769 19.611
20.6922 20.6228 20.9931
22.7041 22.2894 21.8658
21.7107 20.9446 20.5764
21.6406 21.7599 22.2883
22.8443 23.2803 25.1861
36.624 34.2686 30.9032
22.2332 22.2173 22.7338
23.7043 23.8131 23.3581
19.0469 19.3596 20.0721
20.1939 19.7773 19.8324
21.4264 22.1668 23.0089
23.9005 24.7112 25.6339
22.1376 21.1249 20.929
21.1454 21.6763 21.9628
20.5971 21.5922 22.7329
19.9531 20.4833 21.6275
20.6804 21.4406 22.1761
19.9019 20.6913 21.8796
21.6304 22.4516 23.4253
20.7155 20.8315 20.9221
19.0287 20.8172 22.854
20.9413 21.8918 23.5025
20.1284 20.8876 22.0119
20.6826 22.1016 23.9677
20.7529 22.1503 23.6515
19.8317 20.7591 22.0686
19.1797 21.334 24.1149
20.8323 21.8539 23.4062
18.2244 19.775 21.8749
19.481 20.9065 22.6935
18.4804 19.8258 21.7498
18.6319 19.9112 21.3862
18.9109 20.5363 22.3601
19.0845 21.1765 23.4724
18.7796 21.0071 23.6173
18.4844 20.0185 22.2096
17.7336 19.828 22.1936
17.5333 18.9986 21.2979
18.8749 21.7065 24.3003
16.8944 18.8441 21.4951
18.3714 20.7904 23.558
17.6739 19.5414 22.6873
18.6662 21.6767 25.4017
19.7228 21.4639 23.8496
18.6833 21.1244 23.9853
18.8324 21.0976 23.881
18.0564 21.0557 24.4198
18.1019 20.972 24.345
18.7944 21.7076 24.7093
16.2462 19.2964 23.3326
17.0863 19.6013 22.9243
17.3013 20.7472 24.8985
17.221 19.9587 23.5992
18.2722 21.4809 25.2946
16.7439 18.9936 22.1922
16.5757 19.9697 24.1155
16.5137 18.954 22.255
16.7189 20.0646 24.218
17.6481 21.5296 26.408
17.7816 20.7627 24.3961
17.388 21.5861 26.2813
17.156 20.8142 25.2587
14.6934 17.7052 22.3554
15.2841 18.1455 22.827
16.0301 19.4132 23.8227
16.5062 20.2852 25.2488
17.3832 21.1328 26.1194
17.53 21.2552 25.9208
16.6856 20.6192 25.3885
16.4636 20.7646 26.543
16.4577 19.8979 24.5258
15.6931 19.7565 24.803
15.851 19.6053 24.213
15.2686 19.6001 25.4262
16.2646 20.0273 25.3853
15.6594 19.9997 25.3951
15.6486 20.2495 26.3405
15.6259 20.1921 26.3439
16.9838 21.3545 26.7912
15.067 19.6607 25.8973
15.4013 19.101 24.5356
15.3293 19.4807 25.0651
15.0077 19.6783 25.2951
15.4679 20.3472 26.5353
15.3412 20.2172 26.8498
14.3942 18.8611 25.5139
15.8675 20.8769 28.0888
16.0221 20.2027 26.1719
15.9292 20.9153 27.1442
15.5772 20.4069 26.5174
15.4461 21.3019 28.7407
14.5674 19.5705 26.8932
16.0072 21.1402 28.2057
14.8138 19.9978 26.9136
13.9153 18.7475 26.8033
16.6143 21.5837 27.9387
15.5336 21.4998 29.484
15.6356 20.6552 27.907
14.5967 19.2903 26.3848
14.9962 21.2487 29.414
14.0653 19.6327 30.1304
21.9399 28.7423 35.2586
14.5864 20.1899 27.9532
13.8183 19.0757 26.8977
14.3107 20.1363 28.0457
13.3804 19.2005 28.7797
15.4502 20.3991 27.4397
14.4744 20.4672 29.3091
14.0436 19.0547 26.4089
13.6527 19.064 27.0679
13.6111 18.4397 25.7465
14.0596 19.85 28.0143
13.9327 19.817 28.3154
12.9583 17.7102 24.8054
13.0555 19.1132 27.3778
12.2882 17.8105 26.2026
12.8808 18.2064 26.6091
14.1995 20.2156 28.2526
12.7185 19.2001 29.5301
14.1449 19.6947 27.9032
12.4746 17.6389 25.9513
13.586 20.006 28.9983
12.8931 18.6562 26.9392
13.2968 20.0409 30.4984
13.3672 19.445 28.8408
12.0986 17.7136 26.5363
12.4422 18.0717 27.9297
13.6124 19.9804 29.8013
13.5473 19.6876 28.8385
13.7276 20.1162 29.7034
13.1597 20.0439 30.5439
13.6552 20.283 30.6492
13.7079 20.2265 29.88
12.6113 19.507 30.4032
12.6058 18.3457 27.303
12.0682 18.2697 28.5002
12.5531 18.5194 27.898
11.8107 17.4116 26.5127
12.7863 19.6819 29.7804
11.6094 17.8888 28.0932
11.9895 18.8245 29.9919
12.6592 18.2818 27.6216
12.2115 18.7253 28.8565
13.0137 20.1211 30.7196
12.1073 18.7043 29.3687
12.1555 18.7596 28.8504
11.5227 18.1096 28.7994
11.307 18.0276 29.2519
11.7192 18.2984 29.5272
12.4268 18.9778 29.2487
11.1408 17.7729 28.7177
11.1162 17.3954 28.4691
11.9788 18.3509 28.6131
11.3255 17.9454 28.8534
11.2244 18.07 29.9558
13.0015 20.6061 32.306
11.9542 19.1287 30.8464
11.5924 18.3403 29.6171
11.316 17.4117 28.0198
11.4565 18.7043 30.3589
11.5931 18.7583 31.2069
12.3889 19.7889 31.7632
11.2197 18.231 29.9577
10.8326 17.0816 28.4592
11.3007 17.5631 27.5889
11.475 19.5425 31.9893
10.6973 17.7496 30.376
11.7069 19.2703 31.7291
10.953 18.1655 31.0008
11.5872 19.3884 32.5308
11.4769 18.4372 30.3934
10.5743 17.4574 30.0256
11.7854 20.0451 33.6103
11.0883 18.1707 30.6023
11.0792 18.103 29.4406
9.98899 17.7881 31.2821
10.2284 17.043 29.9884
10.8692 17.7374 30.0219
10.9392 18.3942 30.6696
10.3642 17.8062 31.607
11.3549 19.2378 32.2227
10.8317 19.0562 33.5338
10.2623 17.2127 30.4533
10.2397 17.0013 29.9631
10.9313 18.3695 30.9628
10.4792 17.9404 31.1764
10.7699 18.0512 30.2322
10.4374 18.3999 32.7091
10.8281 18.5861 31.7963
10.2334 18.3346 33.3412
10.1704 17.1384 30.4415
10.349 17.8102 31.221
10.0949 17.7472 32.0321
10.5321 18.4587 32.975
10.1697 17.5238 31.4242
10.38 18.5806 34.2633
10.7738 18.8772 37.8668
16.4927 27.5697 41.0973
9.8425 18.1679 32.9821
10.2367 18.5117 33.2915
9.95185 17.7282 31.4045
9.95278 17.7766 32.327
10.7859 20.1862 36.4603
10.1819 18.1743 33.0423
10.2477 18.8244 34.0561
9.73841 18.0422 34.2108
10.0726 18.0626 33.4166
9.75187 17.0082 30.7474
8.78091 15.7427 29.7664
9.80931 18.5773 34.0277
9.52405 17.3681 33.0874
9.47963 16.6075 30.5569
9.38051 17.4007 32.5683
9.37241 16.438 30.1144
9.18593 17.1221 32.3826
9.57817 17.3067 32.3243
9.44633 17.0633 31.8182
9.83837 18.1463 32.596
9.09636 16.8834 31.0805
9.05639 17.3562 33.1635
9.40079 17.7971 33.3764
8.96347 16.9706 32.9737
8.65445 15.9932 31.4067
8.73128 16.412 32.5242
9.35271 16.9984 32.312
9.14742 16.4462 30.7603
9.32525 17.9019 33.6011
8.8915 16.6955 32.3894
9.14433 16.8404 31.334
8.92601 17.4946 33.4802
8.87472 17.4648 33.9726
8.80548 16.8573 33.0694
8.68168 16.5962 32.9135
9.41647 18.1319 34.849
8.79495 16.8596 34.5508
9.56922 17.7638 33.9385
9.50857 18.8004 36.1513
8.80868 16.6391 32.3757
8.52951 16.5335 33.17
9.13087 17.6215 33.4777
9.12029 17.9881 35.087
8.48585 16.3132 32.0951
8.19882 15.907 31.2086
8.38853 17.1044 34.0146
8.37142 16.6138 34.635
9.75044 19.7603 39.6501
8.75277 16.3554 32.8705
8.50319 16.3562 32.7197
8.40808 16.5282 32.4936
8.20846 16.447 33.1445
8.27487 16.5401 33.0347
8.16352 16.9065 34.5676
8.21514 16.287 32.7643
7.91156 16.52 35.5657
8.84613 17.0896 32.3133
7.73736 16.5854 35.0789
8.06426 15.3752 31.4688
8.10646 16.647 34.6974
8.30249 16.2665 32.3943
7.96617 16.6612 34.5588
7.97495 16.5042 34.2599
8.22179 17.3374 36.2745
8.04723 15.6944 32.4518
7.97068 16.2801 32.5654
7.53861 15.9407 34.3927
8.03308 16.2118 33.6733
7.98655 16.3677 33.3437
7.30253 15.4666 34.0886
7.67082 15.0751 31.6901
7.89973 16.0639 32.272
7.23325 15.7047 34.8267
7.945 15.851 33.0121
7.69585 16.2525 33.6997
7.1967 15.1073 32.3427
6.94571 14.7666 32.8262
7.90422 16.1991 33.7558
7.13276 14.5505 31.0859
7.17484 15.088 32.2952
7.81403 16.8083 35.7436
7.94886 17.1268 35.9042
7.11325 14.8395 32.5335
7.46964 15.9663 33.833
6.94632 14.594 32.9564
7.43582 15.7307 34.6687
7.58139 15.7511 32.8943
6.94309 15.3731 34.695
7.8316 16.1824 33.894
7.18135 15.1997 32.5608
6.94347 15.1779 33.7374
7.40541 16.4448 36.5359
7.43991 15.6968 34.0194
7.04013 15.9829 35.4971
6.71233 16.1107 46.3569
12.3812 23.9789 41.554
6.93871 15.6767 35.5359
7.14593 15.6162 35.2615
7.29227 15.784 35.6037
7.73773 16.8223 35.7108
6.92248 15.513 35.7672
7.3189 15.5757 34.81
7.8727 17.3618 38.2568
7.55952 16.1441 33.6249
6.64639 15.8472 38.0542
7.54402 15.4968 34.0765
6.87757 15.2809 33.6447
6.84322 15.511 34.5541
6.87876 15.3412 34.1418
6.59773 15.1711 36.6335
7.26939 15.5816 34.7969
6.95454 15.743 34.7664
6.92662 16.1919 37.7443
6.88227 15.2038 34.9949
6.53502 14.3509 31.9402
6.29727 14.9499 35.5743
6.91191 15.347 34.8226
6.43486 14.6119 33.6299
6.46911 14.5031 34.2431
6.83938 15.8965 36.8185
6.45048 14.0877 31.8939
5.95867 13.8412 33.7922
6.51228 14.6304 34.0095
7.05343 16.6474 37.2481
6.4002 14.6838 34.9363
6.30723 14.1338 31.9781
6.14284 14.5519 33.8542
5.93887 14.3277 35.414
6.49173 14.6489 35.4157
6.7402 15.2753 36.1931
6.57085 14.0311 31.0954
6.03693 14.7541 35.1202
6.12336 14.1368 33.9394
6.45202 15.0373 36.2123
6.29072 13.6361 32.1339
6.20775 14.995 34.5211
5.91412 14.0998 34.4906
6.11846 14.2445 34.764
6.40937 14.6494 35.4413
6.46186 15.2288 36.1979
6.28714 13.9367 31.9932
5.87298 13.9313 33.4223
6.14498 15.496 37.5767
6.46383 15.256 35.8492
6.04739 14.4931 35.8886
6.39012 14.8826 34.9102
5.69107 13.7929 35.0134
6.04588 13.7353 33.8637
6.40004 14.5657 33.9067
6.11732 15.0056 35.6868
6.04955 14.7941 35.9017
6.11368 14.7928 36.691
6.09358 14.0408 33.5719
