# pn-170911/RbIIR-53-USN7-1280-1959.psd
# Power spectrum* (dif=0,1,2) (really just |FT|^2)
# NOTE: only the first half! (symmetric)
# weeks: 1280-1959
# 189 clock-days, 347 excluded
# PSD: 1441
1599.27 0.124744 0.10004
28907.5 0.672241 0.215134
202032 4.29897 0.246747
16678.3 0.599927 0.231562
59027.9 4.38216 0.231453
5174.26 0.619138 0.228343
6722.2 0.992527 0.207159
3233.91 0.667893 0.206292
4368.09 1.28138 0.213579
2192.94 0.830898 0.224385
2223.6 0.949206 0.210835
1646.15 0.840154 0.213241
1734.08 1.10448 0.193034
1373.04 0.937032 0.197926
1265.43 1.05761 0.191251
1075.33 1.11614 0.222304
1110.97 1.30337 0.216267
904.037 1.26293 0.185946
1023.82 1.51075 0.205424
1012.1 1.7166 0.204601
1017.43 1.82983 0.210413
932.824 1.9081 0.193153
996.107 2.11098 0.227506
900.539 2.07412 0.242252
911.255 2.3887 0.217242
1053.52 3.08605 0.224389
884.204 2.78166 0.235482
769.801 2.64499 0.225695
936.763 3.40129 0.205643
869.997 3.19531 0.211836
942.344 3.92574 0.267048
829.72 3.69028 0.225758
932.497 4.51157 0.247411
850.754 4.21688 0.240069
878.49 4.57785 0.275713
962.968 5.52393 0.229641
732.271 4.55233 0.27253
867.804 5.48989 0.292947
885.612 6.01158 0.26019
867.376 5.95026 0.265897
883.978 6.59364 0.271649
780.2 6.13119 0.235765
739.509 6.12759 0.269706
891.806 7.54942 0.242599
782.042 7.26016 0.27768
909.902 8.59172 0.297177
752.112 7.39736 0.280632
876.268 8.85981 0.341707
788.276 8.21227 0.294587
688.312 8.10206 0.304879
763.498 8.87183 0.275489
814.678 9.9396 0.363825
814.647 10.6449 0.362771
776.874 10.1572 0.354192
730.166 10.3983 0.35403
823.232 11.8767 0.369546
673.881 10.0153 0.337106
739.093 11.7365 0.371705
798.429 12.6675 0.387185
691.939 11.0126 0.413091
779.179 13.09 0.449898
761.393 13.5476 0.452737
797.394 14.4132 0.49128
624.72 11.3847 0.444138
717.813 14.0274 0.513341
637.425 12.9641 0.468428
643.899 12.9624 0.419918
619.864 13.158 0.489086
672.708 14.6375 0.495905
621.823 13.9948 0.568755
566.601 12.79 0.504455
659.493 15.5189 0.543293
617.913 14.9386 0.651813
634.358 16.127 0.613832
583.448 14.88 0.629344
557.376 15.0698 0.562055
481.472 12.6033 0.493688
602.471 16.9282 0.640379
667.792 18.9948 0.784939
517.307 15.3057 0.684809
506.023 15.2705 0.681062
469.429 14.4475 0.678371
499.179 16.0141 0.786745
590.341 19.0826 0.817245
512.818 17.38 0.795413
529.496 18.1185 0.887618
496.538 17.0227 0.742078
491.289 17.7266 0.765407
422.087 15.5727 0.762223
431.923 16.2837 0.839072
438.284 16.4397 0.812089
501.296 19.6487 0.884355
452.385 18.3267 0.866708
364.593 14.9852 0.774495
438.29 18.0736 1.00816
415.499 17.8279 0.934459
387.789 16.7242 0.906837
329.538 14.6439 0.869093
377.633 16.786 0.999613
353.8 16.4061 0.909641
377.902 17.9194 1.01677
341.159 16.4964 1.01643
348.651 17.0013 1.03777
356.641 16.9657 1.01991
331.938 16.9304 1.01463
353.859 18.7954 1.22913
352.897 18.6404 1.1584
377.755 19.99 1.34985
356.318 18.6444 1.18857
367.302 20.2856 1.29845
390.479 22.5035 1.50042
327.408 19.0703 1.30784
288 16.5002 1.14256
335.411 19.6767 1.46613
345.231 20.7337 1.45675
304.596 18.4269 1.31216
311.677 19.8299 1.31148
270.449 17.0642 1.27838
322.351 20.7745 1.54976
277.049 18.3023 1.33479
279.996 18.5925 1.47216
305.808 20.9296 1.51465
257.796 17.7211 1.46867
282.221 20.0611 1.42518
302.922 22.177 1.78229
306.835 21.9646 1.86827
288.686 21.6511 1.75882
267.793 19.908 1.64538
261.164 20.2936 1.69263
252.985 19.7952 1.69995
215.443 16.7804 1.52056
268.718 21.6469 1.89503
236.831 19.6419 1.77378
237.722 19.4745 1.83338
211.746 17.3512 1.61526
219.247 18.7866 1.94866
245.004 20.7455 1.92404
275.72 24.2791 2.26874
236.692 21.0767 1.86283
235.886 20.9063 2.16109
195.217 17.9293 1.73327
194.129 17.9243 1.85764
207.434 19.1204 2.01151
202.199 19.4304 2.02812
240.972 23.9548 2.42768
218.324 20.2507 2.10656
205.275 20.534 2.24953
233.156 22.8978 2.53568
205.76 21.0554 2.31028
189.348 19.84 2.32669
174.118 18.2515 2.04234
215.142 22.6152 2.43181
194.694 20.7997 2.40131
207.884 22.1408 2.43641
179.506 19.9133 2.37494
196.875 22.3655 2.62886
193.573 21.9842 2.71669
170.778 19.7495 2.44085
188.411 22.3216 2.77482
160.317 18.5813 2.32543
165.492 19.9457 2.5222
187.141 22.2056 2.82832
161.975 18.8616 2.36152
159.73 19.967 2.64155
164.842 21.2315 2.81918
153.351 18.7671 2.47783
162.002 20.837 2.81182
178.014 23.778 3.17086
177.003 22.1471 2.99527
186.711 23.9008 3.17469
155.963 20.5355 2.88955
163.786 21.3795 2.90967
136.355 19.2589 2.76992
149.269 20.7647 2.98211
177.134 24.6607 3.49693
167.975 23.2868 3.47147
140.545 19.8765 2.98111
153.126 21.8194 3.19014
151.174 22.7011 3.46394
168.749 25.571 3.8038
147.647 22.4533 3.49521
142.529 21.3913 3.32876
174.5 26.7488 4.10145
161.319 24.6598 3.88127
122.159 19.0287 3.14491
153.932 24.7864 3.98742
146.564 22.6861 3.69488
126.637 20.2102 3.26485
142.343 22.8328 3.88877
130.862 22.3904 3.9423
132.672 21.1075 3.58231
134.047 23.5688 4.26662
182.331 30.7421 5.25223
131.467 22.2663 4.02176
133.945 23.5662 4.12402
137.968 23.8341 4.33602
137.483 24.2966 4.24775
135.507 24.8446 4.53474
127.964 24.3189 4.41209
121.89 21.7979 4.13812
106.87 19.9593 3.84062
122.119 23.3716 4.33446
128.731 24.6225 4.67656
128.472 24.5204 4.63016
127.538 24.4975 4.82112
138.259 26.5287 5.0719
116.725 22.9107 4.65725
130.186 25.8819 5.12578
119.87 24.8252 5.31356
122.262 24.8964 5.13607
124.479 24.6022 5.0434
125.376 26.1597 5.34212
116.501 24.2473 5.32008
113.83 23.5427 5.28211
109.077 23.3674 5.02044
112.713 25.1732 5.68294
129.317 27.295 5.84462
107.944 23.94 5.13172
113.306 25.0356 5.62044
126.238 27.9755 6.09307
117.115 26.5381 6.07368
88.4061 20.5038 4.89396
126.525 28.5902 6.70444
97.7179 22.5161 5.10662
97.8153 22.6665 5.31598
102.518 23.7683 5.82421
105.985 25.2411 5.97432
109.419 25.8815 6.16703
104.665 25.6448 6.30203
101.304 24.3835 6.25477
101.868 24.3592 6.15923
110.217 26.3044 6.43425
97.667 24.9245 6.57906
115.291 29.115 7.42975
102.248 25.278 6.57494
118.518 29.877 7.91
109.399 27.4852 7.11536
110.72 28.444 7.39728
90.6105 24.4685 6.66366
105.105 26.9183 6.81329
91.8585 24.4168 6.74475
100.951 27.0022 7.05564
87.3828 23.6804 6.58414
89.2036 23.9876 6.80466
102.652 27.6715 7.37859
94.7054 26.5759 7.74277
87.7779 24.3229 6.95486
106.888 28.8071 7.97424
89.0173 25.1841 7.47996
94.8277 27.1065 7.96596
99.062 29.2274 8.60155
113.408 32.3209 9.52774
103.398 30.2662 8.75193
88.4625 26.0441 7.93683
102.863 31.3343 9.32502
82.8047 24.6063 7.87626
95.641 28.3315 8.57857
93.9427 29.3122 9.21293
94.437 27.5362 8.64943
91.2374 27.0267 8.43452
100.311 30.564 9.39272
88.2353 27.8214 8.72593
87.035 26.6492 8.594
87.6685 27.7058 8.96536
110.32 34.1944 10.5062
88.1276 28.4519 9.13198
74.2034 25.05 8.70609
96.013 29.8652 9.63402
91.2881 30.4378 10.1458
80.3245 26.0814 8.74095
88.7023 30.3052 10.4289
95.4537 30.682 10.0389
82.2564 28.5057 9.93194
96.4691 32.924 11.2497
87.1338 29.479 9.92529
76.6922 27.455 9.79693
94.6729 32.8564 11.542
84.957 30.6084 11.0402
92.9636 32.2143 11.1853
69.3322 25.1037 9.36367
89.9196 32.0488 11.656
79.1129 28.4562 10.656
76.9726 28.8029 11.1938
87.8169 31.2962 11.3811
83.2624 30.0108 10.7864
77.2801 28.5306 11.085
71.7848 26.3859 10.3649
70.0362 26.1044 9.97185
94.4376 34.9404 12.8447
68.2591 24.8451 9.42245
74.567 29.341 11.5435
70.6669 26.8625 10.5957
78.8654 30.4585 11.8139
75.3293 29.413 11.8623
71.2114 28.2964 11.5853
75.3158 29.6897 11.5473
66.5507 27.0806 11.5517
77.828 30.152 12.2912
67.0588 27.4788 11.4288
74.2419 28.8493 11.8061
67.6363 27.1699 11.1993
66.2416 27.5648 11.6158
82.2054 33.4238 13.5731
73.2222 30.7779 13.1133
68.617 27.9541 12.277
81.4487 34.3324 14.5337
71.5922 29.1939 12.1536
77.0575 32.9603 14.3718
68.1671 29.1179 12.7881
77.7258 33.9207 14.909
67.6805 30.5129 14.1442
76.0712 32.6524 13.9496
65.2475 29.4291 13.0368
71.8409 31.916 14.4435
57.9457 26.3317 12.2835
65.9844 30.4049 13.7285
60.8522 27.4683 12.745
64.3233 30.4296 14.0983
72.8865 33.3877 15.9929
70.738 31.1229 14.192
66.1627 29.4865 13.3519
64.697 30.7767 14.101
58.9587 27.1936 13.4018
75.6416 35.1064 16.0503
61.5414 29.7259 14.1947
65.4712 29.7946 14.065
66.1898 30.5694 14.4423
57.8807 28.3485 13.8855
66.8827 31.1161 15.2552
67.1692 32.5929 15.8136
70.9547 34.1202 16.4383
57.2812 28.3887 13.9902
63.7002 31.1117 16.468
55.2804 27.3582 14.2295
59.2152 28.49 14.2583
62.2444 32.3501 16.6216
64.8355 32.7328 16.992
62.9979 30.9374 16.236
65.4539 33.3996 17.3561
58.9093 31.0136 16.3063
59.9082 32.2751 17.2766
59.8625 30.1728 15.9955
64.3867 33.6763 17.5618
56.6641 28.8345 15.096
55.7954 31.2837 17.706
62.5719 30.6459 16.1472
57.5097 30.1427 15.4045
57.9066 31.6676 17.2037
60.27 33.3451 18.331
56.8202 32.1473 18.4539
63.0478 33.1482 17.6115
61.3954 32.5652 18.0448
65.3627 34.5296 19.0696
56.2502 30.8549 17.6535
72.9109 40.3017 21.5426
52.3939 31.3703 18.5556
59.5776 34.021 19.8766
54.5583 31.778 18.9709
69.2668 37.4427 20.3026
54.2001 32.4098 19.6347
61.6224 34.5276 20.1051
47.7816 27.2387 15.9411
48.5205 29.4335 18.127
55.6764 31.8394 19.0313
51.0573 29.1394 17.4275
55.1137 31.9624 18.6156
54.4753 32.486 19.4069
49.9139 29.3349 18.0675
51.2762 29.7777 17.771
59.1548 37.4282 22.9236
51.4954 30.7374 19.0799
48.537 29.348 18.5447
59.3618 37.2737 22.9712
56.9241 34.0248 20.7479
54.0672 34.6989 22.2779
52.5272 31.4612 20.1478
53.2573 33.2159 20.5638
54.9141 34.1581 22.2153
54.9474 33.5746 20.9402
49.099 31.5928 20.1093
45.0676 31.4477 21.4392
43.4168 26.9316 17.3601
45.0895 29.5163 19.8909
51.5226 32.4294 20.7506
51.1895 32.1356 20.7407
45.0895 29.3286 19.354
46.6548 30.0297 19.7278
52.1125 34.8808 23.1094
48.1853 33.5622 23.7859
46.0198 27.669 18.1391
53.6299 37.5737 26.0554
53.6568 34.8817 22.8822
43.1036 28.3883 19.5899
54.3898 36.7315 25.193
40.0706 27.376 19.7913
47.8409 31.0835 21.1668
50.5798 34.285 24.3223
46.4298 32.8148 23.8616
52.186 36.0591 25.7721
55.9344 37.5704 25.6938
55.5627 39.725 28.1315
52.0501 35.4054 24.885
47.0352 33.2046 22.9747
43.5734 31.9581 23.9298
45.3109 32.6603 24.4647
45.3699 31.9672 23.5499
49.5182 36.7656 27.1647
52.3504 35.4634 24.6271
48.1638 35.6192 25.8593
45.7228 33.4747 24.7551
41.0012 29.8332 22.2398
45.32 34.6209 26.8066
49.155 35.1425 25.4595
38.5421 29.9502 24.3597
41.7885 30.7903 23.5087
39.4999 28.4912 21.7164
39.705 29.9801 22.5216
44.8329 36.614 28.8254
44.6861 33.8961 26.4907
45.1537 32.3915 24.6782
48.457 37.9344 29.6147
40.2176 30.7924 23.7743
44.3247 33.9537 26.4055
43.9678 33.9794 27.0148
42.4048 33.0271 25.8313
40.0349 33.0958 27.5663
46.1447 36.0841 27.8475
40.8498 33.1036 27.381
47.1528 36.5754 29.4816
44.2654 34.0275 26.7821
44.2097 35.9192 28.4409
44.253 36.5772 29.268
40.0338 33.4748 27.8268
35.938 31.5033 28.6844
41.8994 33.8884 27.4878
47.9824 38.3524 31.6075
39.6443 33.1387 28.3954
42.8553 33.8199 27.3059
37.8154 31.377 26.8452
46.6672 37.9903 30.0017
42.5288 37.8743 32.7529
39.6044 34.1542 30.0498
47.0043 39.4025 33.5608
42.0726 36.8718 32.1645
40.2645 31.8043 26.5884
39.6203 34.3996 30.9008
42.5426 36.7224 31.2308
38.0563 32.7783 29.2779
41.4179 36.3284 31.6497
36.1605 31.8534 28.6731
41.9774 35.9244 32.0158
39.2883 32.656 28.033
37.8452 34.3404 30.8599
34.6573 31.0604 28.7912
37.4285 32.8359 29.3603
37.9433 34.5783 30.9601
33.684 28.8649 26.6663
34.4869 31.0035 28.4866
39.1485 35.892 34.4091
39.2822 32.6431 27.6296
36.0426 32.6191 30.4648
37.3827 34.4845 32.2093
37.6892 32.7602 29.2064
40.9805 38.3479 36.3267
36.6652 33.7446 30.3329
35.3769 32.2549 31.7259
35.2643 32.1267 30.6812
38.335 37.4549 35.8197
38.6401 35.7377 34.0199
36.4569 34.9103 33.4695
32.4419 30.5806 29.8679
39.6261 38.2558 36.4573
40.9226 39.4321 37.647
34.1935 32.0939 30.2643
32.7243 31.2129 30.1902
29.3715 28.6769 29.3586
35.9098 33.6544 32.4819
35.8211 35.5276 35.9522
38.4484 35.8015 34.6125
34.6713 33.9081 34.2707
39.8517 38.9753 37.8388
38.0426 38.6644 38.1891
34.8371 33.5377 34.5696
34.7878 35.2488 36.0624
37.504 36.974 36.5542
35.5893 35.7192 36.4722
33.8925 32.7343 33.4187
33.3182 33.9797 35.6568
37.5246 36.4844 36.5871
33.9141 33.8374 35.268
37.6754 39.4063 40.4992
32.9471 34.622 37.837
34.4517 33.6009 34.5175
31.6971 33.3219 35.2958
31.9346 32.6507 34.844
33.989 33.3075 34.0811
35.1882 37.4619 38.4567
33.2001 33.7687 35.8388
31.6614 35.5929 38.2943
33.8345 35.1371 37.2676
32.4901 33.8828 36.2278
30.0144 33.1419 37.4403
29.3298 28.7903 31.0964
30.1075 30.8333 32.9439
33.061 34.708 36.6706
31.4426 34.3088 37.0977
28.3903 31.8544 36.1974
33.9845 36.6477 39.3827
27.6796 31.493 36.3481
33.5192 36.6873 41.5928
30.9859 31.1568 33.7083
32.3412 34.9253 37.5764
32.4423 36.2027 41.1416
34.1498 36.6868 39.1881
30.4965 32.8756 36.1805
30.514 35.1087 40.7199
30.6727 33.4305 37.4649
31.0167 34.8247 39.7782
33.0437 36.8225 40.7434
30.8904 34.9247 42.1416
31.3407 34.3472 38.9778
30.0045 33.805 38.5984
32.9038 37.8853 44.5655
28.9947 33.203 39.7936
30.9892 34.37 39.4841
27.5115 31.765 37.7294
26.3091 29.8039 35.1292
28.8963 34.016 40.2121
27.2992 32.6897 40.6218
29.6506 33.6432 39.6626
26.1441 29.0327 35.2743
28.3891 34.6705 42.2479
30.8987 34.7486 40.2
27.9042 31.7855 35.7062
26.108 32.3739 39.8731
26.9394 32.8645 39.9122
25.6051 32.183 40.0311
28.0421 33.1858 39.3768
25.0348 31.0335 39.0497
28.0322 32.7757 39.8714
28.0318 33.3381 40.7057
28.3654 35.4509 44.8361
23.523 27.7888 37.0009
28.5153 32.3544 38.1428
26.4977 32.3451 39.5521
24.8958 30.2611 38.1396
29.1686 37.1922 46.0933
25.6774 32.959 43.1713
27.5754 35.1488 44.8023
24.3282 29.2065 38.5619
24.9588 31.0338 39.1256
26.3721 34.1239 43.6336
22.1198 26.1615 34.3515
25.0051 31.4382 40.4705
27.4518 33.8737 43.1561
26.9126 32.4435 40.5614
22.868 28.5859 38.4187
27.1603 33.9727 41.1153
23.6984 32.2089 44.8142
29.8846 35.5083 42.716
23.4663 31.4586 41.9125
20.6496 27.2904 39.6331
25.8055 33.7714 45.5777
27.8127 34.74 45.5013
26.2399 33.4033 43.8418
22.007 27.4481 37.2437
25.4682 33.9772 44.9276
27.3647 35.148 44.3339
21.6951 29.9266 43.2369
24.4538 29.07 37.8874
23.2036 30.4978 40.3065
25.861 38.7061 54.9366
24.3644 30.3895 41.2591
25.0473 35.0751 48.4116
24.955 32.037 44.0679
26.6316 35.2423 47.5337
25.2955 35.413 47.9223
24.4473 33.0076 47.6538
28.717 37.3847 48.7284
25.4348 36.1223 50.6276
22.7206 30.4256 42.5913
24.4213 33.177 44.5796
22.7464 33.0282 48.4721
22.4408 28.5817 40.4997
24.9734 35.7877 50.3596
27.3457 35.3402 46.1692
22.1575 32.2316 47.4942
23.3423 31.9577 45.6448
24.877 35.6574 49.3281
20.1106 29.8738 45.3962
23.7506 32.6163 46.8747
24.2007 33.3848 45.8547
20.98 30.6784 45.3007
18.6235 26.1305 42.3909
23.828 31.8433 42.9789
18.7226 27.6894 41.117
21.1864 30.5093 45.8775
21.2347 29.9731 45.0313
23.7776 33.3605 48.6005
23.4802 32.4439 46.0197
21.6924 33.1013 51.4216
22.8756 31.1245 44.9782
20.5344 29.368 44.6922
21.8496 31.4426 46.0382
21.0252 30.8622 46.8575
20.462 29.66 44.7812
20.9127 27.33 38.1439
19.78 31.0925 48.1026
21.069 30.7404 46.306
22.1359 33.0006 49.1988
21.5504 31.9745 47.9837
19.8391 30.7563 49.0072
23.6795 36.0028 54.8375
20.0638 29.1013 45.7969
20.8266 31.5385 51.6966
22.4947 32.1593 50.9146
22.6328 34.2888 51.4995
23.3475 33.7469 48.4242
21.5945 35.2931 55.5967
19.7205 28.9677 46.2256
22.4563 34.1137 51.7888
20.7482 31.8475 49.6862
19.7443 29.3585 45.1259
20.7302 32.2537 48.7659
20.4373 30.8705 47.5907
20.2129 30.7751 51.3211
19.8925 30.2554 48.076
18.7833 28.7394 46.2336
18.0803 29.0501 48.282
19.8708 30.3427 48.3533
19.406 30.2623 51.5435
22.6931 33.2735 48.8371
18.4337 30.4748 50.3199
19.5842 29.9122 48.2822
18.3439 29.2168 48.5872
19.127 29.4956 46.0916
18.6742 31.4302 52.7319
20.6714 31.6018 50.5239
17.2449 26.9452 45.1782
19.3973 30.6057 47.8345
17.6642 29.0491 51.1641
20.1763 30.6689 49.2061
17.9522 27.9296 45.213
18.7871 31.3397 51.2399
17.5585 30.3854 54.645
18.7428 27.6578 44.7995
18.0295 29.9342 50.1658
17.6564 29.0463 48.3118
18.1795 29.2989 49.1227
17.0311 27.3621 47.4278
18.6498 30.1743 51.07
19.5407 32.5582 53.566
16.199 25.2056 44.5741
18.3301 28.3229 45.0142
17.8445 30.7203 51.7904
16.5066 26.7313 45.6542
17.7177 29.4328 51.0303
17.6959 29.4752 50.784
16.7389 28.888 54.0519
18.2363 27.687 43.956
17.1911 28.8907 50.7417
17.082 30.725 52.961
17.0907 28.3394 52.3169
17.854 27.2122 46.4173
16.663 27.7384 47.4779
16.3901 29.3653 52.7247
15.7338 26.2755 45.8345
16.5965 27.9664 48.5544
16.7121 28.485 47.4765
15.7756 29.6487 55.3595
18.9752 31.5634 53.4922
16.9592 30.3784 57.8275
21.0358 34.7636 56.7314
15.3299 27.0593 48.6546
16.0339 28.5716 52.1694
15.2393 26.562 46.7447
15.969 29.7665 56.3926
15.456 25.5407 45.7114
15.5611 27.5718 51.3501
14.9318 24.5665 43.8528
15.1149 26.8777 49.1778
15.077 24.9445 43.5942
14.0635 26.0361 48.8663
16.543 30.6312 54.5061
15.252 28.6805 55.9034
15.2383 25.9448 48.1144
16.0642 30.5342 58.216
15.3618 24.3405 45.7277
15.6447 27.5151 49.3466
13.881 23.5889 45.2544
15.3219 27.0674 48.8644
14.586 25.8105 49.5736
16.0567 29.1765 52.3896
14.3918 27.0151 54.7487
14.0179 21.3421 37.9
13.9527 25.802 48.636
15.8053 30.1181 53.255
13.4371 24.947 50.2078
14.9502 28.0566 54.2808
14.8901 25.2357 47.3996
15.1321 29.3146 57.1995
15.3735 28.3522 53.4659
15.2439 27.3774 52.1999
16.542 32.3348 58.8668
14.7552 28.4002 55.8201
13.6988 25.7149 52.8843
16.1505 30.3202 55.7397
13.8517 27.4462 59.0744
15.8449 28.1633 54.7997
17.781 32.2313 57.02
13.1157 24.6998 50.5578
12.7756 21.8456 43.8152
13.5176 25.8967 54.042
14.9352 25.4772 46.653
12.9402 25.4122 50.6851
13.6589 25.1057 50.3791
16.3755 31.617 61.8039
13.6508 22.8864 44.5863
13.5797 26.539 57.1787
15.7527 28.1259 54.7233
16.8914 31.7946 59.8022
15.3768 28.2198 53.2349
12.7344 25.4244 51.888
13.8705 25.8049 48.663
13.8546 27.8648 56.5059
14.0033 27.6705 55.9817
13.9664 28.6053 57.6776
14.1899 28.3988 60.0084
14.4281 28.0955 56.6367
14.6235 29.1183 58.6395
15.246 30.4593 66.3332
16.5995 31.1494 60.5909
13.4772 24.8524 51.3009
13.7896 27.9494 58.4138
13.4364 23.2986 47.3566
13.6242 27.1757 54.6381
13.0074 25.2714 52.7021
13.5926 26.0867 53.493
13.3699 26.4206 52.7091
13.3991 27.6608 57.1653
12.9433 25.2559 53.6474
12.7224 24.0142 49.0321
11.9246 23.8623 50.2225
12.5647 26.7885 59.0445
13.6728 25.8328 53.1848
12.8026 25.7665 51.2085
12.4536 25.9592 58.6092
14.5854 27.4733 52.2092
11.6148 25.3623 58.7066
12.9806 24.8071 51.9751
13.889 27.781 55.1958
13.3753 29.012 63.7696
12.478 23.9033 50.3278
13.2354 26.333 53.9503
12.6473 27.5339 57.3494
12.2106 23.935 54.1565
12.449 26.7397 60.4233
13.4728 25.3264 54.3955
11.8247 24.1862 53.9007
13.1023 26.5378 56.2804
12.995 26.4491 56.7806
12.074 26.4842 59.8958
12.7547 25.4256 55.8441
12.6227 26.95 58.3019
12.7136 25.8833 58.9303
12.3214 24.1977 49.4852
10.983 22.9912 49.708
10.6107 20.5133 48.9709
13.3458 28.4418 57.7016
11.4931 25.4888 56.6289
12.3655 25.1974 52.9523
11.0619 24.7117 57.204
10.9222 23.3131 52.8284
10.8084 25.141 60.1615
12.2365 24.5281 55.7093
12.1729 25.7959 59.2901
13.359 26.9656 50.3183
9.56668 23.009 56.5114
12.0103 25.6155 54.7443
11.1133 24.0851 55.1745
11.876 24.492 55.0742
10.8915 23.8589 55.0015
11.6994 25.8248 56.9579
11.5677 25.0604 58.2604
11.7416 22.9493 49.0063
11.4805 25.1666 56.6961
11.6667 24.0567 50.2275
10.0386 23.7565 53.8381
10.9432 24.0564 57.0108
11.239 24.005 53.1246
10.6517 25.0019 55.0481
10.3146 24.5855 60.7357
10.3035 21.6959 57.6313
11.7341 22.3408 48.2853
9.91195 22.6474 58.2885
12.0716 23.2312 48.0877
9.15894 22.3399 56.9547
11.5373 23.1654 49.0765
9.82391 24.1194 62.7174
13.2203 26.8973 58.5461
10.5242 24.0833 59.2201
11.9619 25.0408 52.415
9.87011 25.6579 62.7176
11.1904 25.6728 62.7617
10.1266 20.298 51.1964
11.6673 25.3914 58.2675
10.6128 23.357 57.7664
11.5981 24.0739 49.7566
9.3044 22.0542 55.1168
10.4881 22.9592 53.4739
10.1892 26.2462 67.8099
12.5157 27.4125 61.9359
10.357 23.5573 59.716
11.6985 25.6839 59.5411
10.4395 22.9255 56.2671
11.2538 24.8655 55.9195
9.6459 22.3976 55.0194
10.1445 23.7379 56.3463
10.3049 25.1383 63.572
10.369 21.021 52.4563
10.5723 22.3667 52.4025
10.22 23.8659 57.555
10.607 21.9335 48.3667
9.56778 25.7084 62.0168
9.41936 21.2264 53.4518
9.26224 20.2996 48.5984
9.99367 24.7964 59.6239
9.90739 23.5045 60.5961
11.1854 24.454 57.6499
9.78306 22.8698 56.3531
9.27467 21.3223 55.3353
10.0707 25.2175 65.2814
