# pn-170911/RbIIA-25-RbIIR-1280-1959.psd
# Power spectrum* (dif=0,1,2) (really just |FT|^2)
# NOTE: only the first half! (symmetric)
# weeks: 1280-1959
# 1014 clock-days, 389 excluded
# PSD: 1441
10505 0.239063 0.0212496
574666 14.7913 0.0113817
1.50395e+06 24.8566 0.0115782
370296 12.3005 0.0116198
233466 11.9399 0.0119574
103806 7.00181 0.0119877
72366.7 6.66099 0.0123909
53495.7 6.03761 0.0123292
38262 5.21045 0.013019
30291.6 5.6674 0.0136672
22699.7 5.45732 0.0137927
18940.6 4.97042 0.0142826
16274.6 5.0177 0.0144541
13881.7 4.93042 0.015716
11441.5 5.02115 0.015915
10253.6 4.65165 0.0158285
8331.68 4.83413 0.0178385
7528.55 4.25809 0.0172988
6617 4.82464 0.0191777
6113.62 4.95416 0.0192984
5606.11 4.69639 0.0196887
5082.46 4.7108 0.02063
4671.99 4.76139 0.0216041
4184.71 4.6478 0.0239754
3751.54 4.54125 0.0227161
3658 4.66032 0.0244646
3151.15 4.35551 0.0250459
3182.4 4.82666 0.0281035
2812.09 4.64408 0.030196
2549.69 4.55841 0.0298372
2409.95 4.46898 0.0309553
2421.23 4.81687 0.0330893
2155.36 4.63977 0.0350124
2081.66 4.74476 0.0354593
1969.09 4.74037 0.0377871
1886.25 5.21909 0.0434626
1695.31 4.6335 0.0401063
1662.43 4.76155 0.0427455
1591.56 5.03321 0.0452969
1520.59 4.93886 0.0475433
1476.08 5.15695 0.0495566
1315.46 4.82393 0.0515384
1394.19 5.57969 0.0597643
1187.06 4.79796 0.0539826
1214.49 5.20884 0.0592616
1141.26 5.01652 0.0586105
1096.44 5.48478 0.0693286
1123.83 5.54359 0.069234
977.159 4.94622 0.0663306
993.357 5.58864 0.0760397
965.704 5.53981 0.0787857
923.132 5.83006 0.0819026
902.672 5.64498 0.0849069
897.874 6.20254 0.0964266
827.381 5.50125 0.0873045
840.817 5.89481 0.0971646
761.644 6.02269 0.104508
767.533 5.80159 0.102367
738.052 6.01256 0.11062
714.232 5.92909 0.111418
738.684 6.3752 0.125864
656.266 5.79824 0.110765
670.722 6.41723 0.133014
633.928 6.25867 0.131253
667.552 6.47833 0.136152
619.017 6.60712 0.146194
584.038 6.42338 0.146242
571.595 6.20948 0.145242
539.244 6.31415 0.146423
557 6.83752 0.166907
560.833 6.2209 0.160451
525.664 6.9896 0.177341
516.373 6.57797 0.173986
509.813 7.01949 0.190597
509.739 7.17495 0.204769
454.939 6.65846 0.189283
475.802 6.86123 0.201367
479.03 7.36195 0.218105
458.007 7.12286 0.218464
460.987 7.21643 0.230115
429.265 7.39233 0.236905
429.769 7.64127 0.253937
430.592 7.80462 0.256039
410.038 7.51682 0.262186
387.582 7.34781 0.262371
385.797 7.66069 0.275558
396.382 7.5205 0.282081
360.614 7.31907 0.270159
360.148 7.83235 0.295842
362.894 7.69255 0.300217
367.507 8.01155 0.3207
348.479 7.76971 0.318759
342.94 8.29327 0.346842
346.393 8.62503 0.368868
317.075 7.91372 0.344531
324.78 8.12502 0.361584
330.482 8.73874 0.38821
308.422 8.79303 0.40599
293.261 8.32995 0.397401
299.96 8.41182 0.402996
305.1 8.66909 0.423788
294.48 8.9195 0.445701
298.517 8.94999 0.452158
290.646 9.07584 0.470233
289.709 9.09542 0.473148
290.584 8.78822 0.468677
285.361 9.3616 0.501925
276.35 9.03212 0.509086
285.856 9.59769 0.540288
270.377 9.03819 0.519961
268.235 9.26999 0.539863
267.341 9.6497 0.569904
245.226 9.35847 0.577548
244.979 9.11621 0.570128
257.516 9.65581 0.615207
264.957 10.1594 0.649319
265.602 10.5866 0.687285
233.897 9.7478 0.647423
248.574 10.7782 0.715265
241.317 10.2995 0.702268
245.586 9.911 0.686946
231.346 10.4267 0.742124
235.529 11.15 0.798137
223.204 10.398 0.753836
223.181 10.5475 0.779282
218.591 10.5413 0.793449
225.211 10.8572 0.837361
216.278 10.6128 0.816295
230.729 11.3259 0.888208
218.305 11.4532 0.910541
205.326 10.8593 0.881509
212.729 11.4126 0.938111
210.728 11.3769 0.946993
201.668 11.0048 0.934086
200.218 11.8252 1.01717
198.608 11.474 0.993974
200.296 10.9296 0.966337
190.162 11.3242 1.02419
189.563 11.5131 1.05231
197.36 11.9081 1.10603
186.821 11.8782 1.1084
192.756 11.7843 1.11069
187.547 11.9912 1.15005
183.933 12.2325 1.19861
193.352 12.6686 1.24497
185.766 12.6435 1.26497
182.025 12.0546 1.22839
183.455 12.412 1.28474
186.758 13.1346 1.36893
175.124 12.5565 1.31199
171.18 12.6221 1.34801
180.46 13.5101 1.47104
171.804 12.7478 1.40859
169.139 12.8127 1.44266
182.507 13.9919 1.56765
184.85 14.146 1.63185
171.047 13.4557 1.54918
164.454 13.1721 1.54034
169.709 13.6213 1.61371
166.581 13.7496 1.64786
160.804 13.5139 1.65483
152.157 13.0322 1.60942
153.264 13.111 1.63273
157.985 14.1626 1.78621
150.157 13.3161 1.71045
144.926 13.2761 1.72053
162.674 14.5372 1.89498
142.641 13.5695 1.80166
153.459 14.8144 1.99115
145.213 14.0123 1.89109
151.094 13.9774 1.91021
151.813 14.5263 2.02087
145.447 14.5104 2.01058
143.141 14.1262 2.01819
142.396 14.3853 2.07538
139.928 14.3468 2.08445
146.948 15.453 2.25409
144.004 14.9483 2.22877
137.653 15.6406 2.35885
138.726 15.3171 2.30318
133.142 14.3981 2.21863
133.248 14.4877 2.2371
143.463 15.4191 2.40791
133.634 15.8894 2.51248
135.186 14.9289 2.36478
133.643 15.6545 2.54952
131.77 15.0178 2.44914
133.529 15.5429 2.56866
131.27 16.2415 2.73555
127.183 15.3835 2.58748
132.029 16.151 2.73091
132.82 16.333 2.81958
121.509 16.5125 2.90353
126.151 15.9559 2.79481
119.478 15.8909 2.81902
128.132 16.4708 2.92842
126.172 16.2152 2.92403
125.853 16.5888 3.0186
119.622 17.1696 3.18607
131.533 17.3859 3.26887
120.678 16.5863 3.09584
121.155 17.0249 3.23716
122.223 16.9026 3.24467
113.191 16.5783 3.21554
115.647 16.8767 3.30896
110.951 16.7078 3.28565
110.761 16.4268 3.31478
115.101 17.333 3.48766
112.599 16.3052 3.30585
114.127 17.9313 3.68497
110.276 16.7432 3.46449
108.15 17.0961 3.56529
112.55 17.0491 3.58837
111.153 17.953 3.82249
112.428 18.4408 4.00423
115.87 18.3975 3.99789
109.706 18.2583 3.91656
106.345 17.5698 3.8997
109.061 17.9747 4.00117
101.742 17.4674 3.94254
100.465 17.3092 3.99039
105.963 18.8318 4.31159
104.551 17.7719 4.08058
102.777 17.3004 4.037
103.577 18.7105 4.42194
100.687 18.4367 4.38871
99.1155 17.5991 4.18564
101.089 18.8801 4.52637
97.3204 18.1982 4.40391
101.148 18.8199 4.59442
98.3982 18.6247 4.63012
101.421 19.1841 4.77647
100.444 19.2767 4.84723
98.8391 19.4117 4.93923
96.8699 18.576 4.84033
97.5206 19.3717 4.94043
98.6617 19.9705 5.14546
97.0168 19.5205 5.1532
92.366 18.6844 5.00696
98.3873 20.0543 5.25011
98.4134 20.0804 5.39828
93.2159 19.5984 5.32129
88.6563 18.5032 5.05438
96.6941 20.0985 5.55506
92.5712 19.3232 5.27997
90.3018 19.9623 5.64576
91.047 19.6926 5.50471
89.2669 19.4437 5.45576
86.4586 18.9173 5.49448
91.5924 20.5903 5.87488
90.5494 20.509 6.01919
84.8523 19.4632 5.82096
88.192 19.5864 5.77013
88.0722 20.0771 5.95003
83.1488 19.422 5.75033
85.5248 19.5369 5.96613
83.3454 19.7461 6.03967
84.358 20.7008 6.36599
84.809 20.3663 6.23447
80.013 19.5201 6.09549
79.7966 19.6002 6.24062
83.9206 20.3005 6.45631
84.2436 21.2592 6.71884
82.2375 20.1071 6.4318
85.3137 20.8138 6.70749
74.5577 19.0961 6.23942
81.9798 20.3873 6.69322
76.2668 19.826 6.59098
77.6593 19.8538 6.62024
80.6424 20.4664 6.79839
73.7181 19.1191 6.47815
76.389 20.5701 7.00487
77.4537 20.3214 6.94182
80.9027 21.1808 7.28947
77.3932 21.0543 7.35857
70.6328 19.404 6.78487
68.9455 18.9673 6.80003
77.1428 20.3941 7.14079
72.4261 21.6019 7.68867
75.5819 21.3248 7.7675
76.5865 21.5861 7.78243
76.3583 21.499 7.8064
71.9256 20.7152 7.68684
73.6432 20.7549 7.62036
72.3897 21.0799 7.98413
71.6497 20.5937 7.6703
69.0821 20.3376 7.67107
73.9675 22.0084 8.40236
70.8766 20.5617 7.81982
71.6857 22.5971 8.79619
72.2606 21.025 8.08232
70.5619 21.3903 8.24944
71.2416 22.7681 8.94248
71.1585 21.8293 8.6019
67.0884 21.7512 8.73854
68.373 21.1655 8.53939
67.8681 21.5331 8.65343
68.8218 22.0083 8.92885
67.025 20.9144 8.67959
68.2367 22.2028 9.14647
72.5452 22.5634 9.23023
71.1986 23.703 9.90886
67.0877 21.5639 9.11594
69.61 22.8638 9.60911
64.0017 21.3771 9.03977
68.26 22.8357 9.83818
65.983 22.1469 9.40599
64.3208 21.9006 9.58265
64.6146 21.9795 9.49167
64.4722 22.9419 10.2361
64.7584 22.4338 9.81504
61.1986 21.4894 9.59983
63.7321 22.4139 9.93882
62.1919 22.5385 10.2687
62.4003 22.5018 10.0861
63.719 22.4769 10.2079
63.5678 22.477 10.3041
62.5834 21.9997 10.0138
62.243 22.9092 10.5794
61.5426 22.1528 10.2287
58.982 21.8414 10.3352
58.9095 21.8009 10.1798
53.249 19.8421 9.49298
60.8086 22.2383 10.5849
56.4065 21.1175 10.1064
56.1815 21.9138 10.6321
60.5096 22.5957 10.9645
57.3348 22.4102 10.9835
57.7128 23.0654 11.2659
56.6987 23.0759 11.4145
56.8891 21.0348 10.3673
56.988 22.1021 11.2535
55.365 22.2004 11.2209
55.7324 22.7815 11.4579
56.5604 22.6003 11.3463
53.6992 21.9838 11.494
55.8282 22.9828 11.8239
54.2614 21.8833 11.3677
54.7058 22.2772 11.4482
53.1107 21.8024 11.4334
56.1413 23.5862 12.3355
52.7036 21.7632 11.4651
55.0355 23.4191 12.4881
55.9902 24.1103 12.7796
49.0241 20.9419 11.3698
54.3165 23.1699 12.5381
54.759 23.2667 12.4952
52.5359 21.8468 11.9082
52.7073 22.8098 12.4553
49.1504 22.191 12.4117
51.1552 22.5449 12.6059
50.1202 22.0486 12.3314
49.9984 23.1337 13.2205
54.1689 23.5479 13.2355
48.5798 22.1263 12.4591
52.1825 23.9206 13.8126
49.6324 22.0081 12.4562
50.6953 22.9077 13.3427
47.5574 22.537 12.9179
49.8106 22.1225 13.0236
46.8687 22.9185 13.5338
49.5758 22.2331 13.0002
49.3363 22.4759 13.1938
50.3005 22.5771 13.2432
47.5819 22.6524 13.789
49.0912 23.397 14.0456
47.2015 22.5815 13.694
45.292 22.8839 13.974
46.6356 22.4761 13.706
43.149 21.4196 13.2419
45.2571 23.3592 14.7164
48.7979 23.9361 14.7204
47.3786 23.6731 14.907
46.2471 23.099 14.5036
44.8757 22.1085 13.8934
46.0739 23.4753 14.6937
45.5526 22.7935 14.5869
45.7044 23.2156 15.0802
43.6914 22.7932 14.6794
46.456 23.2097 14.6295
43.2424 22.7773 14.9918
42.6612 22.4612 14.6178
43.7665 22.9366 15.1197
45.0383 23.3584 15.3671
43.7423 22.8402 15.1509
41.9546 21.8789 14.6325
42.2959 22.0178 14.864
44.2277 23.5607 15.6023
45.9513 24.2522 16.3087
40.768 20.8377 14.3082
44.4936 23.7651 15.9393
43.3382 24.0376 16.7347
42.0737 23.3409 16.2198
41.2719 22.5678 15.3145
41.6993 22.9901 16.315
43.2845 23.1442 15.7317
42.5511 23.0658 16.1558
41.6766 23.5627 16.7878
41.34 22.6101 15.9915
40.9343 23.4038 16.6172
40.7536 23.7465 17.1936
39.7729 23.4156 16.9497
40.7678 22.55 16.204
41.5314 23.8527 17.1771
39.8345 23.3247 17.1791
38.2666 23.0379 17.0309
39.6014 22.8273 16.4853
40.1923 23.3251 16.9819
39.1869 23.2916 17.4496
41.8378 24.5186 17.9677
38.2052 23.2371 17.3086
37.4616 21.9491 16.6872
37.455 22.217 16.9242
35.7333 22.1524 16.9903
39.2538 24.1181 18.5387
36.9345 22.6849 17.4552
39.27 24.0769 18.0703
37.744 23.8478 18.5746
37.425 22.2098 17.2625
35.5692 21.9172 17.1716
36.6472 22.9786 17.7653
36.2078 21.9989 17.2831
36.396 22.7433 17.6374
36.3247 22.6989 18.3429
33.8449 21.1739 16.9796
37.3578 23.4072 18.7097
36.1349 22.9137 18.4014
36.1586 23.9587 19.4627
34.0293 22.0058 18.22
35.5382 22.9219 18.5073
35.5533 22.9559 18.4582
35.1695 23.3997 19.7513
35.9085 22.8016 18.8073
35.4341 22.703 18.5801
35.5455 22.7781 18.7764
33.4027 21.634 18.0897
36.3644 24.0496 19.8888
34.3174 23.0612 19.7149
35.077 23.125 19.2113
34.0057 22.3154 19.1927
31.9393 22.0186 18.8716
34.6558 23.3595 19.7174
32.2519 21.0253 18.0413
31.0651 21.7224 18.8533
32.3356 22.6203 19.9309
33.5 23.1229 19.8746
33.6546 23.3861 20.3998
34.2085 23.998 21.0332
30.9601 21.9899 19.9652
32.5784 22.67 20.3379
32.0204 22.711 20.0868
30.1605 21.7423 19.4606
31.4145 21.9973 19.453
32.6926 22.9019 20.7305
31.1211 22.6372 20.4795
31.5594 22.8523 20.8029
31.4748 22.7888 20.9789
32.1435 22.9499 20.8525
32.5384 23.5191 21.451
30.3105 23.1194 21.5085
31.2161 22.6412 20.8323
31.1461 23.9194 22.1711
31.5201 23.6743 22.2194
30.5625 22.0653 20.5368
30.2436 22.3517 21.2891
30.9392 23.3948 21.7775
30.8462 23.1895 22.343
30.0789 23.2159 22.0213
29.9755 22.5496 21.7542
32.0164 23.9247 22.5017
29.813 23.1748 22.2861
30.7183 22.3772 21.4341
30.4941 23.1864 22.4372
29.0933 22.6365 22.2919
28.4299 21.6449 21.2879
30.0942 22.8388 22.3331
29.967 23.0253 22.2919
29.1981 22.6224 22.4595
27.7725 21.2074 21.0454
29.0148 22.7525 22.6124
28.7335 22.124 22.4436
28.4057 22.0574 22.1391
29.1841 23.0681 22.7992
27.9785 22.511 22.7337
28.3724 22.9221 23.4937
26.307 21.664 22.5356
28.4724 23.392 24.2396
27.1845 21.5156 21.7865
27.5558 22.9754 24.0368
26.3291 21.7201 22.5058
26.3848 22.7474 23.5096
26.4783 21.7767 22.2238
25.8941 22.2469 23.6628
26.0589 21.9345 22.8118
25.8109 21.6699 23.0921
25.9813 21.6029 23.5152
26.6981 22.4979 23.9455
25.7446 21.856 23.118
26.572 21.6502 23.1964
27.3213 22.585 24.1763
26.3285 21.5386 22.6741
26.8613 22.7891 24.7843
24.9691 21.8428 23.452
25.6901 21.428 23.3186
26.0253 22.3332 24.1824
25.6306 22.4102 24.7142
25.0646 21.6476 23.769
25.3341 22.5781 24.4471
22.8674 21.1641 23.7696
24.8783 22.1878 24.8774
25.0421 21.8639 24.1403
25.0103 21.5417 24.4328
24.7408 22.8966 25.602
25.0427 21.8678 24.8694
24.8522 22.1828 25.2579
25.0352 23.5296 27.3966
24.1763 21.5439 24.5218
25.259 21.8113 24.8533
23.8472 21.3469 24.818
23.7004 21.7842 24.946
23.9935 22.3104 25.6024
25.2869 22.5321 25.8959
24.142 22.1425 25.5688
23.3959 20.9568 24.2684
23.5905 21.5728 25.4527
22.0415 21.3401 25.4295
23.6854 21.9873 26.0989
23.0215 21.4197 25.2256
24.0624 22.4615 26.8922
24.9384 22.9941 26.8333
22.733 21.3693 25.3366
23.0387 21.8722 26.1674
22.8725 22.9248 28.3957
23.3428 21.1088 25.2576
22.2 21.236 25.7103
22.4418 21.2427 25.8573
21.8844 21.1144 26.2608
22.3986 21.3963 25.8905
22.7454 22.8439 28.7484
22.677 21.617 26.5108
22.1676 22.2929 27.4279
21.8761 21.2844 26.6103
23.0291 22.358 27.3954
21.6763 20.7943 25.544
22.6809 22.7535 28.2042
22.4767 22.4855 28.519
22.573 22.7907 28.2688
21.4662 21.4144 27.053
21.1142 20.809 26.4464
20.8196 21.2864 27.2405
20.7204 21.0046 26.8585
20.5666 21.5962 27.4246
20.2206 20.5817 26.3623
21.4017 21.7853 27.8293
21.5181 21.9831 28.3543
20.5577 21.467 28.5434
21.0013 21.0111 26.9464
20.5043 20.9905 27.7757
21.545 21.2763 27.7438
21.3927 22.3307 29.2046
21.6807 21.6018 27.9068
20.6018 22.0318 29.205
19.6291 20.9762 27.6
20.9529 21.7025 28.7411
21.4854 22.7185 30.2449
22.0796 22.5402 29.3171
20.8975 22.2026 29.9951
20.9474 22.2812 30.9913
20.8789 21.448 27.6238
19.4205 20.3542 28.7326
21.2836 22.077 29.5831
19.937 21.7034 29.7516
21.0406 22.2582 29.7786
19.8168 20.6767 28.1953
20.5793 21.9105 30.6916
19.5822 20.9225 29.185
20.2464 22.1411 30.1557
20.0633 22.452 31.0097
20.4979 20.9234 29.4416
19.8681 21.7328 30.0436
19.9698 21.948 31.2172
19.3558 21.7034 29.984
17.8384 20.3256 29.2304
20.2442 21.6394 29.9366
19.1224 21.2109 29.4246
19.1305 22.0637 32.057
19.1996 20.4938 29.0297
19.0222 21.7888 30.9274
19.8489 23.3254 32.7982
18.6481 20.735 30.257
18.1222 20.3013 29.5505
19.0113 21.145 29.7137
18.5671 20.4637 30.2594
18.5698 22.0824 32.5986
17.8344 20.3983 29.1613
18.3092 20.5862 30.2758
18.2203 20.2609 30.1539
18.7682 21.0288 30.5578
18.5835 21.2199 31.3004
19.2449 21.5239 30.7058
16.6861 19.9081 30.6575
18.8772 21.4018 31.7634
18.6547 21.0966 30.509
17.1271 20.6313 30.9575
18.0968 20.5077 31.3517
17.9919 21.9626 32.261
18.4595 21.6401 33.1303
18.0682 20.9467 30.5896
16.7613 20.3713 32.0308
17.7957 20.3853 31.0143
17.8857 20.7987 30.4188
17.4638 20.8616 32.9234
17.5185 20.3953 30.7496
16.6107 20.5955 32.8874
17.7732 20.5951 30.6648
16.0753 20.3649 32.1314
17.1108 20.1888 31.6645
17.2185 20.739 32.3169
17.5783 20.8833 31.79
16.7146 20.4274 32.2659
16.853 19.7773 31.2046
16.6152 20.2571 32.0129
17.6642 21.7116 34.025
17.2526 20.8624 33.9501
16.7125 19.9669 32.133
17.3241 20.2582 31.2464
16.541 20.4161 32.5043
16.9778 20.5172 32.7957
16.2684 20.8119 33.1252
16.6629 20.7187 33.5712
16.439 19.7453 31.1629
15.9299 20.1846 34.1072
16.6998 20.7468 34.1808
16.5285 20.1937 32.9848
16.7363 20.5706 32.5282
15.5668 19.8209 31.9097
15.4823 20.14 34.6037
16.6851 21.221 33.3368
16.1112 20.4067 33.257
15.9457 20.8524 34.9515
16.4774 21.1483 34.7365
15.7227 20.9297 34.9619
16.1222 20.6159 34.0726
16.1137 20.4183 34.5252
15.8795 20.6216 34.9214
15.7629 19.5351 32.8061
15.3639 19.8626 33.4561
16.0004 20.8763 33.8175
15.225 20.3742 34.8318
15.121 19.64 33.165
14.5533 20.5258 34.123
14.854 20.351 35.3542
16.0899 21.0186 35.5681
15.9494 21.0978 35.6537
15.793 20.6685 34.882
15.2892 20.4816 34.6297
15.4591 20.2623 35.6963
15.7043 20.2327 34.1426
14.5003 19.7489 34.4782
14.9861 20.7034 36.9032
15.9461 20.4325 34.4408
15.1973 19.6764 33.7053
14.5028 19.1524 33.646
14.5905 18.9955 33.7312
14.2836 19.6532 35.4158
15.4267 19.7209 34.1092
15.0472 20.6916 36.2082
14.8165 19.8367 35.7726
14.5911 20.0906 35.0743
14.8905 20.9465 37.8899
15.2745 20.4026 35.29
14.7393 21.0983 38.0755
14.2962 19.6547 35.1882
14.771 21.183 36.8754
14.5484 20.7023 38.0576
14.6765 20.0117 36.2488
14.5227 21.2741 39.2431
13.8904 19.5196 36.4884
14.8939 20.5713 36.1179
14.1772 19.8691 36.236
14.1871 20.0335 36.8471
13.9943 19.9933 36.6265
13.8758 19.8139 35.5662
13.9388 19.6258 35.735
13.601 19.47 36.7639
13.9367 19.312 34.9346
13.4613 19.6142 37.9786
13.7878 19.1715 34.6306
13.8488 20.0358 36.9974
13.8555 19.5335 36.3741
13.2879 18.5012 34.5521
13.5903 19.987 37.2557
13.0272 18.3542 34.2999
13.1767 19.0727 36.3289
13.3596 18.8695 35.4665
13.4411 19.4463 36.3524
14.2226 20.7432 39.4303
13.325 19.5736 38.0762
13.0828 19.0914 35.9492
13.0867 19.038 36.7793
13.8262 19.4826 38.2292
13.494 19.4902 36.3414
13.1908 20.378 38.5582
13.4924 19.2594 37.2237
13.6305 20.4005 39.662
13.2175 19.7777 38.9372
13.6717 20.2291 39.2818
13.9529 21.0367 39.7604
13.048 19.2299 37.2967
12.8826 19.1715 37.2312
12.2907 19.0985 36.408
11.8552 19.173 38.8964
13.4566 20.2302 39.512
12.838 19.2703 38.1536
12.8548 19.7272 39.0978
13.0153 19.748 38.9104
12.5615 18.8839 37.4632
12.7713 19.0169 37.3022
12.7214 20.3237 39.7438
12.4346 18.9872 37.5301
12.6131 18.8887 37.3978
12.2742 18.2714 38.1618
12.8478 20.0818 39.5091
12.1933 18.6462 37.7064
12.2896 18.7865 37.3955
12.345 18.7259 37.3893
12.5477 20.4257 40.7982
11.9024 18.9174 38.6253
12.4834 19.5266 40.129
11.8593 18.795 39.4821
12.5672 19.383 40.0295
12.3437 19.6029 40.0629
12.4219 19.9359 40.7876
12.184 19.2251 39.0638
11.6167 17.9241 37.3299
12.0174 19.1029 40.603
12.455 19.5418 40.3839
11.7145 18.3573 38.165
11.565 18.6335 38.5014
12.0583 18.9281 38.9979
11.5851 18.2349 37.4368
10.9937 17.4785 36.859
11.2933 17.4214 35.7824
11.0822 18.0384 38.0161
11.0481 17.2286 36.4681
10.9932 17.5479 37.6917
11.7721 18.3855 38.9244
11.6327 18.1466 38.1649
11.027 17.8195 37.709
11.5672 18.1256 38.0038
11.2196 18.0078 38.5377
11.3967 18.1626 37.8163
11.2798 18.3141 39.3569
11.2509 17.9581 38.8655
10.9904 17.3334 37.7553
11.5954 18.6993 39.3337
10.8999 17.6038 37.9443
11.0773 18.7637 40.5233
10.27 16.4894 36.0286
10.3097 17.1561 38.5708
10.8406 17.3779 37.8577
11.0505 17.7629 38.16
11.005 16.9218 37.5141
10.8642 17.3573 38.9648
10.6567 17.5975 37.6922
10.7346 17.6667 38.982
10.6863 17.8225 38.2745
10.6387 17.6063 38.6426
10.6871 17.368 38.7019
10.4162 17.5461 37.9412
10.6311 17.8257 39.2634
10.4325 17.8209 39.2424
10.5964 18.2153 41.5501
10.906 18.2795 39.6073
10.2388 17.0836 39.2979
10.7892 17.4439 37.8053
10.3775 18.0603 40.9238
10.5957 17.4503 39.138
10.4522 17.6859 40.2735
10.3203 17.7305 40.5808
10.6241 18.3857 41.1368
10.3645 18.7465 41.9401
10.7409 18.4474 42.6308
10.3925 18.5411 42.0725
10.7999 17.9847 42.1245
10.3658 17.6113 40.5413
10.6973 19.2057 43.9102
10.6416 17.038 39.1753
10.1406 17.5623 40.178
10.8522 18.6471 42.6506
9.96512 17.3106 39.6938
9.91957 17.1128 40.6203
10.4541 17.7391 41.1162
10.6316 17.9707 40.6369
10.0488 18.265 43.7192
10.405 18.0341 41.2123
10.449 18.3493 42.6463
9.48018 16.5942 37.8177
9.71607 17.8538 43.3959
10.6023 17.8899 40.9097
10.0133 17.0984 40.9586
9.72445 17.5201 42.2663
10.3612 18.0042 41.2445
10.177 17.2263 40.7662
9.66939 17.0337 41.353
10.4667 18.8734 43.4279
10.06 17.0203 40.0676
9.981 18.5993 43.4351
9.76104 17.4828 42.3709
10.2976 18.3035 42.7251
9.95252 18.0104 43.3441
9.9431 17.9782 42.6463
9.9209 17.9144 42.265
9.64756 17.1972 42.7557
9.9172 17.6918 41.819
9.42229 17.5715 43.1754
9.46766 16.8621 41.2328
9.69374 17.855 42.1357
9.34629 17.2146 41.375
9.59257 17.8613 43.2529
9.73831 17.9685 43.8243
9.52977 16.9755 41.9595
9.33811 18.0747 43.9183
9.85258 17.9105 43.211
9.47298 16.6081 41.1307
9.19833 16.5043 40.3699
9.48763 17.2497 41.9585
9.3076 16.9835 43.3254
9.42302 17.6437 43.9498
