# pn-170911/RbIIR-47-KOKB-1280-1959.psd
# Power spectrum* (dif=0,1,2) (really just |FT|^2)
# NOTE: only the first half! (symmetric)
# weeks: 1280-1959
# 7 clock-days, 0 excluded
# PSD: 1441
1098.17 0.0522201 0.0717684
158166 2.39278 0.0394258
313209 3.49237 0.0399891
62867.8 2.27756 0.0362593
58768.2 3.80525 0.0414042
31749.3 2.01491 0.0387261
3445.54 0.660245 0.0387742
5824.71 0.540118 0.0420304
7176.54 1.21423 0.0378195
4300.05 0.917543 0.0407721
5542.67 1.59254 0.0416349
2609.13 0.862675 0.0353059
1666.13 0.791664 0.0416714
2496.14 0.985799 0.038651
2104.16 0.923647 0.032364
1768.9 1.02278 0.0354224
3424.1 2.4848 0.0410668
1612.75 1.8906 0.0409132
1379.16 1.27702 0.0442595
958.885 0.679415 0.0372764
1455.32 2.56212 0.0368033
1629.62 1.98775 0.0341546
1507.1 1.81587 0.0391348
1544.86 3.46374 0.0569536
1677.92 2.79944 0.0515511
1016.44 2.59671 0.0526553
474.709 1.48295 0.0458391
638.97 1.718 0.0579025
331.64 0.979174 0.0490013
1277.56 3.40879 0.0550156
1497.11 5.02963 0.0795634
798.849 4.72657 0.0625386
503.641 2.68672 0.0514451
1099.11 7.70888 0.0468546
2181.83 9.49484 0.0944101
830.561 4.86189 0.0930726
1052.65 7.39382 0.101461
1785.73 9.08343 0.0805814
1530.01 9.89543 0.12882
1636.42 9.52784 0.117127
655.819 5.60272 0.0560559
916.255 7.47397 0.0517273
730.157 5.1736 0.0707192
1952.61 13.7776 0.239054
1062.63 10.1587 0.202416
613.399 6.4726 0.0742433
1179.42 11.0546 0.113241
1273.6 12.7638 0.145921
1004.11 11.8938 0.133741
869.366 8.06337 0.211514
1282.22 14.3823 0.194471
2328.44 27.5576 0.446503
1477.03 19.0491 0.282498
1038 14.3622 0.204598
232.766 3.97676 0.116757
1401.99 18.6425 0.315737
2141.37 34.6247 0.58453
2336.14 36.4615 0.385528
1151.44 15.3137 0.173269
1391.39 19.8068 0.301993
1872.75 31.3294 0.536243
1093.23 17.8513 0.440318
1132.9 17.1959 0.322609
1560.75 26.5574 0.491785
984.233 18.6805 0.477704
689.451 11.1624 0.269397
1185.49 24.8916 0.556751
579.277 11.5307 0.324256
727.342 14.1068 0.347089
453.895 8.21966 0.257315
1593.82 32.146 0.90973
1194.29 30.4082 0.897014
330.261 7.85017 0.266931
629.058 15.7126 0.290355
1079.8 23.3458 0.617712
1443.89 33.3677 1.03016
677.109 19.555 0.737277
568.146 17.0034 0.654383
1526.61 41.4227 1.26965
665.713 19.1163 0.509884
858.711 24.2975 0.632481
605.756 16.8111 0.604881
1014.6 28.1982 0.982039
575.907 16.4649 0.77536
1182.99 37.0026 1.42856
499.229 16.7993 0.702916
357.333 10.9446 0.370414
565.509 21.8145 0.999456
657.653 23.5412 0.862512
512.059 17.9734 0.615024
892.634 30.9614 1.38251
315.064 9.84669 0.395792
433.057 16.987 0.918826
431.469 18.5583 0.840995
448.675 17.1187 0.907867
508.373 20.0824 0.905242
664.536 28.9697 1.53821
323.52 15.7229 0.666313
368.794 15.3957 0.77213
522.926 25.547 1.46357
658.287 31.861 1.45707
459.904 23.7581 1.11052
766.712 31.3966 1.57882
423.185 19.5128 1.15153
515.962 26.1364 1.51599
295.239 14.2659 0.808041
537.688 24.7928 1.34724
293.394 15.404 1.04249
342.138 18.0202 1.23992
218.582 14.5361 0.830977
439.75 22.6208 1.55776
248.791 13.5991 0.801076
462.282 29.3772 2.03282
354.18 21.3444 1.18562
496.959 29.3313 1.78693
430.046 32.0084 1.92391
144.08 7.5265 0.508455
328.012 19.6346 1.12384
528.3 30.869 2.42048
140.608 8.94313 0.633506
477.157 30.9464 2.2411
188.931 12.728 1.00304
394.201 28.6321 2.39849
270.218 19.492 1.52327
577.397 40.4618 2.89691
703.901 49.291 3.91989
305.636 19.544 1.78049
386.319 31.1355 2.3967
297.318 21.2391 1.9976
248.482 19.5258 1.60913
305.022 25.1847 2.12034
204.869 15.0477 1.42659
250.48 21.2368 2.09552
392.922 34.8957 2.55463
180.621 14.9259 1.30761
326.336 28.0119 2.68307
262.694 25.0122 2.34161
220.327 17.9179 1.56345
231.153 21.4372 2.19771
264.049 24.43 2.56478
401.193 43.347 4.64255
124.513 11.4619 1.63041
299.72 32.5456 2.70157
309.254 23.8943 2.07173
183.065 18.9563 1.93221
94.1293 10.3003 0.940059
238.308 22.6602 2.46891
170.428 17.7327 2.31051
290.554 30.3337 2.9073
238.242 27.853 3.06804
148.368 18.9917 2.02021
351.26 36.4957 4.08932
237.323 30.2245 3.42264
190.51 22.6778 2.35761
217.504 25.0329 2.77522
276.882 35.1681 3.96501
111.901 16.8648 2.29257
264.846 27.0032 2.69569
39.9986 6.58812 0.942945
127.528 15.9184 2.4745
164.745 18.5103 2.29234
178.721 16.7941 2.06511
173.243 23.7104 3.31233
158.03 20.8121 2.91223
207.577 25.081 2.3577
186.883 26.735 3.52033
234.727 24.8315 2.9978
144.272 22.2046 3.55046
112.272 12.81 1.06371
202.919 27.3154 3.11249
169.779 22.9371 2.96521
110.318 16.9809 2.49125
219.757 31.1758 3.96029
147.627 15.295 1.96451
199.639 27.8051 4.13767
134.427 23.4791 3.76908
81.3422 10.6889 1.42538
80.0982 10.3664 1.3557
199.619 36.1424 5.35151
74.4581 12.296 2.12938
79.6715 9.12034 1.34766
137.758 24.3855 3.87135
150.084 20.5921 3.21639
56.9641 11.873 2.38587
103.778 16.3605 2.32733
51.6526 9.38247 1.75242
105.749 17.4501 2.73696
107.478 16.0942 2.48057
106.723 19.4821 3.40141
165.498 29.6898 5.35905
135.486 20.9313 3.53576
108.738 14.3218 2.20246
161.006 23.1003 3.83918
51.2601 10.914 1.9291
131.154 18.3477 2.87759
73.9501 13.6194 2.32992
69.6119 13.2404 2.32505
89.1356 10.8559 1.78031
160.161 26.2736 4.84448
132.025 21.362 3.73074
127.633 25.8431 5.37531
85.9931 15.1206 2.99065
49.8042 7.33235 1.21724
65.828 12.6938 2.57502
72.6221 15.1044 3.26149
61.0762 9.29524 1.25645
135.596 22.3153 4.41294
95.4688 17.355 3.79284
72.7399 14.6069 3.13578
66.0411 15.7388 3.49892
83.8697 14.8186 3.30235
104.214 19.475 4.84309
63.8057 12.928 2.09867
65.4555 14.5506 3.30052
194.385 38.4101 7.39692
73.2754 13.1424 2.44084
71.8061 15.3334 3.30151
92.7458 18.8553 4.16219
75.745 16.5886 3.85419
68.3906 16.6433 3.62085
29.4791 9.99868 2.44269
41.3044 8.65554 1.79819
66.8951 14.1503 3.26712
79.9148 16.9209 4.71316
39.886 10.7986 2.59683
38.6118 10.0188 2.55766
45.6935 12.6771 3.80227
143.689 32.5152 7.4325
77.4262 15.7341 2.90027
44.6457 10.8689 2.7611
79.8279 18.0953 4.86992
66.5254 17.3802 5.10128
72.4364 16.699 3.86902
77.3441 20.6441 5.2718
101.258 22.3512 5.46723
88.9897 20.6118 5.00479
68.2877 17.0786 4.7339
132.677 31.086 7.64973
79.7978 21.3365 5.14003
109.882 26.5998 7.67428
59.4129 13.1123 3.64891
47.9795 14.9213 4.45459
63.8595 14.7419 4.1905
56.9628 13.8653 3.8467
49.8191 15.2768 4.70225
80.3814 23.8707 5.64876
76.0127 22.2092 5.72209
111.895 32.1535 8.76452
36.252 8.58644 2.64641
51.7933 14.7337 4.6379
57.1478 15.8174 4.30156
46.8076 14.4789 4.51156
53.1268 18.6894 6.49064
110.938 29.7031 7.36508
94.4498 33.8344 10.1417
62.5005 19.1786 5.73411
47.4389 10.8666 3.07159
51.6107 14.1326 4.32799
100.794 33.1483 9.90177
63.8559 19.2724 6.66883
69.681 22.1119 7.59826
143.017 42.7415 13.0323
55.0806 15.9182 5.11225
50.8734 18.9557 5.83447
36.4317 11.8274 3.97279
100.909 30.1514 10.597
89.5434 30.0093 9.16506
52.1385 17.3093 6.16718
36.7444 10.9659 3.20625
42.485 12.884 4.89977
21.3054 7.16676 2.63238
43.2774 13.6293 4.50892
29.3117 12.7091 5.20993
75.1132 23.3044 7.39859
69.3698 24.9339 6.82716
54.931 20.8175 6.16505
57.6385 24.8388 9.05951
55.5517 18.7668 7.63674
54.2837 22.7898 8.13565
73.2065 20.8707 7.03594
23.8428 9.25284 3.58294
102.406 36.4044 13.4917
40.6374 12.8334 4.83985
93.4314 34.1408 12.0264
38.9786 16.5002 7.73874
43.7036 16.6922 7.3466
66.9894 21.5766 8.08995
43.6487 18.8253 7.44341
47.5091 15.3981 5.06798
20.1304 10.2659 4.5227
82.2025 37.1058 13.5514
50.1326 17.0978 6.36913
38.7445 11.3043 3.7083
35.5411 14.1387 6.21509
39.6744 15.5282 5.3947
46.5877 18.0754 6.21967
67.5846 29.2439 14.1279
46.7607 17.1725 4.94823
49.4214 26.5104 10.8887
50.4237 22.8623 9.97933
63.0444 23.3043 9.24868
41.2141 15.1183 6.96645
45.6274 22.4696 9.55116
33.0826 12.5208 4.9818
49.1236 21.509 8.67037
48.21 22.5792 9.00587
59.8436 23.6472 10.537
44.7773 13.1849 5.1247
76.2767 31.1957 13.131
33.2799 18.6638 9.03856
30.3485 13.4237 7.1942
42.4623 15.5453 5.32814
48.2393 20.6482 10.6873
60.05 25.914 11.7494
54.5162 25.7384 12.3598
29.2095 14.6452 7.08246
30.4896 11.2927 4.83507
47.3244 18.2463 7.10782
65.0695 25.357 11.5519
38.4268 14.8908 6.51225
38.4583 16.5842 8.36122
40.5125 16.6011 6.98615
48.9071 24.2967 13.8225
32.1891 15.9693 10.4102
28.9875 13.8321 8.07305
34.8055 15.5875 6.13859
37.2422 14.6078 5.65284
37.2552 21.1211 9.63767
41.4253 20.6792 12.4473
40.5382 15.9927 5.46287
14.3819 8.59904 4.52459
25.2859 12.9187 7.49769
32.7385 15.5154 7.43548
37.2585 19.323 11.0467
50.3551 24.8347 12.1222
29.55 16.0648 8.73741
32.5451 18.9533 10.5177
42.7149 27.5945 15.871
64.9779 29.6199 15.8436
16.3168 11.8747 7.92826
23.4848 9.19831 3.68466
37.3895 16.9522 8.36931
52.0257 28.9164 12.485
14.9966 10.3265 7.59247
56.1754 29.1018 16.3919
66.2134 37.6552 18.8844
30.9807 20.3506 10.1861
19.0409 12.2976 7.72537
38.674 21.4411 11.3055
36.783 15.4335 7.26828
22.8197 13.7636 9.86881
36.4618 16.8163 8.00024
39.1263 25.0143 14.1476
63.5034 37.8469 19.9225
32.2145 20.6648 11.9126
25.2879 14.0874 7.90044
25.2385 12.8499 8.49858
52.0355 34.626 18.9621
40.1311 21.1152 11.4938
34.0686 22.1395 13.4109
25.9829 10.57 5.88244
30.6019 20.2612 13.4767
20.4913 11.8746 7.95587
17.4031 12.8418 8.91363
57.4604 29.5804 15.5028
22.97 14.8982 9.05538
12.43 3.11645 1.35062
60.0445 34.9625 19.4995
46.2069 26.6399 17.6996
24.5939 16.5125 12.8081
33.2974 18.9262 7.89071
24.0511 16.7707 10.2341
17.314 13.8116 8.03973
25.0171 17.9094 10.1548
37.5162 23.6624 16.4155
34.1657 21.6022 12.8665
27.0106 19.8672 12.8028
17.7098 12.5148 7.87669
16.6034 14.4916 10.135
25.2756 25.4625 19.2977
32.0304 23.0151 17.3301
44.5487 20.6713 11.6884
31.1985 21.4874 17.8853
88.1141 46.0303 23.7866
36.3768 20.1291 12.5131
18.5315 11.5941 7.05779
29.9301 18.9519 12.7771
32.6901 15.8749 9.32025
43.8178 26.6863 18.2367
11.1327 8.98727 8.68166
41.817 27.2315 16.7497
19.9812 15.2016 11.5126
16.451 11.1855 6.47528
11.6507 10.2814 8.1292
15.5706 11.0376 8.82506
16.6628 15.9583 14.2269
34.3126 15.9029 7.06431
17.2768 12.734 11.7883
31.8325 20.06 12.8832
43.4773 27.7551 17.5638
18.9672 13.7072 13.5769
22.2122 13.2111 11.2535
135.226 81.7744 49.2785
26.0671 23.4311 20.6781
21.6858 13.5343 8.31236
39.1659 32.6564 29.4521
21.2513 10.5896 4.96652
24.5905 15.0556 9.68209
26.0137 16.7413 11.627
19.5667 15.1453 12.2265
23.7866 15.5699 10.5817
19.5077 16.6597 14.9761
31.1834 25.5199 16.8519
36.1845 28.1943 20.0099
21.1407 15.1526 13.684
30.6489 18.079 11.0512
29.2806 21.416 17.558
14.8175 13.9118 13.1271
8.34355 8.45932 11.2392
20.5184 13.4 9.1632
8.96477 9.73336 10.7029
39.7208 23.4299 14.441
22.2529 17.0254 11.7806
18.5778 13.593 9.59874
13.176 9.94685 6.85069
22.3605 15.8373 10.0452
18.3336 15.8463 12.6193
24.4907 19.6741 18.1878
41.5073 34.5485 25.4731
25.7548 17.8871 12.4818
13.904 17.0971 18.868
18.1989 15.8204 13.1999
22.6812 24.9994 23.1194
14.2674 9.46798 8.22225
15.7052 7.63986 4.76194
24.2008 22.1224 18.4131
23.4471 17.0372 13.4718
25.769 14.515 7.33185
12.3062 10.2265 9.62777
36.0251 29.362 22.4708
23.1613 21.6241 20.044
16.833 18.2277 19.2694
20.9499 17.8294 17.2562
34.1107 25.0021 23.2109
15.6878 9.7029 7.34843
15.0955 12.2206 9.92698
15.0789 11.1445 6.53279
8.99402 10.0311 7.24158
12.1392 15.2687 14.8325
16.9002 14.9736 12.9189
7.6768 7.40632 10.1024
13.5857 10.0425 7.24968
10.434 6.07669 3.94019
18.396 21.5057 18.6799
9.5449 6.09743 7.25588
38.7383 35.3125 28.6852
20.6315 14.8118 14.4201
11.1443 10.7024 10.0298
21.8253 17.8843 16.4624
20.3091 19.095 20.1852
27.9344 25.9817 24.4782
12.1875 10.1922 11.697
12.5982 9.94222 7.99575
19.4757 19.2921 16.2637
17.5669 18.1651 15.5622
16.1865 16.6206 18.8953
19.291 14.1403 10.9511
23.4301 30.7541 33.6299
27.6892 19.2792 15.2761
16.0975 14.0055 9.83939
11.5724 15.4233 18.1203
17.8366 17.3913 13.9483
9.21703 9.25046 12.6226
16.7336 11.468 9.41431
16.2034 12.4725 10.3765
20.0983 20.9544 18.314
33.1953 43.3438 49.8726
18.2705 14.6369 13.7003
22.7736 25.2871 20.6374
21.4606 32.9439 40.6192
27.189 16.8089 15.0952
24.3757 15.7122 11.7289
18.1119 15.2211 11.5098
31.5757 37.7945 42.6209
31.4846 25.5287 25.7478
6.95088 5.55357 4.41228
5.81746 7.66148 9.58227
6.28974 6.47097 11.0567
28.9666 29.2053 28.5356
24.9122 24.0653 19.7353
7.75589 15.0279 21.0883
13.9156 23.421 47.7218
93.0981 74.6362 49.5832
27.4531 31.1181 29.6612
7.80961 8.57641 14.748
35.9983 33.2599 26.6814
15.271 19.9533 24.3254
34.642 30.2185 27.3551
23.2943 26.1077 29.4958
12.6518 11.1874 12.3349
21.118 33.1792 49.6368
28.4232 23.0565 15.8017
9.4572 15.0832 19.9701
15.0197 13.6396 15.8169
20.7333 21.6062 17.5314
5.49268 8.93434 15.7175
19.9216 21.0327 20.0741
10.9055 10.8235 14.3362
15.7656 15.5053 19.0197
29.9118 33.5608 38.4252
7.80895 4.20131 3.55462
13.9712 15.4163 12.5158
19.3374 34.2928 48.0197
32.3172 23.6786 17.0424
6.35857 5.13128 4.88861
12.5249 14.0755 15.4263
25.8084 35.3387 36.1085
6.78052 12.2553 20.5664
25.0886 25.6165 29.0199
35.9169 45.0263 54.7686
22.717 30.5163 54.7067
64.9239 60.8413 53.1375
22.3115 28.9764 35.756
23.8294 26.4411 24.3849
10.6113 15.5304 21.734
19.0832 18.5236 16.4138
7.17931 13.8533 20.7833
18.0719 22.7899 21.863
12.3178 14.8049 17.3909
5.39111 5.98031 11.5274
14.9025 14.9125 12.5305
6.938 8.84371 11.8316
16.8928 27.2964 36.5759
13.5242 12.2185 18.0861
20.3513 19.8779 20.6702
14.1947 15.8776 19.4531
15.8679 18.4428 22.9292
12.5563 17.18 18.7943
9.41398 14.1982 18.8336
12.1578 13.7548 15.2136
8.58599 14.3216 18.4519
10.5442 11.6695 18.4883
8.35803 11.3659 15.1793
15.078 16.7257 20.0511
13.2297 15.8384 17.539
9.1263 10.0896 13.8319
8.83191 11.9182 21.0536
14.4958 16.8783 15.5365
15.5543 20.9472 23.8623
14.7586 14.618 15.4358
19.6841 26.8522 30.928
8.02503 9.06726 11.4549
3.1362 5.16492 8.15285
9.36232 13.4939 20.6031
11.0599 10.889 11.4156
7.74106 15.0742 21.9163
8.36377 8.35345 14.056
21.4077 28.1218 34.3564
13.8473 18.628 28.1566
24.7167 26.675 32.4516
21.8214 28.3268 37.15
18.4367 22.6296 26.1985
12.8015 16.4836 20.7087
7.77247 10.2657 15.4686
13.0759 14.6945 21.5968
10.6521 10.5566 9.42455
10.1395 16.3464 27.8523
20.191 20.1425 22.4987
6.2312 10.3175 14.5539
8.26779 10.5401 11.3314
9.35989 11.5542 17.4163
11.0718 17.8184 26.7944
18.3074 17.0147 15.0746
15.6455 19.543 23.7967
12.6247 15.5945 20.1142
9.50037 15.1905 23.2695
14.4507 19.9947 28.26
11.3118 22.8269 41.2852
20.9154 26.8556 31.3919
9.66506 13.4514 20.3614
11.1844 15.7658 20.0932
5.76562 14.9333 27.8105
11.0389 13.9684 25.202
4.7607 4.15948 9.28586
15.2493 22.6475 29.0633
13.6518 18.2001 27.16
13.6986 12.8036 17.8934
21.4318 25.6557 27.9873
20.7509 23.5531 20.4155
11.1528 22.2164 38.3166
6.06689 13.4333 29.0611
16.714 23.098 26.8558
10.7414 18.0715 35.0713
13.7754 22.3962 31.4247
9.02139 9.03017 11.3875
10.9259 19.4003 32.0997
11.1389 8.32166 10.1734
11.9059 20.2627 24.4971
9.67566 13.8373 16.9753
8.89918 11.0989 13.4094
8.78244 16.5231 25.2554
14.7491 19.1217 24.3638
14.6374 23.8458 31.0318
5.78857 8.40268 11.432
6.35579 13.6727 25.7297
8.37835 12.7035 20.7755
6.65365 14.1798 28.0476
9.71006 12.7547 28.6968
25.3282 37.026 45.7071
21.4154 27.3761 33.4301
18.5048 26.4465 30.474
7.1409 10.8305 15.5992
12.7321 23.8787 41.4678
5.45138 4.63916 8.23816
8.96737 15.0549 25.5924
7.46003 13.9892 23.0166
8.86651 13.0319 21.9254
6.02118 9.43311 16.2326
12.9606 21.1015 32.812
10.5908 15.2648 22.0958
8.11628 14.688 26.3194
12.0141 16.1226 17.3288
6.43458 13.8633 27.7913
8.13045 12.1769 21.5312
9.0166 10.858 12.3889
5.58577 11.7732 24.0731
14.4557 23.0045 27.0737
12.9498 31.8405 53.8197
8.92665 11.1005 17.8465
11.8062 24.1326 38.5801
10.3163 14.6637 30.3996
11.0725 14.7466 27.5143
17.1835 19.9851 25.2342
7.81933 15.5232 33.1961
11.6894 14.3882 19.7732
6.75483 11.7902 23.009
9.05302 13.3388 17.9835
11.0132 18.2851 24.2361
8.83109 22.4789 37.6737
9.69728 10.6129 18.8101
11.5244 21.8766 30.5616
9.23434 14.8294 23.1279
5.8957 7.82724 16.3484
6.68592 16.4554 31.8721
14.2065 11.9309 9.53641
8.45246 18.499 33.9236
8.47775 11.7948 24.7598
7.58823 10.1563 17.5882
7.73888 14.3387 17.4052
5.01704 11.7082 26.9038
6.98638 10.2317 15.7572
9.11129 18.0712 30.9422
6.87656 8.52572 16.469
18.559 29.3063 35.1577
6.82659 14.9314 26.4522
8.0224 20.4015 42.4558
6.68893 8.47682 17.4183
8.2893 9.06595 17.1089
6.40459 14.3087 29.3861
9.50606 12.5345 17.1975
5.53016 8.75635 17.3224
13.0492 23.1666 34.9242
8.56121 14.3339 28.7179
8.09502 14.9313 28.3519
7.53349 13.4423 28.9804
14.1618 17.0887 25.4267
10.9982 19.64 26.7762
5.83525 11.1894 19.4421
9.8202 20.9449 36.4372
10.2731 16.4166 27.3138
6.25166 11.2148 26.9473
3.85433 11.2513 48.4336
28.6549 38.802 44.7334
2.38697 5.11186 11.1787
7.21511 15.4287 35.5786
7.269 10.4565 12.6425
6.11758 12.0703 19.3506
9.04425 19.4777 43.0437
12.1031 17.6152 29.1438
12.994 22.038 28.4538
10.622 23.5378 50.4601
5.95625 7.89023 19.5045
11.1125 24.6619 43.8267
6.71623 13.1683 30.4417
12.816 16.8029 27.1797
6.19192 12.4075 28.4154
15.9979 27.3192 37.4172
11.3005 23.0676 40.2458
8.41071 23.2621 50.8483
8.14546 9.31606 18.8392
10.0027 18.6065 40.0422
22.5132 32.8502 38.2544
6.41427 17.9888 41.396
4.26456 5.85763 14.5782
3.5813 4.86893 11.7343
6.34545 9.61204 17.4877
4.89877 10.727 20.2128
3.97385 7.41304 18.5205
7.1114 13.2881 23.3347
8.87308 21.6818 56.6823
8.98726 13.1874 25.1407
5.53433 8.57433 17.7125
7.7345 14.9232 14.2222
3.04485 13.1667 32.497
9.18897 15.6939 31.0901
12.7216 19.8968 33.2125
10.242 24.3667 47.9009
10.4361 21.3883 43.4442
11.5134 23.334 33.5962
5.94257 15.6259 31.8751
6.55467 12.6089 32.4093
8.8007 14.3782 29.2671
9.05597 16.3276 28.331
7.12246 13.921 31.5295
8.74931 20.766 42.1117
5.69343 9.69298 19.5736
4.85846 8.60315 15.5475
10.3564 25.3288 54.9737
9.78952 18.2614 32.1945
5.91265 11.2739 34.0895
9.21411 12.1091 32.7438
12.9086 18.7987 24.1497
4.85158 10.7555 29.1693
9.01882 14.3065 19.3917
6.77959 13.404 24.795
8.75317 16.6592 24.2728
3.04109 12.069 37.9981
8.31181 11.6722 27.1889
9.13268 15.7625 30.4476
9.81623 20.3404 30.4313
7.17607 15.2082 24.1702
4.21184 9.85766 19.8639
4.12141 8.54287 25.6191
9.29925 22.3311 35.0766
5.62124 11.8268 15.2318
5.07524 18.0962 42.7725
6.97053 21.0526 65.5319
14.6747 20.1377 38.4752
10.1841 16.9441 31.0777
8.98701 12.832 20.4216
6.61026 12.6724 30.9416
7.11938 10.4758 18.2648
12.4075 31.789 49.2782
9.58192 31.1686 67.0534
4.66519 6.1282 18.4821
9.09679 23.5321 36.9894
6.84299 17.4267 31.1302
3.84409 8.67043 15.9169
3.27687 9.89942 25.0926
7.45548 17.3475 31.083
4.82192 10.7091 26.7615
5.33827 12.178 32.7615
6.8741 17.0598 42.0566
12.6763 22.649 35.7707
3.50874 7.63825 20.961
5.29227 8.79643 16.2039
4.62 12.8574 40.4476
11.3718 25.457 38.1991
3.56899 6.75342 16.7886
5.61858 19.4892 50.9009
9.16815 13.0965 25.3244
6.72497 14.1473 36.6271
16.1879 40.3484 69.8575
7.0981 11.0023 23.2343
4.73099 13.5425 38.9933
6.81151 15.6718 26.8925
7.25894 18.8706 44.6509
6.60322 9.97448 25.3045
7.55335 13.9508 29.2518
5.14289 16.3316 47.3391
5.80029 9.11822 19.2261
6.83417 19.9895 56.9138
9.40708 16.9313 32.7029
6.58239 14.6419 27.7922
4.09068 12.9098 41.8905
8.49404 10.7567 16.7513
4.3891 10.32 37.1849
8.49509 14.5496 25.5785
7.8204 10.309 19.9187
11.6776 30.0216 62.817
9.02271 24.5963 42.3875
6.39146 12.86 30.8487
6.79439 15.5097 31.2856
5.26601 18.1456 49.807
11.0895 35.6135 80.364
9.50524 10.3217 25.9563
8.62058 20.9515 42.1963
6.33333 15.6321 48.3561
8.08819 9.81029 13.695
3.84924 13.3832 30.2364
6.19066 10.9843 28.5458
9.16422 20.7986 43.2203
3.98165 8.35614 37.8964
14.3279 20.8903 23.0858
3.46203 12.071 36.2539
4.89197 9.98723 30.1819
5.87399 15.0155 27.5736
2.37828 5.99615 18.0267
2.69744 5.87525 24.2276
3.96358 7.37883 13.3769
4.76538 9.84764 17.1153
3.92389 14.9787 48.6055
6.75046 13.7969 39.5101
8.60541 14.8756 26.6749
5.27073 11.654 26.0797
6.30908 19.5822 48.0746
9.72719 17.2941 30.7793
3.5237 8.2596 26.0467
6.73543 10.604 21.4692
3.55573 8.71889 17.9321
4.50813 15.516 39.7586
5.60433 10.3794 19.2655
4.31155 8.40308 23.2906
2.46274 7.96167 24.1478
4.58206 11.7202 32.3396
8.85302 21.8518 49.7758
4.3384 11.3313 39.2255
9.95256 21.5396 43.7945
5.90277 11.7222 24.4442
6.71964 17.3473 39.8765
7.38432 16.6001 30.4227
3.85685 15.8582 41.1369
7.87333 19.1163 44.4887
5.09291 9.96379 9.96729
2.7798 14.9645 30.5045
3.30372 14.2041 51.787
10.2871 26.0602 65.0188
8.44977 12.5409 33.9827
10.0427 25.3405 49.7378
2.87495 9.82759 41.1654
