# pn-170911/RbIIR-44-RbIIR-1280-1959.psd
# Power spectrum* (dif=0,1,2) (really just |FT|^2)
# NOTE: only the first half! (symmetric)
# weeks: 1280-1959
# 4503 clock-days, 242 excluded
# PSD: 1441
272.02 0.11175 0.0423574
115589 3.14256 0.0440158
233358 3.82339 0.0444316
70619.2 1.97554 0.042984
46980.6 2.51388 0.0455054
21463.2 1.45559 0.0434326
14975 1.45139 0.0444681
10662.6 1.35243 0.0467531
9064.66 1.63144 0.0460198
6536.15 1.37373 0.0437584
5237.82 1.36227 0.0432828
4379.47 1.4133 0.043903
3812.77 1.49402 0.0455748
3224.83 1.45445 0.0456385
2882.79 1.56624 0.0450328
2528.98 1.54756 0.0440331
2272.58 1.58454 0.0453188
2010.72 1.64829 0.0455375
1867.76 1.76107 0.0457409
1727.77 1.86069 0.0465624
1604.84 1.91702 0.047614
1542.1 2.06118 0.0489371
1438.33 2.22846 0.0513849
1380.28 2.25689 0.0496233
1274.71 2.38923 0.0524397
1260.99 2.57498 0.0509562
1187.91 2.70702 0.0523804
1176.33 2.85941 0.0528165
1125.68 3.04547 0.0564588
1125.4 3.27663 0.0592294
1101.88 3.56293 0.0612072
1049.13 3.62601 0.0596426
1017.87 3.89726 0.0649943
985.652 4.02074 0.0638546
974.094 4.14935 0.0662239
977.709 4.52535 0.0702563
966.214 4.72762 0.0734193
924.248 4.88029 0.0760113
900.635 5.03166 0.0791899
905.804 5.45217 0.0841156
892.931 5.60334 0.0873102
854.423 5.78042 0.0889848
858.601 6.04172 0.0952666
815.84 6.02279 0.09799
833.743 6.45956 0.103847
812.023 6.61705 0.107047
769.522 6.69189 0.111239
775.45 7.04188 0.117341
815.918 7.63679 0.129303
751.723 7.42175 0.127013
745.774 7.71689 0.136136
743.251 7.9655 0.141387
752.438 8.46106 0.151126
729.498 8.52889 0.158798
724.909 8.85122 0.166532
695.496 8.87745 0.171874
700.614 9.27377 0.182642
658.116 8.97172 0.185222
680.619 9.76307 0.199952
676.304 10.1378 0.212867
646.973 9.82496 0.210708
650.152 10.1927 0.223968
662.114 10.9026 0.24608
608.792 10.3569 0.23729
624.803 10.836 0.256719
632.167 11.4407 0.275162
605.521 11.3815 0.278426
602.731 11.5148 0.291941
579.054 11.4681 0.289183
573.321 11.835 0.312118
569.125 12.1983 0.3309
569.409 12.5678 0.347793
550.824 12.3756 0.348893
548.196 12.606 0.361549
526.274 12.5447 0.372544
515.094 12.7099 0.37949
523.789 13.2816 0.405772
509.738 13.0932 0.408575
525.055 13.9529 0.446155
506.517 13.8738 0.460474
478.243 13.4352 0.453167
472.916 13.6503 0.470367
480.213 14.3029 0.499045
473.875 14.161 0.502409
464.067 14.406 0.524048
463.172 14.6416 0.544746
464.504 15.1564 0.57142
446.403 14.9526 0.581418
453.452 15.3331 0.607969
443.275 15.5072 0.622794
432.455 15.4141 0.63666
443.829 16.174 0.67967
418.668 15.6289 0.66881
401.303 15.2087 0.66428
384.722 15.0046 0.674868
414.244 16.4465 0.7489
551.387 22.9998 1.02783
395.987 16.3515 0.76588
373.162 15.8206 0.760574
371.494 16.1844 0.789903
379.482 16.7594 0.833392
384.442 17.406 0.887902
395.093 18.4552 0.952114
378.425 17.6902 0.931226
355.994 17.165 0.923635
353.292 17.3864 0.951496
347.908 17.2579 0.956173
350.433 17.8665 1.00994
348.254 18.0826 1.03443
337.373 17.7257 1.0406
338.651 18.1824 1.083
329.652 18.1054 1.1001
332.897 18.5761 1.14875
343.611 19.6581 1.23021
348.828 20.3713 1.29277
337.807 19.983 1.29126
328.925 19.9033 1.30941
308.499 18.8905 1.25528
316.375 19.6695 1.3326
315.429 20.0549 1.38246
313.303 20.0424 1.40034
320.205 20.7048 1.47041
294.753 19.6602 1.42722
302.206 20.4304 1.50231
302.298 20.5983 1.53064
294.853 20.7291 1.57833
298.884 21.3969 1.64241
289.898 20.6796 1.60311
287.827 21.0834 1.67188
280.195 20.9351 1.68052
274.882 20.684 1.68011
283.029 21.9361 1.82009
289.661 22.6054 1.89241
281.151 22.1885 1.88205
268.046 21.3525 1.85157
263.706 21.5926 1.89148
262.578 21.8147 1.92379
269.638 22.6364 2.03645
267.801 22.8646 2.09144
261.716 22.4725 2.07772
260.119 22.8695 2.15364
252.198 22.2753 2.12151
247.536 22.1326 2.13286
255.343 23.5622 2.31254
261.352 24.2593 2.39845
246.419 23.2343 2.32187
240.863 23.1869 2.36353
241.422 23.5389 2.43407
241.507 23.7836 2.49553
240.627 23.8302 2.52303
246.018 25.0179 2.70086
236.574 24.0508 2.6105
231.51 24.1178 2.63464
228.858 24.0374 2.69387
224.107 23.9414 2.69793
238.316 25.7903 2.96272
226.635 24.5673 2.85428
223.781 24.748 2.89051
226.397 25.504 3.02325
223.378 25.5224 3.0772
214.844 24.7196 3.01034
218.243 25.6472 3.17317
218.392 25.8102 3.20125
216.978 26.0799 3.31735
216.943 26.3291 3.35967
213.294 26.1336 3.38229
208.134 25.8679 3.40913
213.257 26.9466 3.56329
213.566 27.1796 3.63856
205.893 26.278 3.54634
204.267 26.2177 3.56821
198.315 26.3309 3.67099
210.86 28.1406 3.94789
203.076 27.113 3.83812
199.646 27.3893 3.9542
206.215 28.6573 4.16565
194.449 27.0814 3.94227
193.397 27.5457 4.10246
195.086 27.8084 4.16251
196.867 28.4273 4.3219
189.407 27.5459 4.20774
190.892 28.1343 4.35478
190.758 28.2462 4.42242
190.913 29.1938 4.66816
191.866 28.8877 4.60291
184.997 28.7971 4.66122
192.829 29.7632 4.80915
186.222 29.434 4.87648
184.733 29.2127 4.8498
179.626 28.8996 4.89313
176.883 28.7051 4.89027
180.855 30.3676 5.3419
280.717 46.9469 7.9754
176.579 29.453 5.17906
167.229 28.3438 5.05486
175.95 30.1482 5.418
172.974 29.9553 5.41378
171.464 29.8932 5.40065
168.858 30.1301 5.57911
164.342 29.4771 5.49732
168.618 30.4371 5.76528
164.375 29.89 5.69238
164.897 30.4381 5.88039
166.04 30.9524 6.01183
167.301 31.5172 6.14843
161.738 30.4921 6.00391
164.98 31.6748 6.30176
161.909 31.1756 6.28333
159.698 31.2864 6.37293
158.445 31.3521 6.45242
159.686 31.5594 6.49856
155.851 31.3839 6.59779
159.136 32.0852 6.75279
158.267 32.5054 6.90615
154.305 31.7898 6.87526
155.316 32.5774 7.10717
156.268 32.6391 7.08161
153.784 32.683 7.21873
148.24 31.543 7.03698
150.422 32.7065 7.31695
148.526 32.369 7.37525
146.084 32.2188 7.36722
149.874 33.3293 7.73327
147.82 32.9557 7.63246
144.575 32.7162 7.74049
142.545 32.1218 7.58985
144.108 33.2069 7.95651
145.109 33.5964 8.07304
146.757 34.6131 8.43622
150.772 35.2425 8.60242
144.347 34.0945 8.37313
139.269 33.2736 8.28069
142.355 34.6687 8.72681
142.232 34.9349 8.91139
140.173 34.4114 8.74393
141.451 35.2049 9.11318
140.687 34.6882 8.90389
133.086 33.3632 8.783
133.093 33.8133 8.91167
137.399 35.5519 9.51387
136.545 35.2386 9.49823
131.795 34.4494 9.31631
128.824 33.9024 9.27298
129.47 34.4623 9.49347
129.337 34.4028 9.53711
133.562 35.8195 10.0284
131.152 35.9307 10.1693
126.714 34.4408 9.75133
131.302 36.0062 10.2245
125.219 34.8635 10.1008
124.946 35.2823 10.2814
126.111 35.9758 10.5855
124.339 35.5998 10.6137
127.392 36.0973 10.6559
122.921 35.342 10.5154
126.482 36.9805 11.1519
125.052 36.5273 11.0586
122.435 36.7159 11.3114
122.058 36.4398 11.2688
120.59 36.5572 11.4798
120.726 36.6668 11.5139
121.421 36.9315 11.6942
119.092 36.3855 11.506
117.295 36.5804 11.8108
120.96 37.6895 12.106
115.449 36.3476 11.7773
115.629 36.813 12.032
111.298 35.5554 11.7804
111.643 35.9785 11.9994
114.068 36.5648 12.2062
111.312 36.6124 12.4135
112.626 36.9385 12.5354
112.118 36.9932 12.6629
110.41 37.3438 12.9142
111.581 37.4163 12.9885
111.551 37.7973 13.2357
107.569 36.4642 12.8344
108.168 36.7337 12.9852
106.243 36.6293 13.0965
107.386 37.4977 13.5096
111.277 38.7231 13.9244
105.283 36.7997 13.4455
108.086 38.7267 14.2556
105.317 37.5649 13.8619
102.721 36.9912 13.799
102.957 36.8057 13.7376
100.373 36.7619 13.9746
103.293 38.3521 15.0985
175.324 64.632 23.7279
100.053 37.5358 14.6149
101.293 37.9537 14.8024
102.235 38.6482 15.1013
102.132 38.7177 15.1555
101.145 38.8159 15.2508
96.7753 37.4193 15.0902
96.3925 37.1898 14.8861
96.5021 37.5809 15.1193
97.577 38.4192 15.612
95.1192 37.8824 15.4511
96.5786 38.834 16.0449
96.9201 39.2827 16.2626
96.8699 39.0795 16.254
96.5423 39.1184 16.3194
94.6404 38.7003 16.3991
93.1502 38.3062 16.2512
94.3505 39.0362 16.7466
94.4737 38.9297 16.6001
91.1325 38.2607 16.5184
92.462 38.9687 16.9963
90.4214 38.477 16.9367
91.39 38.9535 17.1733
90.9149 38.9678 17.3521
92.8425 40.259 17.9611
89.6459 38.9362 17.5394
89.3874 38.8219 17.4825
87.6249 38.4647 17.5219
87.9651 38.7062 17.6607
87.9924 39.0347 17.8554
87.7512 39.2007 18.1234
87.8774 39.4574 18.319
84.9598 38.5099 18.1451
86.7555 39.3161 18.372
83.3003 38.4679 18.3595
84.2375 38.7736 18.4261
83.9429 39.3037 18.8736
84.2344 39.7158 19.144
81.8875 38.3481 18.7256
84.0505 40.1421 19.6961
84.425 39.9939 19.6286
80.7091 38.5476 19.147
82.1708 39.4646 19.4341
80.0371 38.7944 19.554
82.4077 39.7173 19.8452
80.174 39.3123 20.0079
81.6925 40.0032 20.3263
80.7944 39.7184 20.196
79.4879 39.5918 20.3058
78.1067 38.7685 19.9573
77.6592 39.2074 20.3378
75.9406 38.6324 20.4246
80.1006 40.5204 21.3195
77.0227 39.2962 20.726
76.3898 39.538 20.9939
77.5333 40.3589 21.5661
73.7137 38.3408 20.6468
73.4451 38.5918 20.886
76.2444 40.2193 21.8528
74.4587 39.8505 21.9736
75.69 39.8812 21.8496
74.5518 39.7179 22.1053
73.925 39.3839 21.7567
74.3176 40.3166 22.5878
73.5224 40.0053 22.5352
72.931 40.0082 22.7244
71.8475 38.8762 21.8283
73.4864 40.71 23.2694
71.7468 39.8214 22.8317
72.6689 40.8885 23.6695
70.4063 39.5402 23.0201
70.4712 39.6375 23.1101
69.7923 39.7408 23.4443
71.233 40.7256 24.0526
70.6602 40.2072 23.6424
70.1069 40.4819 24.0322
68.5425 39.945 24.0868
68.8899 40.024 23.9698
69.4458 40.7947 24.4739
68.7393 40.73 24.8533
68.6183 40.9532 25.0587
67.5416 39.9387 24.5273
66.175 39.4234 24.2519
66.945 40.6348 25.4349
66.682 40.137 25.0353
66.3646 40.1643 25.2178
66.8341 40.8304 25.6415
64.9883 39.9979 25.3677
65.0228 40.3267 25.7775
64.6009 40.0134 25.6318
64.1481 39.8146 25.5107
63.2179 39.4598 25.5105
63.1092 40.1599 26.2531
62.9901 39.7121 26.0544
61.5103 39.3068 26.1231
62.4959 40.2723 28.2644
109.608 69.2181 42.388
62.4651 40.9639 27.772
62.7736 40.6394 27.4372
61.1667 39.9161 26.9432
63.4633 41.1302 27.5675
60.2683 39.7915 27.2407
61.042 40.0723 27.3337
62.254 40.7884 27.758
58.097 38.5946 26.6546
61.0582 40.8037 28.0821
58.5114 39.5081 27.7751
61.869 41.4734 28.8177
58.8602 40.0272 28.1238
58.4863 39.9991 28.4322
58.0703 39.3359 27.6775
58.0918 40.0815 28.4378
57.9392 40.0993 28.7707
59.1176 41.0387 29.2601
55.366 38.6942 27.9514
56.5206 40.2358 29.3558
55.2032 38.8484 28.4103
55.8849 39.6145 29.0771
55.9261 39.2697 28.5039
56.011 40.3049 29.602
56.185 40.6184 30.2071
55.8948 40.1365 29.8161
54.6878 39.8756 29.8922
53.6433 39.06 29.3645
53.303 39.0455 29.7128
53.9103 39.3491 30.0518
55.4601 40.9399 31.0829
54.2324 40.3196 31.1147
55.3885 41.0893 31.3363
53.9373 40.2934 31.1767
53.514 40.3114 31.2204
54.0638 40.8037 31.7685
53.0339 40.3519 31.7716
53.4677 41.063 32.4761
53.6244 40.6387 31.7805
51.7289 39.7761 31.611
52.502 40.4151 32.1655
51.4938 39.8846 31.8657
51.6391 40.1374 32.0532
50.2933 39.7382 32.4312
52.6197 40.7327 32.8242
51.0166 40.2459 32.6137
50.8528 40.3443 32.8774
51.3134 40.6005 33.0746
50.7092 40.8978 33.9602
49.1367 39.4644 32.6287
50.1519 40.3156 33.3056
48.2943 39.6046 33.5258
50.3681 40.7235 33.8811
49.2487 40.5647 34.2509
49.9916 40.9018 34.5611
47.7156 39.5411 33.8406
49.1076 40.611 34.9559
49.7812 40.9118 34.815
47.8446 40.0043 34.4102
48.0871 40.3069 34.7866
47.9736 40.433 35.2848
48.1786 40.5176 35.3298
47.9671 40.8637 35.7468
46.3742 39.2767 34.5095
47.1383 40.4955 35.8052
46.9232 39.9021 34.89
46.2605 39.9621 35.5259
46.143 39.952 35.6583
45.6662 39.766 35.7301
45.3107 39.0111 34.9932
45.1396 39.1969 35.0864
45.3176 40.2364 36.5183
44.198 38.9624 35.7157
44.4939 39.2582 35.7196
44.79 40.0615 36.7154
44.6182 40.1532 37.1575
45.4147 40.7753 38.0054
45.1656 40.4845 37.5119
43.9232 39.6978 37.0303
44.0239 40.1917 37.8287
43.9551 40.3214 38.2287
44.2519 40.2286 37.8199
42.9322 39.3471 37.5822
44.2196 41.1027 39.404
44.2969 40.5455 38.6334
44.1998 41.1845 39.6008
43.0904 39.6247 37.8877
42.2278 39.2924 37.9301
43.2326 40.7616 39.4865
41.5995 39.5457 38.854
41.8188 39.1309 38.3493
42.1696 40.1527 39.316
42.0698 39.9292 39.4807
40.9033 38.7247 38.2488
40.6299 39.6131 39.9643
39.5835 39.6808 44.4927
74.3498 70.6354 63.114
40.5976 40.0278 40.8924
40.6069 39.64 40.1929
40.8711 40.1806 40.8526
41.74 41.0817 41.6604
40.1847 39.4163 40.186
39.551 39.1389 40.4674
39.5283 39.1941 40.3861
39.9846 40.0408 41.4387
40.2711 39.9353 41.0065
39.3368 39.5916 40.9752
39.052 39.2553 40.9518
38.376 39.2319 41.4519
38.7883 39.592 41.5552
38.8956 39.7178 41.9573
38.0675 39.141 42.0397
39.3165 39.6952 41.7034
38.3428 39.2548 41.6306
37.9486 39.4127 42.3179
38.9627 40.3643 43.0958
38.4226 39.8183 42.5293
37.573 39.1412 42.2279
36.288 37.8929 41.0559
35.9164 37.5449 40.4385
35.2821 37.715 41.7744
37.473 39.6784 43.5639
36.1621 38.1868 41.7416
36.8206 39.3574 43.5665
36.4665 39.2137 43.8339
36.4288 39.032 43.4806
36.017 38.6982 43.4003
36.5752 39.2331 43.5683
36.2901 39.3545 44.518
36.5548 39.5881 44.603
35.9388 39.1699 43.9968
35.6534 39.5732 45.1626
35.4243 38.6272 44.0304
35.8326 39.4583 45.0751
36.0273 39.9051 45.644
35.2367 39.0136 44.5795
34.5687 38.7633 44.5554
34.333 38.6883 44.9278
34.0595 38.432 44.6392
34.0214 38.8926 45.5243
33.8121 38.5354 45.5758
34.2498 38.6683 45.1265
33.7993 38.6178 45.7635
33.5144 37.9805 44.7864
33.7324 39.121 46.893
34.3541 39.0593 45.9752
32.0814 37.0692 44.5001
32.2444 37.4832 45.6066
34.2197 39.4015 47.118
33.2413 38.4039 46.1207
32.6038 38.2232 46.4441
32.7457 38.4894 46.8804
32.9936 38.381 46.5447
31.9869 38.0435 46.4536
33.0642 39.2604 48.163
31.6016 37.8849 46.9897
32.3278 38.6631 47.9713
32.8825 39.0808 48.1726
31.8063 37.9269 47.0494
31.6077 38.3021 47.5585
31.2881 37.9294 47.7617
31.8305 38.271 47.6972
30.864 37.7662 47.3913
31.2634 38.4146 48.7197
30.9653 37.1947 46.8691
31.3192 38.432 48.5837
31.0283 38.6409 49.3381
30.9206 37.8896 48.2146
30.1634 37.5981 48.3388
29.9181 37.492 48.7776
30.6275 38.0484 48.9231
30.1002 37.7789 49.3255
29.6786 37.2393 48.5459
29.572 37.1491 48.276
29.6178 37.3302 48.388
28.8271 36.7012 48.4829
29.9473 38.2471 50.3475
29.5326 37.8553 50.6107
29.9375 38.1423 50.3005
29.5003 37.1565 48.4665
28.3606 37.0483 49.8285
29.0547 37.3421 50.3071
28.4497 36.7616 49.3972
28.4741 36.9181 49.8472
28.6461 37.4283 50.8328
28.508 36.8969 49.8845
28.7417 37.4291 50.2558
28.3269 37.685 52.0026
28.4174 36.8108 49.5273
27.4821 36.8843 51.2005
27.6944 37.2841 52.8894
28.1902 39.7254 64.5025
52.633 66.528 77.6699
28.5651 38.7904 53.6011
27.8195 38.0325 53.7022
28.4202 38.7112 54.544
28.2165 37.8714 52.9692
27.429 37.209 52.1232
26.3547 35.8901 51.5275
27.6369 36.9742 51.5227
25.773 35.0963 50.1554
27.1441 36.859 52.1173
28.0648 38.4821 53.9081
26.2415 35.9714 51.6934
27.0533 37.7516 54.1325
25.9909 35.9569 52.1294
26.8758 36.8611 53.2478
26.7144 36.2918 51.4046
25.5013 35.9341 52.2109
25.743 36.2324 52.7236
25.5829 36.0022 52.0939
25.8583 36.9316 54.6933
26.1794 36.5737 53.325
25.6026 36.3127 53.3445
25.6507 36.9324 54.6124
25.6509 36.5221 54.0502
25.5341 36.9036 55.4305
25.455 35.89 53.2693
25.5145 36.3259 53.7778
25.4175 36.5466 54.4877
25.2011 36.1902 54.4197
24.8634 36.2678 54.6915
24.8248 35.9115 54.179
24.5138 35.3256 53.0651
24.3448 35.6875 54.2682
24.6012 36.2032 55.5337
24.5144 35.6225 53.9613
24.2485 35.561 54.2643
23.5191 34.7862 54.009
24.2829 35.8464 54.9918
23.9671 35.3092 54.3965
24.8037 36.8194 56.4433
23.7586 35.4156 54.5892
23.6788 35.8097 55.5587
23.4 35.3133 55.4387
23.4559 35.5508 55.7462
23.0328 34.6159 54.6581
23.351 35.1513 55.1368
23.4601 35.4756 55.8354
23.0661 35.165 55.9161
24.0785 36.272 56.5636
23.2517 35.8835 56.6124
23.276 36.2735 57.698
22.8845 34.7001 55.0663
22.6175 35.3134 57.2229
23.3866 36.5121 58.7646
23.0151 35.3894 56.7392
22.6673 35.3343 56.6603
22.0376 34.1483 55.6145
22.2944 34.6942 56.2605
22.0151 34.8422 57.0289
22.5911 35.2305 56.7654
22.4334 35.6106 58.6106
22.5138 35.2276 57.5093
22.1872 35.5104 58.6784
21.9106 34.3628 57.4503
21.9896 34.2874 55.9445
21.5666 34.6617 57.9593
22.3874 35.8848 58.9896
21.4848 34.3052 57.1979
21.817 35.0953 58.6883
21.3585 34.1261 57.4373
21.4944 34.5943 57.7884
21.8697 34.9644 58.6128
21.3678 34.66 58.2113
20.988 34.3002 57.64
20.296 33.0754 56.8445
20.7629 33.6729 57.3198
21.0172 34.8682 59.9539
21.4466 34.9613 59.3608
21.3947 35.3579 61.012
21.3663 34.6731 59.1357
20.883 34.7327 59.8366
20.7498 33.9686 58.0879
20.6373 34.7334 59.8447
20.8646 34.5608 59.1208
20.1221 34.2663 60.764
20.528 34.4291 59.9363
20.5836 34.1809 59.2186
19.8966 33.6525 59.5218
20.128 33.8245 59.0748
19.5314 33.2467 58.9335
19.8764 34.066 60.7021
20.0677 33.9468 59.9305
18.9574 32.203 57.9988
19.6852 34.1303 61.4357
19.9827 34.5814 62.9724
19.596 37.0435 84.8142
39.6045 62.561 87.7313
19.6805 35.1268 63.176
19.5227 34.5801 62.7681
19.2747 33.6867 61.3685
19.6562 34.4055 62.3345
19.4697 33.7036 60.5556
19.0312 33.4621 60.5374
18.8321 33.0853 60.7768
18.7701 33.373 61.9555
19.2166 33.2249 60.3238
18.7855 32.7881 59.8779
18.8648 33.5807 61.6971
18.7535 33.3779 61.9496
18.7725 32.9545 60.4731
18.4774 32.7924 61.252
18.9596 33.3403 61.3739
18.3852 33.1219 61.9778
18.5598 32.9668 61.66
18.7843 33.65 62.6135
18.3881 32.6973 60.7773
17.9248 32.4604 60.6989
17.4532 32.0919 62.2929
18.3701 32.7433 61.6279
17.9254 32.1811 61.165
18.3389 33.4205 62.1707
17.7782 32.0303 60.3471
17.4656 32.2719 62.0407
17.8065 32.2748 61.9346
17.9929 32.749 62.2471
17.6123 32.296 61.4346
18.084 33.7119 64.0342
17.3138 32.3989 63.45
18.0307 33.0073 63.3895
17.6496 32.8041 63.1271
17.1797 31.684 61.3397
17.3253 32.9537 64.419
17.2762 31.9627 62.2519
16.8349 30.95 60.6817
17.3269 32.6584 63.1289
17.1118 32.7371 65.2045
17.3036 31.9044 61.1303
16.5148 31.9725 63.931
16.7936 31.8122 63.2516
16.9575 31.623 62.1657
16.5185 31.3007 62.348
16.8221 31.8861 62.379
16.2934 31.2095 62.3998
16.2574 31.3401 64.5698
17.8432 33.4579 64.0098
15.9015 30.6122 61.3976
16.2693 31.4208 63.2939
16.346 31.6416 63.8058
16.4343 31.3483 62.4695
15.8565 30.5621 61.6855
16.0797 31.3372 63.3803
16.094 31.4786 63.7245
15.9289 31.3903 64.6918
15.9764 31.1951 62.9251
15.5667 30.7254 63.1535
15.5131 30.2678 62.4758
15.7603 31.0814 64.1107
15.8692 31.1384 64.3352
15.8443 30.6206 63.2854
15.4834 30.5098 63.5881
16.1109 31.6177 64.1144
15.3152 30.4093 62.8549
15.2756 30.7757 64.2307
15.2217 30.2807 63.5971
15.7577 31.6013 65.119
15.1383 30.1487 63.1431
15.3155 30.5218 63.2692
14.9533 30.3556 63.562
14.9026 29.8235 62.9131
14.9449 30.3681 63.8793
14.745 29.8806 64.3033
15.1449 30.203 63.3096
14.8687 30.4477 64.5256
14.8581 30.4395 64.6438
15.0361 30.805 65.8481
14.915 30.3892 64.1563
14.3795 29.2779 63.4369
14.4414 29.3742 63.3153
14.7829 30.6057 66.2199
15.2173 30.6371 64.5113
14.2172 29.3593 63.6592
14.7722 30.6399 65.3008
13.9942 28.7228 63.2129
14.4854 29.8131 64.0254
14.3382 29.8109 64.9584
14.3933 29.9445 65.4431
14.4663 29.9996 65.6642
14.4205 29.947 64.5917
13.8154 28.9817 64.6467
13.9588 29.6538 65.8701
14.1287 29.9352 67.3892
14.0696 33.058 98.2968
28.8279 55.7677 91.7101
13.9091 30.3633 67.9455
13.8829 29.73 66.6607
13.7686 29.0263 64.6662
13.7885 29.6654 65.8535
13.6454 29.1887 65.2068
13.6004 29.1716 65.5427
13.5832 29.0989 65.2397
13.7665 29.5095 65.8532
13.5407 29.1202 65.9355
13.8798 29.8352 67.2167
13.7468 29.5284 66.4421
13.4155 28.7614 64.944
13.3816 28.6207 64.5555
13.1785 28.8298 65.9321
13.3115 28.6147 64.5585
12.9462 28.1466 65.196
13.2925 28.5593 64.5272
13.0468 28.5887 65.3174
12.9808 28.3869 65.1868
13.181 28.847 66.9737
13.2449 28.9254 66.1788
12.9024 28.0268 64.737
13.0411 28.5971 66.0955
13.1334 28.8806 66.3013
12.6946 27.5411 62.9133
12.6755 28.5363 66.5209
12.8184 28.5946 66.0318
12.6735 28.4518 66.0168
12.7132 28.7225 67.6592
12.6575 27.9583 65.5768
12.4325 27.4327 65.4595
12.8091 28.5075 66.3331
12.5016 27.0211 62.3808
12.2205 27.816 65.5764
12.2419 27.494 65.5497
12.3658 27.4679 64.1689
12.1674 27.7636 66.8743
12.4705 27.8947 65.5422
12.3559 27.6205 65.7986
12.268 28.0303 67.5411
12.4572 28.0649 65.3302
11.9792 27.1479 64.8685
12.0627 27.6151 66.3351
12.0861 27.6442 65.9296
11.8084 27.3764 67.164
12.1353 26.977 64.8064
12.0113 27.8145 66.6974
11.9334 27.5169 66.3776
11.9434 27.3041 66.4239
12.1312 27.6489 66.8454
11.9458 27.5968 66.2483
11.7158 27.326 67.2818
12.0204 27.5758 66.0344
11.5617 27.2654 66.8725
11.8046 27.4783 66.9552
11.5105 26.6855 65.8897
11.6319 27.0236 66.4466
11.6583 27.296 66.9969
11.6111 26.8319 65.5758
11.3456 26.6177 65.8901
11.3277 26.7342 66.2299
