# pn-170911/RbIIA-av-RbII-1280-1959.psd
# Power spectrum* (dif=0,1,2) (really just |FT|^2)
# NOTE: only the first half! (symmetric)
# weeks: 1280-1959
# 2058 clock-days, 506 excluded
# PSD: 1441
67951.1 1.18245 0.0171089
2.23088e+06 56.6067 0.03116
3.48701e+06 59.5905 0.0340752
973009 21.9429 0.0291633
651003 23.4073 0.034178
401283 16.1738 0.0308114
276884 14.5413 0.0345876
188335 12.866 0.0319115
145360 11.8293 0.0362652
120777 12.0254 0.0377308
85281.6 11.0254 0.0393233
88141.3 11.5196 0.0366054
57870.1 10.6354 0.0400843
59162.1 10.7836 0.0402991
47090.7 10.2889 0.0458692
46928.4 11.0348 0.040575
35160.4 10.13 0.0460275
34087.8 9.33621 0.0473628
30967.8 8.96023 0.0515928
27304.7 9.07649 0.0469136
18442.8 9.36549 0.0536299
28869.7 10.0548 0.053093
22500.4 8.98556 0.0569638
17148.9 8.85624 0.0531277
15494.5 8.70869 0.0550478
14480.4 8.64826 0.0563131
11964 9.37078 0.071285
13231.6 8.75073 0.0626703
12008.6 9.22404 0.0675727
10563.7 9.58213 0.0749059
8620.7 8.64134 0.0712613
9381.65 8.52646 0.0732437
9329.82 9.96639 0.079343
7543.18 8.92082 0.0792011
8537.91 8.868 0.0820058
7674.85 8.72911 0.0793302
6956.32 8.50339 0.0855031
6761.41 9.35182 0.090647
6296.1 9.24759 0.0929447
6360.14 9.14709 0.107559
5287.14 8.53332 0.103527
4792.71 9.03946 0.0956377
5239.42 9.52518 0.112112
4589.74 8.80968 0.12679
4238.54 9.23893 0.123702
4230.12 8.78386 0.115952
4407.23 8.48444 0.107666
4650.92 9.2615 0.136972
3505.24 8.9859 0.137865
3890.6 8.40434 0.13012
3936.71 8.02718 0.135704
3840 8.36039 0.136616
3170.59 9.05251 0.154789
3296.75 8.65105 0.160829
3074.12 8.44131 0.14729
3242.61 7.88572 0.143261
2925.96 8.40885 0.16757
3290.23 8.19204 0.172864
3080.48 8.85449 0.175825
2823.03 8.81546 0.190441
2708.27 8.40277 0.174658
2934.95 8.72984 0.191096
2684.52 7.5897 0.178838
2805.34 9.05781 0.215604
2613.32 8.96516 0.229376
2603.37 8.65908 0.215315
2242.62 8.7628 0.253091
2597.93 9.33138 0.248648
2140.73 8.34773 0.242769
2108.72 8.87922 0.23821
1970.46 8.7782 0.261268
1910.28 8.65764 0.266911
1894.7 8.35534 0.264356
1734.37 8.34818 0.269499
1815.31 8.59816 0.264511
1893.75 8.74775 0.285833
1886.37 8.7143 0.275575
1775.59 8.70127 0.306403
1634.6 8.04417 0.279902
1582.91 8.70698 0.32378
1459.3 8.15244 0.311039
1438.21 8.57814 0.30618
1384.44 8.75162 0.342706
1291.37 8.55939 0.357687
1322.1 8.89203 0.338199
1469.66 8.6874 0.321294
1064.91 8.58594 0.339426
1203.16 8.552 0.379323
1225.63 8.17558 0.334571
1106.36 8.11398 0.350979
960.143 8.23913 0.354154
1216 8.04789 0.373532
1110.57 9.13432 0.405779
1025.6 7.55688 0.344335
1107.46 8.2386 0.405322
1136.32 9.07741 0.449245
933.623 8.31816 0.398042
1121.46 8.85443 0.428095
1016.76 8.85851 0.458272
879.082 8.96368 0.475452
916.835 8.1561 0.422256
1154.91 8.55282 0.482072
945.124 7.82513 0.420761
992.941 8.49982 0.444556
961.274 8.57281 0.476928
956.636 8.56354 0.476175
710.787 7.85628 0.451376
976.346 8.09661 0.469761
773.319 8.76934 0.50975
804.402 8.18055 0.503412
748.866 9.5939 0.610296
874.252 8.49037 0.519242
843.55 8.35502 0.529981
643.352 8.45677 0.573089
760.212 8.7012 0.572377
851.676 8.15594 0.550757
562.804 8.92211 0.598458
597.629 8.8422 0.60304
663.402 8.77264 0.60777
636.527 7.8065 0.550636
730.794 8.51894 0.60269
555.287 8.60669 0.614473
620.419 8.27068 0.621473
753.067 8.48137 0.646255
661.917 8.90791 0.665282
624.159 8.24895 0.643006
589.26 8.00306 0.617469
508.008 7.75383 0.620517
556.583 8.4988 0.684157
515.024 8.68738 0.715011
557.233 8.2187 0.707297
565.319 8.75829 0.753601
488.484 8.48999 0.788286
538.565 7.31527 0.64017
514.498 8.13449 0.714039
545.462 8.93952 0.792077
547.285 8.09983 0.762138
480.454 9.12635 0.838534
466.852 8.75989 0.794668
489.599 8.13216 0.77723
492.554 8.1366 0.81106
514.359 7.9146 0.788181
409.887 8.21268 0.830173
484.585 7.79718 0.797918
479.548 8.59555 0.913401
475.958 8.73602 0.903165
390.173 8.47919 0.895475
457.479 8.23266 0.913482
418.063 8.19507 0.869551
432.162 8.45628 0.939424
402.838 8.551 0.930551
426.091 8.6801 0.981723
439.323 8.69985 0.96316
460.499 9.85068 1.11487
406.014 8.66406 1.01753
412.305 8.6904 1.0013
356.893 8.33555 0.960087
424.243 8.74285 1.04537
378.528 8.55204 1.02229
332.836 8.03557 1.04059
347.463 8.22027 1.02991
322.26 8.7218 1.10492
367.835 8.00499 1.00645
334.174 8.38183 1.09692
417.208 8.84106 1.14051
404.277 8.58773 1.12651
335.714 9.89594 1.2661
293.369 8.25771 1.12386
408.115 7.58664 1.02299
328.287 9.12099 1.20797
330.456 8.51688 1.15505
253.077 8.3739 1.1894
262.269 9.64419 1.33368
367.829 8.7693 1.25583
297.45 8.35682 1.19665
263.353 8.30151 1.22451
321.05 8.94979 1.33499
326.286 8.56926 1.30492
288.128 9.74664 1.49412
304.154 8.21124 1.2831
312.141 9.5168 1.47869
347.411 8.97025 1.47293
250.204 8.35724 1.32196
328.164 8.93802 1.42037
307.338 8.43783 1.36486
330.658 8.36828 1.38968
297.989 8.38377 1.36689
336.897 8.70831 1.47799
268.256 8.86938 1.48591
247.407 8.54004 1.45615
274.364 8.67695 1.49641
310.468 9.09039 1.54056
244.173 8.81816 1.52785
295.351 9.1087 1.58075
269.842 8.45353 1.52704
262.401 9.03217 1.58941
256.18 7.66623 1.40864
295.147 8.46628 1.56618
217.812 8.78147 1.6231
238.622 8.89245 1.64769
243.949 8.48787 1.56342
240.023 9.16965 1.75889
211.591 8.16744 1.61384
279.812 9.70689 1.9536
248.198 8.53802 1.68213
212.598 8.4608 1.67488
245.722 8.48079 1.70532
251.847 8.42014 1.69152
222.264 8.86268 1.85285
253.221 9.07874 1.87959
230.685 8.46098 1.74175
252.981 8.72831 1.77564
250.643 8.3462 1.74499
239.382 9.03538 1.93667
226.521 8.64345 1.85971
218.136 8.89659 1.96161
226.281 8.15557 1.79492
217.683 8.37837 1.85491
199.647 8.57123 1.93407
212.715 8.48036 1.9266
201.809 7.89308 1.84849
234.161 8.38595 1.97859
213.085 8.42197 1.95533
228.846 8.78112 2.08365
226.657 8.19296 1.98251
218.987 9.0718 2.1973
213.397 8.09384 1.95778
207.253 8.70941 2.12753
201.071 8.64087 2.15008
201.561 9.48485 2.28658
198.893 8.12133 2.02054
191.076 8.58852 2.20721
191.388 8.7531 2.29072
204.763 8.62269 2.17652
169.568 7.34821 1.96456
190.303 8.19343 2.11431
170.392 8.66807 2.27092
197.093 8.49659 2.24309
203.164 8.63784 2.33044
193.12 8.7935 2.38306
162.279 8.27636 2.23272
193.919 8.40647 2.33336
168.556 8.30633 2.21864
161.72 8.60715 2.3707
149.865 8.58813 2.37752
160.887 8.69538 2.45769
174.794 9.18813 2.68928
147.052 8.61725 2.41953
157.202 9.1352 2.63867
179.371 8.96426 2.56964
158.274 8.32792 2.44564
178.312 9.05886 2.73602
155.106 9.52269 2.80039
157.545 9.37176 2.87345
169.053 8.6805 2.63271
134.009 8.1453 2.51569
164.162 7.70221 2.41392
156.28 8.96794 2.84241
145.079 8.91537 2.75455
139.12 8.60237 2.71965
155.2 9.18517 2.87379
151.658 8.31522 2.66195
124.072 8.42522 2.68723
142.958 9.46532 3.02396
143.999 8.89312 2.87907
136.188 8.59715 2.87502
169.894 8.22889 2.67803
175.799 8.30187 2.69175
119.917 9.13907 3.05904
163.333 8.45212 2.86582
154.948 9.17956 3.14217
142.721 9.41277 3.23307
131.514 8.3034 2.83462
135.524 7.79188 2.79767
134.012 8.53679 2.99059
146.408 7.83484 2.7548
116.751 8.45956 2.96134
147.353 8.60618 3.08484
118.688 9.01072 3.20987
132.146 8.8434 3.24381
120.535 8.1077 2.96345
124.878 9.0897 3.36773
122.572 8.17402 3.03017
115.207 8.60798 3.26642
102.806 8.41744 3.23575
88.7693 8.58362 3.28376
79.8618 8.34049 3.1425
137.634 8.80578 3.4019
94.636 8.51147 3.31681
80.8701 9.0918 3.45691
105.388 9.53791 3.69544
93.8823 8.24084 3.25817
102.38 9.25799 3.61039
114.813 8.04827 3.17099
109.861 8.65623 3.49878
107.869 8.5283 3.35546
119.006 10.4726 4.41584
103.969 8.55747 3.52875
103.055 8.66278 3.51308
126.989 8.43842 3.39373
99.7998 8.91015 3.74467
116.554 8.35256 3.4538
104.237 8.85118 3.73859
117.143 9.2392 3.81784
108.594 9.36608 3.97753
109.145 8.31609 3.56089
106.508 8.58861 3.74307
98.1477 8.65928 3.71656
92.1659 9.47382 3.96374
135.603 8.605 3.80912
114.524 8.74915 3.89353
98.6144 8.27528 3.7423
90.6671 8.09842 3.60952
101.196 8.82048 4.03579
84.3323 9.06921 4.10111
100.304 8.64272 3.8866
96.8293 8.61653 4.05481
90.1976 8.06273 3.81343
81.0129 7.99754 3.89921
104.582 8.56376 4.00999
95.7591 8.78638 4.15657
91.1749 8.35671 4.0282
109.993 8.74775 4.14894
99.2236 8.31045 4.20432
95.054 9.11002 4.24714
91.7123 8.45558 4.1533
91.8481 8.69972 4.21397
92.1953 9.13993 4.55235
87.7655 8.51076 4.28024
79.069 9.02106 4.40009
88.6243 9.013 4.48112
79.6052 9.46494 4.73106
80.3981 9.18733 4.45395
82.0269 8.82115 4.53427
78.9035 9.27744 4.75139
93.4751 8.96475 4.65349
72.3208 8.25976 4.33028
78.4805 8.49559 4.28652
97.9895 8.89867 4.66949
96.0245 9.06349 4.75143
75.1199 8.53456 4.58987
80.141 8.47786 4.48368
80.3956 9.69105 5.24335
88.813 9.85825 5.22593
79.0851 7.96668 4.24831
92.8652 8.08446 4.36544
94.1225 8.18409 4.44681
82.7276 8.31253 4.5738
88.1083 8.94522 4.98151
91.343 7.98227 4.43693
84.9398 8.80986 4.9949
89.9773 8.46292 4.87303
84.3032 9.05558 4.99796
94.7555 8.99614 5.13753
85.9522 8.18242 4.71914
102.675 10.0476 5.80576
87.7664 9.33837 5.398
91.477 8.47134 4.92164
83.1136 8.3971 4.87119
85.6941 8.62146 5.15289
82.795 9.07789 5.11296
75.7048 9.15079 5.41888
86.5004 8.59931 5.00859
89.9999 9.21677 5.62949
84.2687 9.19609 5.38138
76.145 8.48207 5.00184
80.6347 8.92884 5.41843
81.9507 8.95126 5.38565
76.051 9.03667 5.57448
74.1755 9.20016 5.61221
70.6835 7.80282 4.85716
69.2237 8.80488 5.60285
79.8154 8.78696 5.47858
80.2381 8.99525 5.64677
59.8708 8.61802 5.58309
80.7241 9.36995 5.83962
74.9273 9.68594 6.07523
74.0649 8.60548 5.5832
64.1514 9.14083 5.83484
73.7784 9.07462 5.84268
74.2296 10.0109 6.26033
65.6878 8.6129 5.67149
74.8523 8.87074 5.76873
69.3387 8.5962 5.6607
60.6549 8.3117 5.6948
80.4375 9.15068 6.20076
69.7144 8.39914 5.29724
63.5627 7.84621 5.55044
72.0049 8.5498 5.69031
84.0663 8.85275 6.00683
75.924 8.72646 6.18329
74.7665 9.17616 6.335
68.2408 7.89181 5.39795
74.7313 8.78952 6.06532
59.9015 9.95894 6.9956
75.8267 9.165 6.55181
62.5794 8.33415 6.04714
71.2761 9.33721 6.68867
65.3271 8.98831 6.4088
77.1238 8.99274 6.38777
72.4086 8.46216 6.16716
58.903 8.67651 6.61207
65.7129 8.96967 6.46369
77.7708 9.83922 7.0309
57.4627 8.9502 6.51748
58.4268 8.82179 6.5502
67.4962 9.03719 6.56688
65.835 8.77116 6.45446
62.877 8.59505 6.55657
58.4177 8.25591 6.31834
64.5121 9.05134 6.7843
70.3456 8.55623 6.5309
60.5892 9.27227 6.97056
68.087 8.49196 6.6638
62.2648 8.68578 6.62625
53.9276 8.24152 6.47014
62.8644 8.51541 6.69377
59.6697 8.88112 6.91404
60.0369 8.57334 6.6662
58.5374 8.57115 6.43643
51.7988 9.10177 7.04961
57.6745 8.96906 6.94976
52.1864 8.56388 7.2044
54.3631 9.27563 7.24267
58.8475 8.34777 6.63139
50.076 8.33587 6.74455
51.0313 9.13468 7.1499
55.2723 8.91621 7.27452
59.1111 8.0236 6.64499
61.3639 8.23235 6.72719
47.3553 9.2378 7.54269
57.8483 7.95619 6.7262
60.4533 9.64724 7.84625
58.4521 10.1713 8.14625
53.5355 8.79059 7.21003
56.9746 9.75109 8.27127
52.0852 8.19574 7.06741
53.3015 8.37218 7.15642
57.5887 8.43243 6.97213
60.4938 10.369 9.13045
58.4565 8.53669 7.04938
65.7898 9.24253 8.28876
59.3705 9.80158 8.06971
60.6056 9.56608 8.15213
51.2431 9.02613 7.93993
61.8049 9.32451 8.19937
50.879 9.21094 8.05709
51.1027 8.87707 8.00244
50.1034 8.93799 7.75672
44.8674 8.93976 8.03927
52.7585 9.5383 8.20489
47.0017 8.8792 7.92561
64.4987 9.97669 8.97025
59.0201 8.65726 7.8426
41.7951 9.16363 8.26514
47.4859 9.86167 9.08921
68.2545 9.62177 8.96017
48.8012 9.6171 8.59038
52.8531 9.86442 8.87919
43.2129 9.44983 8.48791
42.4215 9.94333 9.35899
56.6951 8.05525 7.36614
48.546 8.88579 8.33032
40.9633 8.13592 7.74339
44.9993 8.70346 8.13947
50.2255 7.95633 7.39814
45.7769 8.66813 8.43904
47.5972 8.82806 8.33001
49.8275 9.42777 8.61937
55.9742 9.2096 8.79985
41.79 8.45688 8.36656
50.9469 9.77822 9.59521
47.4476 9.48623 9.00244
54.2064 9.39669 8.98669
47.9949 8.62248 8.35724
51.7126 9.34874 9.04059
43.0248 9.15163 8.91129
43.707 10.3826 10.2482
48.0602 9.12498 9.31282
51.0656 8.68406 8.67953
40.3501 9.06746 9.12828
50.7929 9.45082 9.5412
49.7703 9.02922 9.29311
43.1273 8.90155 9.25198
48.358 8.69094 8.80701
57.187 9.34165 9.46061
43.1142 8.93917 8.94957
47.5195 9.44943 9.98499
45.9217 9.80453 9.79275
42.7767 8.45781 9.23115
43.6946 9.47843 9.58899
49.8824 8.74977 9.28697
47.2674 8.53527 9.0248
43.4159 9.18007 9.54262
48.1907 9.00052 9.3354
49.2667 8.77849 9.16352
44.6935 8.50786 9.31787
48.4337 10.0548 10.4189
46.1673 9.11849 10.0656
51.9577 9.0534 9.50256
45.4982 9.18299 10.4365
46.9217 9.74468 10.2426
42.746 9.53813 10.424
43.3085 10.0522 10.8732
44.519 8.69623 9.98396
40.9925 8.89351 9.57347
41.3049 8.50107 9.6467
39.1786 9.39179 10.0965
40.8717 8.95876 10.4646
46.225 9.69584 10.2291
38.8585 8.55083 9.85799
47.9988 9.43865 10.4358
43.8894 9.1167 10.2126
43.919 9.70176 11.0388
50.7467 9.38978 10.8589
41.312 9.89878 11.3135
42.9395 9.30446 10.8059
43.4604 9.14878 10.4578
38.9616 9.73587 11.0852
44.621 8.84318 10.2765
40.1916 9.1618 10.4915
49.3171 9.06004 10.4334
39.9512 9.22555 10.7822
41.2799 9.18811 10.7732
39.6629 9.24149 10.8483
43.5642 8.47753 10.1871
40.5406 8.71785 10.1636
47.3199 8.988 10.3742
41.1884 8.87752 10.8254
47.1063 9.69337 11.4384
40.8909 9.10735 10.8582
39.6779 9.97906 11.7594
39.0717 9.7658 11.6196
38.7915 8.79608 10.9961
39.2001 8.414 10.4803
38.1156 9.65828 11.5942
38.3089 9.31326 11.9657
46.1781 9.18258 11.4132
39.4231 8.86981 11.0862
45.972 8.61315 10.6206
40.8038 9.30392 11.525
37.1327 8.67483 10.8049
39.1579 9.94732 12.0677
35.8311 9.46889 11.9451
37.4262 8.59674 10.8927
40.2812 8.98774 10.9519
41.5784 9.69554 12.0612
36.6123 10.0295 12.5578
44.7438 9.9797 12.7962
36.607 9.13932 11.7575
33.9619 9.43408 12.0712
40.246 8.91372 11.4547
34.0687 9.32503 12.1023
35.2567 9.87656 13.0808
43.1665 9.69259 11.9006
41.4295 8.97683 12.2485
33.8001 9.18884 12.0518
43.9935 9.87896 12.8322
42.2347 10.8643 13.6821
36.8466 9.38373 12.504
33.6712 9.18325 12.1701
37.2311 8.97493 11.6276
36.0629 10.01 12.9117
41.372 10.3458 14.1931
36.1663 9.13132 12.4319
39.868 10.2287 13.7045
37.0695 10.2933 13.854
38.8665 9.70428 13.1627
33.948 9.66855 12.5841
35.9679 10.1239 13.8051
35.7932 10.9022 15.6645
35.7316 9.79451 13.2394
33.0989 10.6017 14.6367
28.5529 10.5333 14.6871
28.3671 9.7399 13.6619
50.1055 9.78443 12.7026
29.7032 10.5542 14.5698
28.2182 10.2923 14.3132
37.3262 10.5163 14.5498
33.0731 9.48205 13.3671
34.8691 10.5207 15.4039
34.9961 9.32364 12.6383
34.526 9.70533 13.8968
32.3424 9.21577 12.9442
33.5381 10.2217 14.6921
29.2111 9.84883 13.7216
31.9586 8.9682 12.6151
31.4416 9.14572 13.4942
26.6215 9.01726 12.9761
31.796 9.88321 14.2842
31.3185 9.62304 14.2551
31.929 9.6465 13.5408
30.0159 8.89396 13.2061
34.0798 9.55331 13.8834
30.0262 10.1355 14.7558
28.4432 10.1987 15.0809
29.7614 10.3279 15.0967
35.7309 9.70091 14.0703
31.9771 8.93143 13.5264
32.5873 9.66069 14.7992
28.9952 9.54371 14.3454
33.0146 10.6183 15.2936
27.563 9.87955 15.1452
32.0953 9.95887 14.7488
33.0621 10.214 15.2579
31.3297 9.35141 13.8078
22.3726 9.54923 14.2396
33.5837 9.82488 14.4278
29.5311 9.62573 14.5367
31.5367 9.20336 13.9452
32.0753 11.0066 17.5385
34.0812 9.91276 14.9626
29.356 9.10386 13.9965
28.3547 8.71283 13.9343
29.1141 9.93328 15.3508
27.5711 9.2002 13.7241
27.4415 9.75151 14.8055
28.0343 9.73066 15.8102
31.6025 9.88834 14.765
26.1989 9.77177 15.4677
28.1819 10.2212 15.819
31.0446 8.93557 13.9826
27.9406 9.76139 15.2157
28.7626 9.79169 15.4082
26.1983 9.64336 14.8811
27.8437 9.33076 14.7141
29.5752 9.29759 15.3789
33.7003 9.28987 15.1851
27.6743 10.3309 15.9228
27.6011 9.7334 15.2479
29.5815 10.0327 16.2096
29.7891 9.9782 15.9742
25.146 9.27131 15.2301
30.6974 9.60779 15.9729
31.3295 10.3212 16.9139
28.8419 10.2853 16.9749
29.8858 10.6237 16.7216
32.4497 9.95561 16.0575
30.1215 9.97435 16.5261
29.7081 9.72264 16.4483
26.8529 8.51737 14.2503
29.5995 9.93806 16.0807
27.442 9.17635 15.7252
31.7634 9.36522 15.6934
28.7696 9.87666 16.4124
32.0236 9.27413 15.3198
28.0602 9.8565 15.5027
29.2015 9.41299 16.7524
31.1209 9.22585 16.4585
24.2792 9.57942 16.2512
30.9161 9.34341 15.9102
31.8847 9.69827 16.0385
27.828 8.5404 15.1317
27.6322 9.31037 16.7863
28.8634 9.43175 16.2099
28.5549 9.88588 16.834
30.427 9.26834 16.0559
26.2276 9.4941 16.3446
28.3026 9.47446 15.8737
28.2882 10.6242 18.6075
28.9468 9.76723 16.4897
29.5516 9.81014 17.0025
23.5608 9.41525 17.0684
32.2684 10.4956 18.1114
27.454 10.3494 17.4121
24.5726 9.08462 15.528
26.8892 10.0841 18.1182
29.2963 9.34664 16.6715
26.0777 9.44668 16.6338
24.4459 10.123 18.1827
28.5121 9.78458 18.7063
28.8736 10.7412 17.7102
25.2371 9.71519 17.4435
27.1098 10.3733 17.5381
28.872 10.3578 19.1375
25.7544 9.40981 17.1179
28.8506 9.81645 17.4185
29.9866 9.16289 16.939
26.6575 9.70113 16.7231
27.5675 8.68602 16.4244
28.3902 10.036 17.8319
26.0792 9.63936 17.6944
24.9885 8.98892 15.772
26.2063 9.59387 17.4575
25.5093 10.0165 19.082
27.5669 10.5192 19.7618
24.2246 9.9775 17.8925
34.0721 9.9071 18.9454
30.405 10.8781 20.7425
27.2868 10.1421 18.4509
30.0609 10.0469 18.4534
26.2088 9.36075 17.9861
24.6418 10.2963 18.9547
27.0037 10.5191 18.8588
24.129 10.5642 20.0331
26.1944 10.4797 19.7869
23.3214 9.23884 18.18
24.9042 9.9934 17.9942
26.1227 9.74683 18.5577
27.5936 9.47129 18.3644
22.9486 9.20646 18.3049
27.8244 9.4442 18.3423
26.5326 10.7899 19.7788
25.9793 9.24592 17.9187
24.4673 10.4699 20.0262
28.8007 9.954 19.5643
26.8921 10.03 19.4116
25.658 10.9674 21.7608
23.911 10.4979 19.4806
25.4556 9.52166 18.6903
22.8993 9.77659 18.2429
23.3752 9.52944 19.1907
23.941 10.1796 19.5607
19.5608 9.22803 18.5754
24.2461 10.0248 20.104
23.9603 10.6589 20.5277
27.0399 9.36784 19.1113
25.8434 10.2982 20.6664
20.1835 10.4916 21.1175
27.9188 10.2623 20.1494
24.3141 10.7946 21.701
25.6387 10.4103 20.2501
24.858 10.0815 20.7489
21.1129 10.8547 21.0678
23.6501 10.4068 20.654
23.0823 10.2526 20.5623
23.269 9.95479 20.1053
24.7479 9.85836 20.5582
24.0826 10.4344 20.0169
27.6743 10.1986 21.9879
24.6197 9.70821 19.5242
24.6649 10.3864 19.5759
22.5487 10.0071 21.8824
28.9039 10.0523 20.4232
24.2653 10.197 20.9803
23.4376 10.887 22.131
23.0896 9.72283 20.2068
22.2601 9.64469 21.1206
24.9474 10.1592 21.2814
22.4084 10.4937 21.8417
28.6002 10.066 20.1087
25.1575 10.8268 22.541
20.6341 9.8875 19.6852
22.6986 11.0037 22.9668
29.7308 10.1468 22.1995
20.5867 9.63719 20.3258
22.9734 11.8377 23.3634
21.0779 9.90019 21.4959
20.6706 10.0886 21.8741
20.9252 9.98764 21.054
21.6378 9.96137 20.3666
20.2378 10.5645 23.4685
18.9411 10.0157 21.5366
21.7197 9.74639 20.5698
22.9337 10.4087 21.4856
19.9364 9.66732 20.7308
23.1514 9.67351 21.9035
24.1559 11.2051 24.7558
19.5737 10.7218 21.3259
21.1108 9.70573 20.5988
21.7759 11.3091 25.3168
24.4841 10.2193 21.711
19.7573 9.2806 20.6563
21.0827 10.5971 22.2942
22.5603 9.39607 20.1946
20.383 9.53456 21.0138
21.5893 9.29581 20.4876
24.6519 10.8991 22.0324
19.3317 10.4649 23.1963
24.1541 9.99297 22.5439
22.7816 10.3087 24.0135
20.6583 10.2844 22.504
21.8271 10.239 22.3025
26.1728 9.7392 22.988
22.7969 10.3332 23.0895
22.3686 10.5257 21.7354
20.6361 9.79182 22.5688
22.2136 10.7826 25.3492
20.8375 10.3944 21.8617
25.0771 9.56458 22.8898
21.641 10.2751 21.7163
20.5998 10.0819 23.0604
26.157 10.0462 23.0434
24.6999 10.7439 23.3395
21.2243 10.0948 23.3703
24.4116 10.3181 24.2001
21.8602 9.7717 23.1217
28.71 10.2925 23.4937
20.5667 10.3701 22.999
21.3255 10.2008 23.8223
21.9489 10.3731 24.1197
20.7751 10.0522 22.8685
21.477 9.54323 22.1573
21.6606 10.683 24.0998
19.3594 9.84159 22.1561
20.3002 9.88788 23.8351
19.7199 9.44042 24.0655
20.9227 10.3648 23.9759
20.459 10.0282 22.5688
21.2942 9.85238 22.7773
20.4136 10.6445 24.0825
21.2328 11.2411 26.8227
23.7558 9.51601 21.7532
18.0321 9.42149 22.5632
19.7545 10.1462 24.6145
23.0495 10.7708 23.9132
19.7501 10.9724 26.5029
17.64 9.20746 22.9631
20.3162 10.4034 24.4993
24.5896 9.91199 23.9766
19.9924 10.566 24.5887
22.1114 10.1078 23.3523
20.3762 9.74237 25.1048
24.4982 9.99926 24.3562
20.7297 11.0321 26.1371
21.6292 10.0387 23.8508
23.7469 10.9579 24.6447
22.053 9.25635 23.1337
19.4157 10.2684 25.2476
22.8793 9.91345 24.7237
19.0137 10.3813 24.3254
20.7104 9.84606 23.0417
23.6866 9.49546 22.5366
20.6674 9.98505 24.5831
19.4274 8.74359 23.8833
22.1745 11.3985 27.7852
20.8368 10.774 26.8176
24.5818 10.2012 24.6051
21.5014 10.4303 26.8667
