# pn-170911/RbIIR-46-RbIIR-1280-1959.psd
# Power spectrum* (dif=0,1,2) (really just |FT|^2)
# NOTE: only the first half! (symmetric)
# weeks: 1280-1959
# 4432 clock-days, 309 excluded
# PSD: 1441
218.455 0.112847 0.0422918
61116.1 1.04623 0.0467918
345323 7.17673 0.0446386
37574.9 1.35217 0.0469105
47122.6 3.31047 0.0473175
12928.9 1.19048 0.0460858
9059.03 1.24153 0.0456618
6523.32 1.15257 0.0459687
5771.82 1.41575 0.0466141
4065.28 1.22252 0.0464365
3270 1.23326 0.0459281
2721.83 1.23796 0.0453641
2441.42 1.29745 0.0475208
2079.79 1.32826 0.0469283
1859.34 1.37511 0.0473324
1579.39 1.35355 0.047904
1390.6 1.3646 0.047581
1303.32 1.44604 0.0500785
1177.13 1.47743 0.0493472
1108.3 1.55041 0.0473354
1024.44 1.60282 0.0479837
948.192 1.67314 0.0498257
891.475 1.70976 0.0504681
859.491 1.78873 0.05072
832.673 1.91507 0.0507095
771.402 1.94449 0.0510775
788.136 2.18259 0.0539596
713.654 2.16791 0.0528747
721.793 2.32858 0.0561969
695.558 2.42744 0.0559467
682.41 2.55694 0.0584039
671.366 2.70734 0.0569753
655.365 2.85504 0.0599132
626.164 2.91327 0.0615273
639.717 3.18906 0.0639737
624.443 3.30424 0.0661364
620.9 3.4655 0.0664294
600.014 3.54813 0.0686273
623.144 3.90181 0.0734744
610.163 4.02768 0.0770799
595.099 4.18624 0.0803126
597.401 4.40583 0.0821821
590.219 4.60718 0.0843607
588.055 4.81013 0.0889789
590.593 5.0521 0.0944905
568.778 5.1953 0.0959361
542.058 5.09313 0.0986078
575.586 5.6883 0.10508
583.166 6.02918 0.111598
554.775 6.01592 0.113663
552.459 6.17194 0.118503
575.061 6.75848 0.129415
565.754 6.93467 0.134317
569.128 7.18178 0.139938
557.359 7.3677 0.148045
549.251 7.51655 0.15695
544.422 7.70892 0.164669
534.768 7.90794 0.166823
536.658 8.2505 0.179517
533.973 8.46708 0.187798
513.686 8.39841 0.188865
530.806 9.03355 0.204961
522.711 9.23234 0.214553
523.609 9.46719 0.226944
504.04 9.42789 0.230866
512.97 9.90481 0.245574
507.941 10.1755 0.259229
514.214 10.5447 0.267508
519.381 11.0033 0.291
501.37 11.0249 0.30058
498.102 11.1578 0.31
474.345 11.0221 0.309556
501.768 11.9402 0.338019
479.052 11.8242 0.345449
480.206 12.0562 0.358415
494.769 12.864 0.397679
486.61 12.9809 0.403336
482.65 13.1469 0.4151
466.977 13.1666 0.424879
459.108 13.3273 0.436531
452.367 13.4073 0.451569
447.197 13.4824 0.463543
441.698 13.762 0.484473
432.715 13.735 0.49286
429.554 13.9831 0.511938
433.311 14.4018 0.539573
426.785 14.6195 0.553765
435.3 15.1849 0.581106
434.507 15.5285 0.61704
433.45 15.8848 0.642726
421.585 15.8773 0.648783
429.045 16.5569 0.689559
404.378 15.7942 0.680042
394.93 15.7397 0.688496
395.1 16.2041 0.719203
392.033 16.3668 0.743444
506.726 21.8808 0.98798
398.389 17.1985 0.810226
378.736 16.8127 0.806716
373.029 17.015 0.834198
383.641 17.6631 0.889927
368.856 17.5505 0.891951
401.537 19.3012 1.00305
371.808 18.2201 0.957344
367.247 18.3558 0.977122
357.5 18.2377 0.985083
347.923 18.2602 1.01561
357.541 19.0257 1.06569
354.752 19.2749 1.11669
349.637 19.2388 1.1265
344.651 19.4204 1.14964
340.617 19.5552 1.17797
348.406 20.457 1.24305
340.337 20.2909 1.26474
353.445 21.2876 1.34169
336.845 20.7042 1.3316
321.925 20.1593 1.32229
316.324 20.2414 1.34956
322.998 20.9761 1.41978
322.206 21.275 1.46182
324.505 21.8004 1.53503
313.689 21.14 1.50129
309.936 21.2887 1.53322
303.476 21.3233 1.55476
313.504 22.361 1.66752
313.906 22.8802 1.73911
305.921 22.6595 1.74551
291.716 21.7829 1.70338
301.05 22.9011 1.82186
288.88 22.3618 1.7954
281.821 22.0662 1.80127
289.051 23.2459 1.92513
291.504 23.6075 1.97036
284.343 23.3206 2.00526
279.795 23.2955 2.01279
279.105 23.6282 2.07635
271.208 23.2119 2.06207
274.082 23.7935 2.14926
277.588 24.4855 2.23894
267.673 23.9266 2.21488
271.95 24.7979 2.32174
266.142 24.5776 2.35812
258.26 24.0219 2.31644
268.44 25.5398 2.51313
270.975 26.1654 2.58922
258.284 25.07 2.51462
244.279 24.1975 2.46874
249.74 25.0692 2.58426
247.536 25.2084 2.64178
253.699 26.0958 2.75882
250.64 26.4647 2.84214
254.468 26.9391 2.93091
239.965 25.7016 2.84035
238.174 26.0548 2.91916
235.892 26.0291 2.94868
243.465 27.3011 3.15299
235.965 26.7477 3.11231
234.168 26.9528 3.17505
234.359 26.831 3.17384
232.918 27.3384 3.28774
224.722 26.838 3.26489
226.782 27.4954 3.41389
219.782 26.6563 3.31656
234.209 28.683 3.62475
222.693 27.5832 3.52552
223.556 28.2268 3.6546
216.211 27.7104 3.63269
225.095 29.1785 3.86074
217.19 28.621 3.83827
215.091 28.2316 3.80377
208.569 28.0967 3.84711
211.341 28.8105 3.99397
216.879 29.7526 4.16109
209.317 29.0748 4.11557
206.869 29.0938 4.17154
207.783 29.6234 4.27706
206.188 29.7398 4.3444
200.749 29.3666 4.3835
203.574 29.9784 4.49027
200.957 29.8612 4.5256
200.379 29.9259 4.58203
193.446 29.457 4.59628
199.444 30.4561 4.75522
202.078 31.256 4.96879
194.514 30.312 4.84132
194.807 30.9323 5.01625
195.865 31.2777 5.07365
190.536 30.8818 5.12923
191.321 31.3483 5.23719
190.52 31.5029 5.28158
183.329 30.6898 5.24093
190.763 32.7077 5.72109
270.466 45.9425 7.83279
183.13 31.3059 5.49147
174.873 30.5348 5.45871
179.75 31.5331 5.62725
181.11 32.0256 5.8081
175.195 31.2625 5.65599
172.784 31.699 5.91829
173.47 31.6057 5.87796
173.903 32.1059 6.07164
171.807 32.1857 6.12335
172.369 32.3315 6.18301
166.951 31.9872 6.22119
173.111 33.1251 6.45144
165.219 32.1089 6.35539
165.804 32.5574 6.50538
163.707 32.2773 6.47103
165.116 32.9376 6.69232
162.042 32.9408 6.80487
163.765 33.1257 6.78038
163.153 33.7398 7.08024
160.599 33.4011 7.02999
160.039 33.159 7.05758
158.402 33.7325 7.26402
158.276 34.1953 7.45277
157.54 33.5898 7.30836
157.989 34.3279 7.56016
152.886 33.7431 7.57501
154.011 34.2264 7.67539
153.607 34.2594 7.78277
150.096 33.5052 7.61656
153.527 34.7968 8.00696
147.471 33.6755 7.79864
148.729 34.4332 8.09297
145.431 33.923 8.03888
143.422 33.8337 8.13439
143.86 34.0265 8.19288
146.21 35.2032 8.59719
149.703 35.9631 8.75274
144.576 34.8823 8.58161
142.075 34.8595 8.6764
143.576 35.3683 8.85353
140.341 35.4732 9.07356
145.54 36.3898 9.2304
140.415 35.9857 9.32982
143.141 36.4789 9.42104
136.245 35.2286 9.28336
133.725 34.7682 9.22121
138.882 36.5907 9.80616
135.575 35.8752 9.59894
132.073 35.1984 9.48278
133.598 36.0713 9.87571
132.686 36.1213 9.95838
131.718 35.9225 9.93896
133.715 36.9204 10.3086
130.591 36.2218 10.2094
133.432 37.0487 10.4545
134.338 37.9369 10.8621
128.403 36.5229 10.6111
127.531 36.5498 10.6296
127.505 37.2046 11.0567
130.865 37.9826 11.1927
127.054 37.0441 10.9992
122.709 36.2174 10.8175
124.924 37.113 11.154
126.694 38.118 11.5393
124.875 37.9055 11.6488
124.935 37.9826 11.6772
122.115 37.961 11.9847
121.031 37.3166 11.7013
123.166 38.2583 12.1164
120.204 37.3888 11.8362
118.815 37.7154 12.153
124.61 39.5407 12.683
116.529 37.4154 12.2133
117.385 38.0266 12.4513
112.262 36.8504 12.2153
115.663 38.0036 12.6943
117.061 38.6365 12.9719
118.166 39.3078 13.2563
111.993 37.3133 12.6118
113.249 38.4163 13.2301
112.474 38.2648 13.2816
113.579 38.8871 13.4585
108.489 37.4691 13.1356
110.194 38.3523 13.4864
108.069 37.3627 13.1428
106.3 37.7339 13.5014
108.88 38.7137 13.9258
107.993 38.6096 13.9859
106.668 38.512 14.1226
109.273 39.6155 14.559
106.042 38.5863 14.1966
102.93 37.7831 14.1245
106.331 39.2369 14.7353
102.937 38.3512 14.5629
105.729 40.4647 15.9166
160.41 59.5101 21.8687
101.998 38.9939 15.1854
100.625 38.5618 15.0674
100.579 38.4837 14.9339
100.237 38.8523 15.2848
99.4938 38.9297 15.421
97.3661 38.3597 15.3483
98.688 38.8573 15.4723
97.8035 39.0251 15.789
96.9331 38.7295 15.6461
97.7637 39.6847 16.2351
97.6593 39.6321 16.4052
97.0377 39.5138 16.3185
96.4635 39.8593 16.6707
97.5178 40.1405 16.7593
96.8829 40.2792 16.8843
93.5809 39.2226 16.637
95.7795 40.7025 17.4522
95.0116 40.0523 17.1475
90.5445 38.6348 16.7262
91.0686 39.2842 17.134
91.8824 39.6035 17.3873
94.0028 40.724 17.9047
89.3857 39.2542 17.4322
90.8033 39.881 17.7825
87.2863 38.8735 17.5581
89.9871 39.6634 17.725
88.5842 39.7261 18.1018
88.8947 40.2339 18.4601
87.1247 39.4243 18.0399
88.703 40.5144 18.8124
86.5499 39.6303 18.3212
82.8106 38.7391 18.2562
87.1112 40.5569 19.049
85.4246 40.1464 19.091
85.6966 40.0294 18.9923
84.3703 39.9884 19.0377
84.3602 40.4248 19.52
83.5388 40.269 19.7038
83.1372 40.4113 19.9162
84.939 41.0705 20.1041
81.7779 40.1781 19.9552
83.8925 41.0165 20.364
80.2603 39.9637 20.2171
83.4432 40.6998 20.1437
80.6746 40.6021 20.6643
79.2325 39.543 20.1392
80.738 40.6544 20.7358
82.9672 42.3054 21.7189
79.4048 40.5422 20.993
80.8701 41.5929 21.5688
77.3703 39.7351 20.8075
81.1411 41.8819 21.9594
76.9737 39.8649 21.0121
76.7123 40.395 21.4615
77.238 40.8687 21.7866
74.7517 39.8477 21.579
77.078 40.9692 22.0754
74.1878 39.8967 21.8075
76.8117 41.3837 22.5077
74.7161 40.632 22.4321
72.5155 39.5349 21.9671
73.8355 40.2933 22.3268
73.3549 40.5413 22.6716
75.0927 41.694 23.3909
72.7463 40.6741 23.0142
71.7703 40.1817 22.7622
71.2035 40.3096 23.1249
71.6134 40.4606 23.2824
72.4151 41.2949 23.855
70.214 40.101 23.4238
70.2485 40.0775 23.3515
72.3512 41.4709 24.1251
70.8624 41.0597 24.0986
68.1556 40.2093 24.0983
69.7017 40.9932 24.5276
70.7254 41.2665 24.6142
69.4473 40.9153 24.4659
68.2115 40.8269 24.7475
68.6937 41.5672 25.4435
68.5874 40.8697 24.862
68.6881 41.6077 25.3604
65.5267 39.8216 24.5242
65.7866 40.5362 25.1122
65.9478 40.8699 25.5062
64.3233 39.9371 25.2702
65.597 40.6894 25.5489
66.9098 42.1418 26.667
64.7409 40.851 26.1767
65.7225 41.4855 26.493
63.2679 40.0945 25.8185
65.1752 41.2277 26.5239
63.1964 40.9354 26.8481
63.1379 40.5773 26.5572
63.2938 41.1836 27.242
63.7641 42.5381 29.714
99.4093 63.6557 39.5206
61.4554 40.6333 27.3365
61.2276 40.5957 27.4251
62.4968 41.0609 27.361
62.0181 41.3566 27.8015
59.1511 39.6555 27.0875
61.0096 40.9789 27.8129
62.1781 42.2287 28.8474
59.9539 40.6543 28.0434
60.9283 41.4758 28.4463
58.5386 40.4547 28.3919
59.6419 40.7917 28.3738
59.6287 41.664 29.2368
59.3454 41.1809 29.018
58.567 40.8616 28.9181
56.9267 39.6584 28.0822
58.0613 41.4453 29.9558
58.3799 41.337 29.5519
56.4708 40.2124 28.9756
56.7046 40.7538 29.65
55.3824 40.0902 29.4184
56.7658 40.7264 29.7345
56.1831 40.5948 29.74
57.3559 41.9707 30.9808
56.1579 41.1794 30.5103
56.4173 41.488 30.968
55.3512 40.5837 30.1533
54.8579 40.9632 30.9577
54.8337 40.8054 30.9166
54.9128 41.0605 31.0565
54.9443 41.3941 31.6988
53.8718 40.4221 30.7748
54.3043 41.3017 31.8474
55.1621 42.1083 32.4944
53.8727 41.3751 32.2577
53.2472 40.9429 31.9692
54.1141 41.5519 32.4046
53.9926 41.6424 32.5624
51.5852 40.3741 32.1416
52.8976 41.1853 32.7136
52.8793 41.753 33.2779
52.4221 41.1237 32.6901
51.4068 40.8361 32.8787
51.2556 41.1385 33.4058
53.122 42.7145 34.7255
52.9461 42.3229 34.1596
50.8805 41.3659 33.9197
49.3939 40.0937 33.2243
50.5678 40.9614 33.5914
50.2962 40.7928 33.5291
50.3657 41.067 33.9385
48.8155 40.3505 33.9315
50.4381 41.676 34.7966
50.4122 41.8407 35.0771
49.0802 41.3131 35.3081
49.0088 40.9771 34.801
49.1749 41.45 35.6436
49.5473 41.5426 35.2716
46.9368 39.6636 34.2579
48.4522 41.1258 35.2463
47.6931 41.1434 36.0181
49.0261 41.8883 36.1733
47.4827 41.1194 35.9676
46.834 40.3959 35.3709
46.9457 41.3104 36.5732
48.2042 42.1693 37.1702
46.4098 40.6436 36.1705
45.8922 40.5975 36.4698
46.4376 40.8685 36.5644
45.733 40.8046 36.862
44.512 39.8103 36.1883
45.8923 40.9154 37.0781
45.1228 40.8776 37.7911
46.697 41.5112 37.608
45.4378 40.8506 37.1669
44.5726 41.0168 37.9041
43.868 40.075 37.4038
45.3073 41.4826 38.5893
44.5068 40.7015 37.9075
43.9998 40.1076 36.9642
43.041 40.4355 38.1866
43.3375 40.4845 38.0505
42.7074 40.3032 38.551
43.7329 41.1332 39.1652
42.9963 40.7017 39.1774
43.1549 40.5875 39.026
42.8483 40.3946 38.5512
41.5076 39.9567 38.9988
42.4246 40.4161 38.9228
41.6412 40.4194 39.6773
42.9456 41.0729 40.1411
42.0898 40.7093 39.8919
40.8977 39.9051 39.5438
41.4416 40.1255 39.4881
39.8652 39.0972 39.2965
40.0592 40.178 43.2657
65.4597 63.3183 57.7407
40.8624 41.0772 41.7028
40.0497 39.8032 40.3318
40.4418 40.5809 41.3511
40.3882 41.1784 42.484
40.9456 40.6378 41.1871
40.1326 40.4109 41.3247
39.1294 39.5249 40.664
39.7504 40.1172 41.1069
38.759 39.3192 40.3892
39.0767 40.3661 42.1658
38.8648 40.2405 42.0466
38.5469 39.9916 42.0926
38.2212 39.106 40.6764
37.7986 39.4475 41.5671
37.9694 39.8958 42.6657
39.0055 40.6229 42.7495
37.089 39.3352 42.4163
37.5993 39.303 41.9102
37.294 39.1889 41.9277
37.6438 39.75 42.4503
38.2533 41.0652 44.3909
36.4173 38.9508 42.2586
36.4318 38.8821 42.1118
36.0982 38.943 42.6235
36.6097 39.9108 43.9647
36.2017 39.5624 43.9004
36.9178 39.6754 43.2861
35.8657 39.429 43.6698
35.9034 39.7451 44.4182
36.7422 40.2148 44.6564
36.0919 39.8476 44.4278
35.4936 39.4658 44.5632
35.9634 39.7277 44.686
35.1532 39.2111 44.4384
35.4318 39.5472 44.7467
35.4169 39.8174 45.1203
34.1965 38.4684 44.0069
34.0082 38.4977 44.2219
33.587 37.9829 43.7278
34.6073 39.6865 45.9349
35.1985 40.4119 46.6555
34.1972 39.0047 45.0096
33.2989 38.4746 44.7503
32.7694 38.5412 45.9611
34.0919 39.0611 45.6231
33.3094 38.0673 44.5652
32.593 38.6339 46.1115
33.1946 39.4139 47.3782
33.5115 38.6626 45.5951
31.6373 37.2315 44.5352
32.6792 38.7536 46.8149
32.9477 38.7685 46.4052
32.9202 39.1756 46.8801
32.2932 38.5966 47.0204
33.059 39.3145 47.1958
32.3451 39.2658 48.0371
32.1164 38.7526 47.2105
31.7599 39.1366 48.7769
32.4858 39.1318 48.1741
31.6503 38.4101 47.4727
31.8972 39.0934 48.3559
32.0517 38.8811 47.7885
31.1934 38.6513 48.4922
31.2249 38.2155 47.6247
30.9965 38.3716 48.0815
30.6853 38.1837 48.1105
31.0844 38.4986 48.6355
30.7063 38.0754 48.0312
30.8734 38.546 48.8389
30.7717 38.3821 48.2942
30.2306 38.8498 50.1777
29.4856 37.1049 48.0701
30.3896 38.6254 49.549
29.8449 37.7575 48.3182
28.9852 37.4634 49.3395
29.0027 36.6856 47.7457
29.1521 37.6046 49.3879
30.2724 38.7917 50.4607
29.3597 37.8622 49.562
29.5047 38.0879 49.6634
29.7382 39.2552 52.2942
29.8362 38.4613 50.4388
29.067 38.4898 51.3791
28.9057 37.7881 50.6506
29.8407 39.0582 51.4316
28.2439 37.5307 50.477
28.7625 38.5689 52.2909
28.1979 37.1682 50.343
28.2951 37.6314 50.9448
28.3171 37.9605 51.6581
27.7516 37.0304 51.0425
28.8153 38.279 51.7054
27.5962 37.5916 52.0405
27.5591 37.6012 52.9056
27.278 38.6229 61.2866
47.3992 61.0604 72.6569
28.1913 39.0942 54.4379
27.0403 37.5638 53.0167
27.3428 37.7324 53.3863
28.2117 38.4294 53.3119
27.1857 37.4819 52.3888
26.1771 36.4107 51.8965
26.7378 36.8673 51.4369
26.0962 36.5444 51.7142
26.0537 36.4772 52.2623
26.9412 37.8251 53.6885
25.9837 36.3062 52.0758
26.5841 37.6785 53.5559
26.3988 37.4582 53.4658
25.5903 36.8581 53.7943
25.5318 35.8486 52.1537
26.2018 37.2417 53.7948
25.5952 36.8204 53.5302
25.2262 36.2375 53.1179
25.4762 36.3966 53.1514
25.8121 37.249 54.3551
25.9006 37.5457 54.7858
24.7981 36.0627 53.5763
25.19 36.4222 54.2961
25.3807 37.0217 54.747
24.944 36.0627 53.2893
25.0376 37.4071 56.1506
25.2567 36.8193 55.0066
24.9671 36.9462 55.7985
25.3084 36.9797 54.9106
24.5445 36.5877 55.1691
24.1681 36.1134 54.9618
24.3926 36.129 54.6332
23.9545 36.1509 55.8707
24.7443 36.3286 54.5374
24.259 36.7745 56.1235
23.9635 36.2689 55.7644
24.0078 36.3582 55.8698
23.6928 35.7084 55.1496
24.0505 36.3073 55.4348
23.4753 35.7648 55.1177
23.1102 35.9344 56.8311
23.9651 36.2849 56.0523
23.3034 35.7628 55.6276
22.8604 35.237 55.5814
23.5844 36.5377 56.6507
22.8033 35.5286 56.6105
23.0836 35.426 55.774
22.6504 35.3966 56.3551
23.2014 36.0514 56.5517
22.9562 36.3049 57.9483
22.0192 34.4384 55.0024
21.7531 34.1657 55.1826
22.864 36.4261 58.4601
22.1023 34.6749 56.184
22.3077 35.0537 56.148
22.3205 35.7103 57.7946
21.9897 34.8971 56.9333
22.4812 35.6328 57.4428
22.2243 35.6464 57.3953
22.0121 36.2896 60.4343
22.7226 36.0488 58.271
21.8178 35.3526 57.7621
21.206 34.756 58.5731
21.7443 34.5002 55.9803
21.1485 35.1856 58.8988
21.3929 34.8163 58.388
21.9285 35.9866 59.7949
21.5683 35.2769 58.666
21.6998 35.8172 59.9005
21.8598 36.2518 60.7216
21.3359 35.2178 59.2109
21.0498 34.5157 57.4582
20.28 33.9166 57.726
20.637 34.5398 58.8061
20.6298 34.1669 57.2623
20.3765 34.9291 60.5408
21.047 34.972 59.0606
20.0823 34.2554 59.4064
20.7213 34.8541 59.8164
20.3514 34.4075 59.7778
20.5547 34.5785 59.4482
20.7727 35.2923 60.0729
20.1729 34.9394 60.9216
19.9588 33.9596 59.2687
19.9443 34.3663 60.1976
20.0841 34.7034 60.8478
19.3553 33.142 58.9797
20.0604 34.1896 59.1218
19.5085 33.829 59.3442
19.3425 34.1036 60.9293
19.666 34.0993 60.7435
19.6458 34.3158 61.24
19.9295 35.0362 62.1543
19.4239 34.2508 62.2992
19.3363 36.003 77.0868
32.9916 53.6008 78.5982
19.2852 35.2145 63.6503
19.2286 34.4737 62.7561
19.4065 34.5566 62.4219
19.3328 34.66 62.8856
19.1135 33.9169 61.3877
18.9571 34.0406 61.8798
18.8273 33.8895 62.2504
18.9089 33.3791 59.9866
18.3975 33.6266 62.5544
18.9053 33.3414 60.3656
18.9077 34.4045 62.1786
18.6962 33.9658 61.6852
17.7911 32.6569 60.6892
17.928 33.023 62.0135
18.6954 34.4388 64.0284
18.5098 33.4588 61.9988
18.1203 33.2279 62.0716
17.9614 33.2505 63.244
18.1583 32.7903 61.4203
18.3051 34.1959 64.2356
18.0196 33.0352 62.6855
18.0417 33.157 62.0128
17.6251 32.6013 62.4786
18.2448 34.034 64.4991
17.921 32.7885 61.6249
17.5094 32.6968 61.9573
17.6244 33.6003 64.2576
17.5354 32.3299 61.6349
17.5223 35.2215 72.7794
20.2471 35.2786 63.4502
17.376 33.1435 63.5866
17.4839 33.2777 64.8915
17.7445 32.9227 62.7037
17.5096 33.4943 64.2856
17.1041 33.2296 65.5642
17.3034 32.2445 61.8814
16.8528 32.3205 62.6961
16.6269 31.9712 62.442
16.9241 33.0633 65.3777
16.766 31.49 60.8322
16.5792 32.8726 65.6896
16.7985 32.274 63.2394
16.33 31.7288 63.3004
16.6404 32.5378 64.3171
16.3968 31.6873 62.7409
16.2575 31.8471 63.7692
16.2112 32.0222 65.9744
17.6251 33.8029 65.5374
16.2872 31.7619 63.0993
15.9522 31.9616 65.5705
16.3424 31.5489 63.1404
16.0561 31.4061 62.1998
15.8148 31.6468 63.9102
15.965 32.0268 64.8951
16.0061 32.1517 65.9413
16.2794 31.9108 64.1181
15.751 31.4986 63.6675
15.7046 31.7675 64.8908
15.4228 30.8595 63.0884
15.3855 31.1236 63.8772
15.2937 31.0064 63.8538
15.3255 31.6991 66.5778
15.6461 31.3553 65.1914
16.1434 32.7696 66.682
15.3356 31.1664 64.9647
15.1753 30.7583 64.2731
15.4473 31.7042 65.3808
15.0513 30.7316 64.4469
15.1574 31.4175 66.3696
15.1878 30.7356 64.2019
14.7626 30.1791 64.1342
15.1777 30.8042 63.8888
15.0392 31.3055 65.7538
15.1588 31.66 66.8302
14.8 30.3962 63.704
14.5844 31.2996 67.8522
15.1603 31.3964 66.7286
14.9932 31.3688 66.2991
14.5844 30.7089 66.0176
14.3412 30.1701 65.2413
14.4099 29.8129 64.0396
14.5834 30.6633 65.2846
14.4062 30.5836 66.1003
14.4609 30.3455 65.9431
14.7645 31.1098 65.8834
13.9513 29.3608 64.9406
14.4993 30.4931 64.9061
14.0888 30.3618 66.3841
14.4878 30.9317 66.9438
14.1792 30.173 65.9659
14.1874 29.932 64.1781
13.5756 29.4874 65.4946
13.9378 30.5146 67.5171
13.8699 30.1819 68.042
13.8688 32.317 89.7511
24.4962 48.6248 84.6889
13.5621 29.7209 66.2817
13.8013 30.1647 66.2626
13.5217 29.905 66.2839
13.5094 30.0887 67.449
13.7122 29.9517 66.9889
13.3976 29.0434 64.9074
13.1749 28.8703 64.7341
13.3072 29.4018 65.4253
12.6872 27.8296 64.2143
13.8517 30.6098 66.8179
12.9569 28.6694 65.2172
13.1175 29.5031 68.1735
13.8258 30.2484 67.151
13.246 29.8095 67.5419
13.1026 29.5024 66.9179
12.7548 28.5758 66.5258
13.1722 29.1712 65.9551
12.8991 29.2079 67.2392
12.8069 28.1996 64.6566
13.1567 29.81 68.0041
12.9389 28.8759 65.894
12.7789 29.1721 67.0926
12.6679 28.428 65.5267
12.7372 29.1686 67.1627
12.6972 29.015 67.2442
12.669 29.1279 68.7537
13.0342 29.3456 67.7467
12.8337 29.21 67.1981
12.4387 28.7965 68.3248
12.6878 28.5911 66.3219
12.541 29.3023 69.2914
12.7406 29.1493 68.3684
12.6326 28.5815 66.6091
12.4294 28.7563 67.0114
12.0628 27.5894 65.1687
11.9898 28.1405 66.3927
12.1437 28.3197 67.2067
11.9112 27.2653 64.5771
11.9117 27.6875 65.6829
12.0196 28.0874 67.1322
12.1297 28.3906 68.088
12.1235 27.892 65.226
11.5404 27.8637 69.015
12.3124 28.376 67.6025
12.1752 28.4835 67.4676
11.8473 27.8527 66.6832
11.6578 27.7625 67.3032
11.6275 27.6749 68.2622
11.7956 27.3649 65.9438
11.5561 27.3342 66.019
11.7209 28.0821 67.969
11.6537 27.6753 67.0726
11.6139 27.7811 67.3668
11.5055 27.7324 68.4418
11.7536 27.9218 68.1061
11.5627 27.5434 67.2825
11.324 27.0825 66.7875
11.5918 28.1392 68.1732
11.2319 27.2195 68.0756
11.5284 27.6363 68.6846
11.5511 27.6025 67.4379
