# pn-170911/RbIIR-58-RbIIF-1280-1959.psd
# Power spectrum* (dif=0,1,2) (really just |FT|^2)
# NOTE: only the first half! (symmetric)
# weeks: 1280-1959
# 1804 clock-days, 740 excluded
# PSD: 1441
1443.15 0.25985 0.0410617
46767.9 0.453138 0.0587828
388601 9.87824 0.0625793
20175.6 0.693383 0.0600376
118642 10.0197 0.0667885
7571.61 0.652569 0.0579095
9316.19 1.90409 0.0627186
3639.13 0.669808 0.0638998
4285.83 1.34021 0.0643577
2595.25 0.664101 0.0607159
2228.18 0.949459 0.0630168
1602.31 0.733273 0.0592141
1645.82 0.911806 0.0614309
1293.65 0.776725 0.0610664
1055.54 0.847579 0.0653232
1048.9 0.870319 0.0614607
921.643 0.948989 0.0637101
800.666 0.902888 0.0618965
836.051 1.01252 0.0645894
706.435 0.966151 0.0611498
654.004 1.04673 0.0674221
646.979 1.11158 0.0611181
570.575 1.11203 0.0630951
564.508 1.1562 0.064075
506.612 1.1977 0.0657117
457.023 1.20945 0.0634563
471.837 1.3061 0.0636901
439.838 1.29329 0.0704114
441.682 1.44151 0.0659003
421.732 1.50318 0.0711816
400.764 1.52287 0.0676709
412.336 1.65197 0.0706679
394.857 1.60505 0.0692282
368.422 1.65409 0.0714921
344.361 1.69638 0.0719457
355.544 1.85216 0.0652772
346.619 1.94534 0.0715688
348.405 2.06034 0.0774827
331.847 2.00095 0.0763829
338.73 2.18543 0.0806292
330.658 2.22625 0.0772582
300.054 2.20485 0.0795741
298.096 2.21089 0.0790173
280.038 2.30121 0.0888364
288.287 2.41854 0.0804801
283.438 2.54404 0.0879639
276.979 2.51785 0.0861162
287.559 2.76004 0.0918517
276.587 2.78789 0.0878234
275.077 2.77794 0.0988213
256.596 2.8225 0.0953495
265.076 2.92578 0.101659
264.666 3.1267 0.102969
251.924 3.11485 0.105071
238.101 3.11871 0.102432
254.734 3.36045 0.11313
254.485 3.52803 0.115273
239.918 3.42799 0.11412
247.315 3.67108 0.117266
225.013 3.49652 0.123084
248.669 3.84219 0.131857
224.246 3.67506 0.124887
243.387 4.07864 0.144753
214.07 3.83898 0.134842
216.409 3.97899 0.141518
212.453 4.10215 0.143089
208.682 4.13005 0.150217
213.393 4.36724 0.15118
206.573 4.28984 0.149193
210.956 4.52614 0.167961
213.665 4.78341 0.172753
191.944 4.37129 0.172412
201.791 4.67163 0.18088
198.163 4.64303 0.184072
202.085 5.01639 0.189439
193.751 4.85578 0.190251
194.187 5.03833 0.197247
190.157 5.08675 0.20953
200.009 5.45726 0.222718
185.361 5.23128 0.221226
187.036 5.41226 0.225558
189.878 5.73785 0.233669
178.975 5.50758 0.236999
180.21 5.66081 0.255036
183.774 5.9541 0.258014
189.189 6.23235 0.273315
177.394 5.96385 0.271233
175.523 6.07471 0.280581
183.248 6.44138 0.29645
174.473 6.4591 0.309347
173.305 6.43669 0.311989
166.888 6.28663 0.311149
167.049 6.46702 0.327605
166.565 6.73882 0.32663
167.412 6.70639 0.340909
168.912 6.9764 0.352818
191.023 8.04847 0.411793
157.647 6.7018 0.35599
164.728 7.26504 0.388589
162.155 7.19621 0.403736
162.269 7.29924 0.400629
170.651 7.89141 0.444608
163.612 7.7739 0.446663
160.721 7.61147 0.445308
155.261 7.46992 0.439356
162.421 8.21098 0.485767
159.807 8.14018 0.487921
155.228 8.14522 0.49786
148.294 7.88966 0.482982
157.974 8.68452 0.543591
154.266 8.44959 0.548057
152.486 8.68124 0.553862
146 8.34011 0.550588
154.421 9.20598 0.604624
147.733 8.80609 0.608461
149.858 9.1403 0.626846
147.654 9.23512 0.650324
141.415 8.94059 0.631432
142.891 9.20597 0.652194
140.788 9.03493 0.660325
137.929 9.07132 0.675002
137.344 9.42376 0.707382
135.881 9.39416 0.719421
145.801 10.2297 0.79916
141.156 9.86293 0.77517
147.499 10.4891 0.828184
142.228 10.5534 0.847322
134.799 9.92817 0.794961
130.84 9.9719 0.826072
136.24 10.3654 0.883459
131.092 10.1235 0.85981
134.541 10.6287 0.919546
140.236 11.147 0.969146
126.468 10.1618 0.902934
132.94 10.8531 0.979963
127.031 10.5995 0.970878
126.514 10.738 0.988038
122.148 10.3492 0.960694
124.638 10.91 1.0219
125.035 11.1408 1.07058
125.903 11.4768 1.12346
120.265 10.9897 1.09193
120.651 11.1651 1.11191
127.145 11.9736 1.20955
120.528 11.5912 1.18778
126.773 12.2422 1.2644
120.088 11.6785 1.23986
120.029 11.7872 1.26131
120.996 12.2547 1.31168
122.108 12.4642 1.35181
121.566 12.5356 1.36834
122.144 12.6806 1.4131
121.263 12.7486 1.43889
113.417 12.0205 1.36921
115.628 12.5503 1.45606
118.939 12.7983 1.50658
118.374 13.1597 1.56084
109.659 12.4926 1.50207
116.232 13.2654 1.60218
112.396 13.0453 1.59541
108.858 12.8939 1.58372
116.898 14.0738 1.78949
114.781 13.8326 1.74515
112.912 13.8036 1.75935
108.269 13.4367 1.75111
114.958 14.3459 1.89752
109.104 13.9278 1.88697
114.842 14.7751 1.98688
111.11 14.3072 1.95397
105.858 13.8859 1.91339
106.914 14.2811 1.99576
105.05 14.0744 1.95343
107.73 14.7112 2.09321
108.383 14.8742 2.13263
106.881 14.8131 2.17773
106.871 15.0271 2.21426
111.4 15.7315 2.35108
108.175 15.3726 2.29491
106.954 15.7317 2.40086
109.991 16.1087 2.46294
109.813 16.2674 2.52605
104.766 15.6545 2.44833
102.108 15.6469 2.49168
112.335 17.1308 2.73184
102.762 15.8668 2.58162
104.159 16.2777 2.66674
101.304 16.0508 2.65193
99.8108 15.7774 2.6381
101.298 16.503 2.78164
107.563 17.4038 2.97637
101.44 16.6667 2.86543
100.365 16.5165 2.87925
107.098 17.9511 3.1296
102.8 17.2595 3.05171
98.0962 17.0273 3.05326
103.645 18.1595 3.31636
103.063 18.0106 3.24233
100.085 17.764 3.27654
90.426 16.2474 3.03569
96.446 17.8188 3.36771
95.646 17.5618 3.32333
97.0391 18.0348 3.46576
95.1168 17.855 3.44768
99.0531 18.9455 3.68043
96.6798 18.459 3.66677
99.4703 19.1736 3.80689
94.1089 18.2015 3.6762
95.6678 18.8071 3.84172
99.4314 19.4957 3.94338
94.1308 18.8571 3.92622
93.828 18.8781 3.91807
94.6399 19.5562 4.11842
96.4785 19.8034 4.19883
93.3487 19.563 4.16059
87.3831 18.3852 4.04003
94.5474 20.2061 4.41394
93.0501 19.8001 4.33043
93.6851 20.3312 4.48066
91.2113 19.9972 4.50575
91.9184 20.3501 4.6299
90.6094 20.1007 4.54214
88.5313 19.8565 4.58246
87.3228 19.7736 4.6095
90.4401 20.4473 4.73116
88.7314 20.5364 4.8687
91.3743 21.1735 5.05746
87.9321 20.6408 4.96859
90.0001 21.0231 5.04779
91.4775 21.579 5.25322
88.5422 21.2808 5.23888
87.6628 21.3327 5.30591
87.6771 21.3887 5.25561
86.1061 21.2647 5.38471
89.6276 22.6269 5.79877
84.0664 21.0764 5.40599
84.9917 21.3488 5.46904
86.4954 22.1916 5.78689
83.494 21.5131 5.68114
85.4626 22.1108 5.8787
84.4705 21.9977 5.90026
83.2875 21.9627 5.92538
83.6583 22.3959 6.13402
84.9868 22.3516 6.08069
84.2793 22.9492 6.31865
85.079 23.4493 6.53658
86.2557 23.6267 6.58677
82.5307 22.8191 6.39306
83.3385 23.3887 6.68347
84.3005 24.0757 6.90039
85.2637 24.1454 7.00295
83.5117 23.7991 6.93249
80.2381 23.1522 6.88457
80.3234 23.2532 6.91474
79.9537 23.2545 6.94028
81.0404 23.6709 7.06135
80.251 23.9171 7.25036
80.285 24.1063 7.29898
78.0611 23.8105 7.34929
79.3483 24.0109 7.46713
76.5615 23.6311 7.37393
82.3089 25.4263 7.93646
79.3782 24.4871 7.69594
81.9952 25.7844 8.25392
77.8802 24.4757 7.79567
82.5207 26.8719 8.79229
77.3927 24.6931 8.02207
79.6354 25.7599 8.4862
77.9223 25.1614 8.24006
76.8478 25.3594 8.46828
74.2544 24.2613 8.05446
75.624 25.1857 8.53312
75.2283 25.3318 8.62207
75.1684 25.5381 8.79156
75.1576 25.4348 8.82646
74.9381 25.5726 8.86842
75.85 26.2224 9.23601
77.8862 26.7539 9.40593
76.2515 26.6401 9.43378
78.2101 27.5272 9.79013
71.1405 25.3105 9.21923
74.7944 26.7484 9.6766
73.9505 26.4211 9.59371
74.6197 27.1101 9.94899
74.0048 26.7776 9.91175
72.9623 26.4455 9.887
72.5169 26.6346 9.95042
73.0968 27.3631 10.4873
72.7113 27.1383 10.3705
87.9951 32.7918 12.2196
71.5387 27.9456 11.0196
74.1089 27.9811 10.7763
76.4752 29.0575 11.2524
70.3958 27.2706 10.7543
72.9458 28.2874 11.1748
70.7942 27.591 11.0102
70.0986 27.5616 11
71.3901 28.2319 11.4327
73.8893 29.2551 11.7356
71.2986 28.8668 11.864
69.2888 27.7005 11.2431
69.7643 28.74 11.9589
68.5174 27.8201 11.4391
66.8385 27.7328 11.581
66.245 27.7947 11.8744
68.9712 28.9172 12.2657
67.954 28.6869 12.3274
67.7125 28.5757 12.164
63.8145 27.5397 12.0289
66.0795 28.371 12.3735
64.9619 27.9848 12.2963
62.0631 27.3006 12.1869
63.0228 27.4885 12.3504
67.4879 29.5936 13.0922
61.9732 27.3591 12.275
64.3092 29.1555 13.4087
61.7789 27.3605 12.3905
62.7768 27.8858 12.6734
65.9344 29.7372 13.5764
64.3121 29.6093 13.7957
63.8825 29.3306 13.6682
63.0244 29.1695 13.7709
61.5344 28.3928 13.3583
61.6165 28.6928 13.5947
59.0843 27.7346 13.2886
61.1996 28.9791 13.9951
64.1768 30.3287 14.6424
62.1117 29.807 14.4405
60.3665 29.1911 14.3104
62.3604 30.2949 14.946
60.5956 29.2422 14.3144
63.1552 31.1022 15.3433
62.5188 31.0628 15.5417
62.6295 31.2204 15.8997
61.1115 30.3421 15.2233
60.012 30.0705 15.1924
57.1942 29.0103 14.9847
62.628 31.7815 16.1914
61.9508 31.6304 16.419
58.9545 30.5521 15.9875
59.2438 30.5181 16.027
60.1925 31.2347 16.3642
57.6016 30.0801 15.9504
59.4485 31.3869 16.7453
59.7174 31.5649 16.8235
58.1843 31.0889 16.8376
58.3015 30.8938 16.6642
58.1206 31.4091 17.31
59.4621 31.9068 17.4073
57.612 31.1325 17.0184
59.5435 32.7793 18.1108
56.5213 30.828 17.2334
58.7073 33.0242 18.6895
58.073 31.9137 18.0881
60.2847 32.9649 18.3399
55.1991 30.8689 17.4942
55.4901 31.1771 17.6308
55.4686 31.5098 18.0642
55.6373 31.6686 18.3029
56.3683 32.4767 18.7288
53.3413 31.0908 18.5304
55.7029 31.4443 18.1669
53.2374 31.2941 18.6666
55.2473 32.278 19.1385
56.1586 33.0983 19.8514
56.7089 33.3034 19.9297
55.8187 33.0896 19.9461
57.8853 33.8072 19.9081
54.3933 32.8059 20.0139
53.5603 32.4222 19.9705
53.5303 32.5829 20.0017
53.5558 32.4944 20.0855
54.1661 33.1248 20.4925
53.4555 32.56 20.4017
55.7894 33.8758 20.7377
55.1111 34.9489 22.2597
55.5685 34.8659 22.086
55.8778 35.3036 22.4881
52.4713 32.6068 20.6908
51.969 33.3451 21.5903
53.7884 34.303 22.11
52.079 33.3276 21.7105
53.5425 33.8369 21.8008
49.1505 31.8882 21.241
52.7531 34.3728 23.1481
58.9955 38.0662 24.3848
49.3297 32.7122 22.2449
51.1924 33.0356 21.735
49.3095 32.8774 22.1592
51.2078 34.6317 23.5595
49.7898 33.2892 22.6431
51.1807 33.82 22.7295
49.7225 33.8999 23.3629
49.5619 33.3118 22.8619
49.1856 33.2299 22.8299
48.8096 33.0832 22.6863
48.9988 34.154 24.1601
50.5132 35.0194 24.5621
49.6305 34.5697 24.536
48.1055 33.0246 23.3355
48.6762 34.4806 24.6685
50.7103 35.1173 24.473
46.5001 33.3209 24.3032
47.944 33.946 24.538
48.3043 34.2037 24.4297
47.2644 33.8713 24.4668
46.7701 34.4801 25.7064
47.7497 34.4748 25.2894
47.1103 34.3556 25.4996
46.8978 34.4393 25.7386
48.9203 36.1306 26.8372
46.1647 33.9675 25.5279
46.5456 34.0991 25.5406
47.4838 35.8134 27.2879
47.9807 35.7349 27.103
46.8984 35.2913 26.8761
45.615 34.5116 26.5419
48.191 36.0967 27.543
44.9758 33.6546 25.8173
45.6886 34.8281 26.8909
45.7975 35.8888 28.0207
46.2379 35.9406 28.3205
44.5376 34.6756 27.6147
45.2812 34.6011 26.7959
47.4788 37.2573 28.9584
43.0054 34.1916 27.6445
45.1599 35.9785 29.0714
44.1575 34.4777 27.5117
43.2098 34.8374 28.2615
42.4828 33.4073 26.8563
43.561 35.1821 28.5907
43.2687 34.6474 28.2647
43.173 34.4295 27.6664
43.5399 35.8865 29.7428
43.5828 35.4868 29.5578
43.0049 35.0167 29.172
43.9535 35.7769 29.1918
41.3541 34.5145 29.0471
41.6949 35.6985 30.6506
41.784 34.6453 29.417
42.8278 35.9191 30.611
43.5417 36.6779 30.8535
40.7266 34.1817 29.3223
40.7692 34.4226 29.4658
41.1073 35.3644 30.8942
43.2141 36.9225 31.8964
40.8471 34.9778 30.5592
39.8816 34.0694 29.3721
40.6912 36.117 32.1043
40.1137 34.8272 31.0265
39.9498 34.6975 30.7758
42.4242 37.0144 32.6114
40.0453 35.0963 31.4732
39.8636 35.175 31.7642
41.3666 36.6724 32.9523
39.4958 34.3828 31.0686
41.1328 36.5275 32.4744
40.4848 36.4505 33.1732
40.8156 37.3054 34.3906
40.0178 36.6503 34.1934
39.2138 35.454 32.9339
41.3765 36.5082 32.7076
39.0846 37.0498 35.2589
41.5377 37.8204 34.6309
38.6641 36.4659 34.516
39.4456 36.8483 34.674
38.9571 36.2557 34.314
38.641 36.2709 34.4933
38.9691 36.8827 35.3115
39.603 37.2207 35.8443
38.7904 35.8039 33.4777
37.056 35.6965 34.9314
38.187 36.4942 35.0102
36.8719 35.7285 35.5143
39.0922 36.7581 35.1791
37.2684 36.4083 36.0471
38.0864 36.5364 35.7428
37.7534 36.9612 36.6995
38.9962 37.4996 36.6428
37.4126 36.875 36.606
35.1854 34.9051 35.9897
42.243 40.4566 39.3043
39.1311 38.5034 38.183
37.5707 37.9802 38.4415
37.7794 37.8766 38.4145
35.4824 35.9846 37.179
36.39 36.1867 36.8921
36.6447 36.912 37.9152
37.2648 37.6061 38.398
37.3488 37.7467 38.6914
37.1188 37.5035 38.3805
34.8413 35.5832 37.04
34.213 35.824 38.2638
36.6857 37.2916 38.2025
34.9555 36.1633 38.0805
37.0113 38.8056 40.939
35.5313 36.6311 38.6016
34.7293 36.4506 38.8312
36.3431 38.3993 40.8
35.1575 37.4108 40.0324
34.5438 36.1645 38.8589
34.9815 37.5147 40.3909
34.9546 37.244 40.3326
34.8478 37.5821 40.8409
33.4443 36.28 40.1515
33.5729 35.4044 38.1507
32.0144 35.7598 40.812
35.5402 37.3817 40.6811
34.5357 37.0844 40.5412
33.8739 36.5172 39.9552
32.8402 36.1302 39.9712
32.004 35.4049 39.7938
33.6101 37.059 41.1558
31.9903 35.8595 41.0437
33.5572 36.0016 40.0265
32.5822 36.4776 41.5923
31.8478 34.9615 39.6434
32.7477 36.3372 40.3032
31.9823 36.2966 41.6009
32.2044 36.5338 42.082
32.8803 37.024 42.022
32.1349 37.0104 42.6829
31.9335 36.3648 41.5772
29.9279 34.7104 40.9257
30.3444 35.1531 41.7624
32.1461 36.4215 42.2966
31.5713 35.8871 41.3112
30.7115 36.3377 43.2118
30.829 35.3094 41.1894
30.6924 35.7334 41.7796
29.4768 35.5918 43.1358
31.6209 37.6875 45.4824
30.4583 36.0446 43.3447
29.8949 35.2901 43.0581
31.1622 36.7841 44.1591
30.0948 35.7136 42.9303
29.5003 35.5977 43.2981
29.3061 35.2995 43.33
30.0048 35.9489 43.8859
30.2854 37.0512 45.5575
29.2816 35.8518 44.514
29.1893 35.1801 43.5765
30.5105 37.7425 46.6517
28.6951 35.222 44.3167
28.7128 34.7961 42.8256
28.7412 36.0629 45.8997
28.3806 34.8724 44.3361
29.6171 36.6511 46.3602
30.2355 36.6961 45.4142
29.0392 36.7067 46.7241
28.7013 35.3928 44.6682
28.1672 35.0272 44.3874
28.1035 35.1329 44.5215
28.3142 35.9517 45.6127
28.644 37.3058 48.9757
28.337 35.4341 46.1685
29.9082 37.7533 48.017
28.6487 37.414 49.0489
27.5095 35.0392 45.6155
28.7741 37.601 48.7828
27.6396 35.9848 47.534
27.6329 35.652 46.6872
27.4968 36.2135 48.2243
28.8882 38.1208 50.4963
28.1521 36.6966 48.3609
26.3956 34.7374 46.7816
26.7754 35.331 47.3087
27.4692 36.6103 50.3539
28.3415 36.5351 48.029
27.5281 35.921 48.0262
26.6214 35.6549 48.3754
26.4954 35.185 48.3171
26.1926 34.8772 47.3976
26.8323 35.5336 48.9904
27.2997 36.4575 49.7386
28.1629 38.0072 52.8206
26.92 35.9178 50.9841
31.9403 41.6237 54.1599
27.5826 38.5276 52.7656
26.7798 36.6133 51.9074
26.1453 34.8932 48.1805
25.8092 35.4189 49.6482
26.2018 36.3584 50.7685
26.297 36.1965 50.8279
25.4239 35.2776 50.03
25.1316 34.8026 49.2292
25.3561 35.5012 50.3085
24.8867 35.6369 52.0437
25.9864 35.7919 50.2696
25.6236 36.2829 51.5902
26.3841 37.3282 52.4185
25.2703 36.8546 54.1573
25.8334 36.744 53.1544
25.4629 37.1452 54.5346
24.9285 35.1268 51.3595
24.3638 34.2989 50.2654
25.2166 36.3708 52.1101
24.4603 36.2295 53.9887
23.8149 33.8253 50.2728
25.1061 36.3841 52.9569
24.068 35.2209 52.9921
24.4445 35.3785 52.596
24.6102 35.9446 53.7985
24.9339 35.421 51.9803
24.7958 36.2407 52.7344
24.299 35.7643 53.2247
23.3917 34.4658 51.8641
23.4592 34.6432 52.7908
24.2426 36.1849 54.8557
24.2204 35.4687 52.5568
24.0049 36.661 55.4412
23.409 35.4726 55.0565
23.9892 36.227 55.8041
23.8819 35.8587 55.2303
24.5866 36.9613 56.5225
23.4719 35.0974 53.9652
23.0661 34.9626 53.888
22.8087 34.7092 53.9356
23.6173 36.0106 55.3817
23.0167 35.5699 55.331
22.1166 34.3789 54.7991
22.1874 33.4714 53.237
23.4301 35.4736 54.5119
23.019 36.0644 56.6305
22.7157 35.4387 56.4537
23.0913 35.8278 54.979
22.0233 35.0177 56.8492
23.0707 35.4496 55.9036
23.2076 36.7839 57.5397
21.6485 34.5875 56.1538
21.2946 33.5541 55.0361
22.0709 34.3894 55.068
21.8172 34.4944 55.3598
21.5003 34.176 55.2657
21.1085 33.2658 53.8263
21.2336 34.2201 56.3239
21.8434 34.7839 56.039
21.515 34.2247 55.7535
22.0086 35.4889 56.6667
20.4971 34.1387 57.5029
20.6974 33.0081 54.6332
20.7783 34.1287 56.9957
21.2616 34.7575 57.5323
21.8613 36.2853 60.6656
21.2944 34.345 56.9947
21.5623 34.7868 56.6055
20.082 33.3151 56.4387
21.0304 34.8934 58.3577
20.4236 34.1458 58.7779
20.5752 33.1089 55.0077
20.865 35.084 58.9452
20.4167 34.481 58.4767
20.36 34.3005 59.2791
20.1404 33.5491 57.8348
20.6518 34.3749 57.9065
20.3066 34.3391 58.4618
19.7583 33.4598 57.4737
20.2435 34.2761 58.5169
19.6648 33.9669 59.3358
20.0618 33.4456 57.6945
19.8987 33.5863 56.8036
18.8058 32.1239 55.9811
18.8033 33.1898 59.7648
20.1303 34.1081 59.3096
20.4075 35.2288 61.152
20.0666 34.7843 61.3569
20.2637 35.1133 60.4661
18.3461 32.0591 58.2604
19.63 33.7511 59.906
19.5261 34.0273 60.0353
19.3512 34.0814 60.5686
18.0643 31.3366 57.4194
19.2162 33.5671 61.3039
21.4771 37.3538 62.5778
18.0706 31.9518 57.165
17.727 31.8419 58.2195
18.7441 33.6319 61.1101
18.0732 31.8267 58.538
19.1378 33.489 58.7306
18.0084 33.1651 61.2288
18.0336 31.8914 58.2761
17.7222 31.186 58.0326
18.3824 33.2153 61.2207
18.5369 32.1453 57.3351
17.8713 32.683 59.8197
17.8705 32.497 59.6283
17.7057 32.4075 60.4373
18.072 32.5383 59.2205
17.6493 32.2119 59.3344
17.4533 32.6988 61.1862
16.6275 30.157 57.8421
17.4797 31.8121 59.1261
17.5991 32.5435 59.9834
17.3691 32.816 61.6644
16.971 31.4872 59.8901
17.7067 32.7288 62.0508
17.8478 32.7343 61.2107
17.1599 31.9486 60.5269
17.0816 32.0888 61.2702
17.5836 33.2595 64.1346
17.2561 31.0804 58.2354
16.8546 31.8954 60.3966
16.6303 31.1341 59.2559
16.8878 32.6303 62.4485
16.3497 30.9587 59.576
16.3125 31.5306 62.186
16.9286 31.9879 60.7018
16.3396 32.1882 64.208
17.0751 32.2746 62.1946
16.1416 30.5657 59.9098
16.6277 31.8045 61.3218
16.4643 32.09 63.3684
16.5257 31.3613 61.7226
15.9668 30.3489 59.3863
15.9887 29.9056 57.6102
15.1155 29.6311 60.0311
16.4299 31.4895 60.6511
15.5853 30.9805 62.5366
15.7837 30.2239 60.1214
15.7465 30.5339 60.0049
15.5451 30.8044 62.6898
16.3894 31.4958 61.6109
15.8307 31.5944 63.121
15.9184 31.613 62.9451
15.0878 29.7462 59.9015
15.1461 30.1371 60.5314
15.153 30.3764 61.7642
15.1409 30.4004 62.8403
15.4058 29.7494 60.7202
15.5034 31.2921 64.5344
16.3895 32.0964 64.1402
15.5065 31.2684 64.0684
15.3844 30.6836 62.6275
15.0884 30.8363 64.5788
15.5573 30.2029 60.8182
14.6623 29.9006 62.5873
15.0527 29.3956 59.7402
14.9305 31.019 62.806
14.6026 30.2814 63.0863
14.8826 31.1898 66.7751
15.2024 30.4326 63.7703
15.146 30.9909 63.885
14.4588 29.572 62.3471
14.9953 30.9551 64.1724
14.5807 30.2033 64.665
15.1471 31.4676 66.01
14.693 30.0495 62.7212
14.6308 30.3003 63.7995
14.6189 30.7594 65.1388
14.1731 29.0456 62.5255
14.3662 29.5847 62.5759
14.2477 29.6928 63.4952
14.5439 30.5674 64.5771
14.5569 30.7984 65.9485
14.6025 30.1843 63.6018
14.5325 30.3584 63.4786
13.8894 30.2582 65.8196
14.2631 30.3917 66.7454
14.5508 29.9828 63.7854
13.992 29.7625 64.3299
14.0325 30.0744 65.5985
14.155 29.9429 64.2551
14.035 30.2756 65.722
14.1767 30.6838 66.6314
13.96 29.7859 64.9775
13.9281 30.0394 65.6005
13.5227 29.2741 66.1103
13.6822 28.9498 63.624
13.6171 30.0569 70.3298
16.0564 33.9979 69.2228
13.2972 29.058 63.6957
13.1401 29.4018 66.2885
13.7171 29.7773 65.7861
13.6356 30.0357 67.0567
13.6391 29.6281 65.4843
13.2308 28.7406 63.7685
12.9419 28.7155 65.8548
13.4439 29.0684 65.0992
13.8827 31.0082 68.669
12.9987 28.8914 65.7351
13.1185 28.5126 64.9269
13.1697 29.3883 66.4323
12.9603 28.2054 64.9109
12.9326 28.3237 64.5812
13.3361 29.3577 64.4124
12.3794 27.5694 63.2768
12.6611 28.2949 64.2761
12.4886 28.0499 65.1744
13.1936 29.4304 67.3004
12.8816 29.3538 67.7048
12.5426 27.5693 63.9235
13.0748 29.5442 66.49
12.4172 28.3365 67.2594
12.6891 28.4279 65.6481
12.5301 27.9186 65.3493
12.7416 28.9348 67.5908
12.8343 28.9847 66.6423
12.4244 28.1028 65.517
12.6383 29.1741 67.8397
12.4921 28.2036 64.7273
12.0035 27.8787 66.4233
12.4428 28.9487 68.8204
12.6002 28.1841 65.4955
12.3873 28.6996 65.9152
11.7751 27.332 66.0095
12.3059 28.1043 64.4815
11.9015 28.4343 67.3063
12.3138 29.1361 68.8775
11.781 27.1556 66.3859
12.3097 28.365 66.9449
12.1996 28.6796 67.3665
11.9006 28.1139 68.0042
11.7311 27.0516 65.8027
12.0327 27.4003 65.0432
11.6584 27.2303 64.4668
11.5649 27.5214 65.0701
11.4302 27.9562 68.536
11.4975 27.298 69.0556
12.1682 27.7785 66.9042
12.0723 28.7438 67.34
11.7874 28.0247 67.6165
11.6861 28.9759 71.4369
11.5997 26.8933 66.552
11.6285 27.1091 64.6575
11.2241 27.564 68.5038
11.7485 27.4387 66.8476
11.5607 27.5345 67.4968
11.2623 26.5756 66.0519
