# pn-170911/RbIIR-47-WTZR-1280-1959.psd
# Power spectrum* (dif=0,1,2) (really just |FT|^2)
# NOTE: only the first half! (symmetric)
# weeks: 1280-1959
# 19 clock-days, 0 excluded
# PSD: 1441
755.556 0.0706234 0.0532723
13926.7 0.297007 0.0861128
85499.2 1.77096 0.0407392
12931.9 0.375492 0.0832316
43954.1 3.51951 0.135396
4177.48 0.310418 0.0971355
3950.99 0.468719 0.0470214
2985.16 0.613292 0.0963703
2220.14 0.911904 0.146945
1726.22 0.744276 0.105652
931.749 0.335743 0.0566786
590.073 0.389999 0.11683
750.625 0.408908 0.151364
748.827 0.440026 0.109762
585.433 0.400237 0.0668159
473.633 0.458283 0.129877
743.166 0.812173 0.142416
385.77 0.332991 0.0987089
258.046 0.482343 0.0683283
423.485 0.489921 0.129213
302.557 0.671873 0.12905
388.75 0.667056 0.0866662
388.134 0.681854 0.0539065
283.513 0.787257 0.105452
479.632 1.02363 0.115431
280.397 0.676781 0.0622927
391.304 0.991691 0.0453449
409.681 1.26805 0.106845
235.707 0.828181 0.125191
461.441 1.58396 0.0562008
310.729 1.2947 0.0416616
516.943 1.95548 0.110933
311.538 1.51862 0.150791
257.38 1.22366 0.0793824
421.609 2.15901 0.0587004
121.88 0.82918 0.118616
193.995 1.01983 0.151711
342.103 2.2512 0.0821465
384.476 2.36931 0.0919695
327.664 2.00094 0.129283
332.456 2.56146 0.162508
304.118 2.47389 0.086165
220.071 1.77624 0.100086
248.394 2.22289 0.146627
212.136 1.64553 0.14372
246.511 2.50275 0.107498
132.688 1.45099 0.108406
289.466 2.59328 0.120144
236.178 2.71824 0.135828
306.073 3.11301 0.102406
318.436 3.78515 0.113223
289.968 3.67201 0.155613
340.379 4.03717 0.163814
283.413 3.85769 0.0788827
282.473 3.61222 0.12039
245.053 3.6159 0.132723
235.657 3.58813 0.141146
259.309 3.71101 0.0716738
244.912 3.89141 0.112257
308.46 4.83323 0.146094
150.051 2.72849 0.123254
191.152 3.35603 0.0976875
214.821 3.70007 0.142731
203.972 3.70584 0.190316
122.338 2.30387 0.144081
209.552 3.9955 0.111731
290.732 5.67464 0.224083
165.549 3.56941 0.179139
230.37 4.21408 0.230051
144.652 3.29356 0.149702
266.289 5.48843 0.218711
215.691 4.93257 0.259804
234.624 5.3921 0.263573
178.255 4.38092 0.15427
199.095 5.07285 0.218134
244.983 6.34408 0.276493
189.676 5.1188 0.220395
263.589 7.26902 0.328318
160.921 4.50033 0.14622
213.796 6.25629 0.283286
259.487 7.89668 0.334303
171.547 5.00708 0.157939
262.664 8.05254 0.2176
239.524 7.83804 0.334115
244.026 8.70088 0.304128
183.278 5.97726 0.249451
258.909 8.71157 0.398466
255.818 8.00023 0.326618
316.596 11.4179 0.392088
195.246 7.45879 0.27517
162.125 6.30083 0.326162
248.828 9.23221 0.41472
161.222 7.04914 0.374291
165.178 6.47134 0.261487
177.052 7.54227 0.340683
223.103 9.35947 0.474408
346.531 15.1364 0.781352
170.061 7.01747 0.388404
137.045 7.1954 0.371724
353.657 16.5816 0.920567
110.924 5.69185 0.296016
181.67 8.06984 0.41675
178.671 8.32499 0.402807
152.775 7.60332 0.49597
220.482 10.6753 0.577596
192.921 9.53553 0.612703
93.6449 4.53479 0.260717
187.33 9.89317 0.510424
195.522 10.324 0.709005
168.566 9.09384 0.526199
191.355 10.6836 0.723404
158.232 9.14302 0.725867
169.095 10.4214 0.595126
194.404 11.8686 0.694852
126.699 7.97217 0.574651
136.828 8.55847 0.50694
171.04 11.6432 0.856619
141.887 8.40529 0.538222
124.988 7.79825 0.544113
134.329 9.02853 0.589568
150.776 10.7918 0.802073
132.043 9.07286 0.772601
136.316 9.31813 0.649637
154.862 11.2491 0.826927
116.218 8.12808 0.778859
118.908 8.7914 0.632278
139.907 10.1651 0.845205
94.2063 7.55596 0.595872
137.682 10.2694 0.897405
102.465 7.75057 0.731804
230.629 19.6233 1.69703
114.7 8.19774 0.744533
121.867 9.16632 0.703041
210.695 17.5051 1.38097
127.103 10.6218 0.989897
107.233 8.85125 0.866537
135.858 13.3254 1.28128
179.408 15.5292 1.24736
125.089 10.062 0.870059
96.1986 8.53082 0.859229
102.236 9.42166 0.922679
97.2475 8.6801 0.818944
144.654 13.6771 1.15505
159.632 16.6536 1.65459
92.3186 9.8686 0.921813
139.944 14.5832 1.37265
134.793 13.0688 1.43558
136.461 13.5458 1.28439
133.382 14.334 1.39377
133.9 14.0985 1.44981
117.304 11.9658 1.44183
135.509 15.121 1.57024
176.62 18.2849 2.06488
87.0597 9.11232 1.02753
105.853 10.5285 1.42083
93.3249 10.3587 1.18136
89.8037 11.0877 1.42511
121.795 14.1042 1.65785
133.143 15.3485 1.83264
120.419 14.5433 1.81177
98.1141 11.7552 1.50933
87.7032 11.8095 1.57431
129.198 15.4582 1.81644
179.732 22.2501 2.91916
95.0147 12.5473 1.67219
141.633 17.5018 2.14883
126.273 16.3789 2.1881
101.319 13.2642 1.77899
157.95 21.8043 2.80013
116.813 15.8894 2.06067
132.611 16.6051 2.1867
105.298 13.4516 2.02364
86.1795 11.3528 1.47577
111.492 16.5835 2.34527
125.587 17.973 2.67012
160.172 23.5802 3.26286
90.4269 12.6378 2.06378
115.366 17.0614 2.36851
96.2339 15.8689 2.53611
146.38 20.727 3.02787
100.509 14.8125 2.23303
81.701 14.3231 2.37835
126.605 18.5347 2.68876
97.9323 13.7725 2.06341
63.0584 10.2566 1.80321
126.697 20.2574 3.27702
157.05 25.227 3.91773
109.564 18.1204 3.23211
94.5795 16.5123 2.90798
74.3289 12.7292 2.35971
130.28 22.0765 3.8174
92.6926 16.6399 3.22973
165.924 26.9866 4.40377
66.0756 12.4935 2.20598
107.798 18.3603 3.03421
92.4982 17.5503 3.33191
120.539 21.3772 3.52312
98.8037 19.9103 3.70729
81.311 14.0478 2.50925
124.688 21.61 4.20873
137.533 26.3725 4.5956
143.52 26.5837 4.93518
55.0106 12.1736 2.59778
103.443 19.5189 3.69416
121.388 22.3925 4.33354
90.5481 19.3231 4.09297
79.935 13.6956 2.75366
66.576 12.5395 2.55069
75.9574 14.992 3.28439
96.5948 19.522 3.69344
71.6887 15.5914 3.38955
119.229 23.6906 4.72425
95.5496 21.3016 4.97723
74.8532 15.0486 3.22487
109.361 23.6762 5.12967
87.3935 18.0066 3.49789
109.042 23.4635 5.14105
129.755 27.7576 6.27569
93.0501 21.1936 5.14349
100.801 22.1618 4.48147
71.8203 15.261 3.21873
94.2286 21.4129 4.58309
88.1256 23.5296 5.65667
98.4064 22.796 5.58913
82.3946 18.471 4.20938
75.7449 18.6721 4.78429
78.3314 18.7203 4.26266
89.7389 20.8192 4.75841
69.9967 16.4322 4.02922
69.7102 17.2948 4.41555
47.2265 10.5484 2.45229
75.0691 18.9016 4.64489
87.7403 23.3404 5.60735
81.9963 18.9686 4.56111
75.2371 22.7552 6.75262
116.113 29.4149 6.88387
61.1826 15.6503 4.35156
29.6949 7.24716 1.86656
83.4792 20.1558 5.10172
76.0556 21.2562 5.79828
84.7449 21.709 5.52496
76.5706 22.7153 7.12452
93.6005 25.3425 7.14512
108.526 29.1513 8.97027
117.951 31.8624 8.80506
78.624 20.8497 5.21377
104.369 28.1262 7.82405
89.4104 26.8386 7.21144
61.2971 17.5647 4.87783
54.527 15.8789 4.45608
78.5709 21.0845 5.88481
96.9381 27.7822 8.18178
98.364 30.5331 8.933
91.7636 29.7656 9.46657
75.3761 20.9948 6.37584
107.581 31.5136 8.63814
71.6985 20.8444 6.00327
79.2427 25.4034 8.03902
39.3532 11.7712 4.59126
112.74 33.415 9.75807
61.7275 18.2494 5.49953
67.9257 23.4052 7.05829
55.7944 18.2419 6.69257
101.785 32.3681 9.00001
70.9335 25.2227 8.72649
61.7462 17.1633 5.49931
56.0463 17.8826 6.22419
72.6386 24.0762 8.00124
49.9898 17.8946 6.20604
71.9494 23.7727 7.86934
47.4599 17.6493 6.62933
67.1066 21.1684 6.79357
64.201 19.1699 6.41777
56.6716 21.9393 8.22903
91.8663 34.2481 12.8141
66.8202 19.3502 6.41864
70.5461 24.6727 7.99871
82.3436 28.2089 9.58134
64.6474 21.7203 6.68833
42.9987 16.0124 5.78125
60.0388 22.4863 9.17388
51.2975 17.1821 5.38788
52.4169 19.5773 6.8099
60.368 21.6186 7.72704
34.1454 13.6761 5.22597
82.7275 31.4877 12.0121
52.5022 22.8323 9.50047
62.7918 24.1522 10.1012
131.569 47.2124 16.1886
48.4075 18.8994 7.62672
64.2207 23.7683 9.71615
50.6528 18.1222 6.51466
46.5788 19.655 8.14112
54.2199 21.8341 8.72637
59.5529 23.3323 9.06743
44.0748 16.8203 7.17395
76.038 27.6672 10.2296
80.4982 32.1809 12.6713
54.2611 22.6164 9.33062
54.2301 22.877 9.98377
70.6188 28.1546 11.1476
45.4939 20.4424 9.7578
67.1503 27.2704 11.4942
59.6202 22.5188 9.54501
36.7014 15.7464 7.59182
56.316 22.4388 8.86925
69.2727 28.6825 12.0161
50.0254 20.8663 9.82556
69.6838 30.4045 12.6522
47.3231 20.0057 8.25767
27.4684 14.323 7.7497
49.7169 20.8686 8.55092
53.7201 24.1315 10.5172
59.0862 25.7844 11.1401
49.2198 23.2885 10.7245
37.9806 18.2084 8.81671
43.1089 20.883 9.90888
44.6576 21.954 11.1043
54.7334 23.8631 10.7613
64.6607 27.2856 11.6231
61.7282 30.1421 14.0933
37.7867 19.2714 10.619
60.4036 22.9026 9.53337
78.4344 37.5318 17.2528
36.1128 18.9326 10.534
38.3292 15.8321 6.48517
44.0788 24.3883 12.9494
54.6701 24.1691 10.4792
57.7717 30.7063 15.4392
49.6616 23.0713 11.1339
39.2934 17.0338 7.93538
49.1015 25.8268 13.1965
62.3693 32.9781 16.9093
65.9791 33.1401 16.9792
50.7913 24.0775 11.7206
50.7416 26.023 13.9762
52.285 27.2245 14.5248
49.5313 24.7794 12.3524
47.8722 24.6862 12.7373
34.279 20.0401 11.475
42.4625 21.5188 11.1094
42.3359 20.1163 10.0805
50.3381 26.8405 13.859
44.0606 21.8699 11.2242
22.938 12.1103 6.31877
42.7274 27.2514 15.1459
28.1874 15.8892 9.59033
52.127 25.9361 13.2136
48.5736 28.4341 15.5808
34.9869 19.9485 12.1697
49.4764 25.0318 12.4737
50.9078 31.6951 18.9322
59.8785 29.978 14.6796
27.8998 16.2376 10.2594
47.0441 26.6219 15.5622
54.0391 30.9047 18.0574
56.5814 28.2302 15.1915
34.6578 19.6006 11.8559
34.0301 20.266 13.0082
39.7704 25.1852 16.2099
44.1645 26.2188 15.4851
51.2347 27.0193 15.2564
38.4258 21.2834 11.9371
35.2577 20.1308 11.4679
38.2149 24.7249 15.6755
30.8716 18.8098 11.4641
43.1936 24.8993 15.4258
46.3005 26.4578 15.3362
35.2407 21.3618 12.8296
23.0995 14.7495 9.84065
42.7813 27.5196 18.2788
57.4231 33.3656 19.4699
34.2555 21.5815 14.0574
26.3165 14.1607 8.80401
41.2118 26.0611 16.6152
37.586 23.6196 14.6276
39.5141 25.4567 16.2162
31.3577 18.0286 11.2572
37.6831 22.7433 13.4901
37.8724 26.0069 18.0071
39.9125 24.6763 16.3009
50.362 33.8034 23.4145
47.6469 27.2511 16.1412
33.8336 25.6529 20.0474
57.1428 33.3573 18.673
23.9804 16.2075 10.9312
30.7968 20.4209 13.8787
34.8117 22.1256 14.0871
30.0192 18.7753 12.9956
55.7474 39.813 26.7344
32.0743 20.3294 13.604
34.494 24.3564 17.0361
28.7555 17.7975 10.8385
22.275 15.9078 12.3404
38.5126 25.6597 16.8204
30.0912 22.7173 17.6313
40.7337 23.8912 13.681
46.6104 36.9058 28.6073
41.0906 31.8282 24.4853
27.49 17.4131 12.5141
41.7955 31.0168 22.0513
31.1157 18.6933 12.3761
30.9935 22.4263 16.215
32.4574 22.5373 15.4562
35.9381 28.7047 21.9204
53.8982 37.0817 25.2218
38.7968 28.7597 21.2103
28.838 22.8513 18.5077
30.7925 20.7908 15.1314
27.435 18.5754 13.4285
34.2197 26.4963 20.8705
40.9486 29.7661 21.6033
37.844 27.8979 20.9339
21.9902 16.2469 13.2595
35.8366 26.0767 18.2346
25.3317 17.9025 12.5942
36.9653 28.9262 21.064
26.9164 21.2184 18.0265
41.0362 33.8478 27.0966
22.4932 17.0612 16.2759
41.0305 29.6122 22.2275
42.5482 33.6268 25.0808
47.6206 35.2987 24.7748
37.3528 33.8826 30.6025
34.7109 22.0396 15.2984
33.4955 30.0191 25.6632
42.1125 33.8279 26.8797
18.5826 18.89 19.6464
50.09 38.2161 28.4104
25.2698 23.8645 22.6448
26.0006 22.1715 19.978
26.9009 21.033 17.7999
26.1122 20.825 19.2591
33.7173 26.0496 20.0217
34.343 28.7036 22.7239
30.5076 25.9395 21.335
27.8672 24.5505 20.7304
32.6352 26.3756 20.5186
16.307 16.9926 16.7691
32.8066 24.9173 19.8953
25.8643 19.2388 15.1315
22.1293 18.0637 15.7546
24.6875 20.2694 17.8242
27.2145 23.3406 21.6583
27.341 21.6695 17.3944
20.1774 16.715 13.3109
26.2163 22.9781 19.9896
30.1677 28.0514 25.3127
39.8479 33.7988 28.3943
45.3777 41.7171 35.6296
25.5235 24.0469 23.4007
36.5678 32.551 30.3127
40.1746 31.0978 24.1344
27.023 24.3567 23.9075
39.844 32.5243 26.4745
30.8576 31.1146 30.3036
28.8771 23.5556 20.456
29.8302 27.7646 26.1759
31.6799 28.9859 27.2813
20.907 16.2786 14.8322
30.5691 26.1547 21.8149
26.0582 27.7426 29.0272
39.9032 36.5258 30.4461
20.2917 19.8652 20.2895
28.4165 26.7348 24.5173
21.4856 21.4114 23.9216
36.8453 30.7641 25.3559
14.1724 13.5582 14.2663
23.1682 20.9169 19.1454
23.7013 19.401 19.2019
43.6449 40.5226 37.8118
32.6711 29.9607 26.5364
28.3354 29.3546 28.5914
27.6638 24.646 21.5329
22.2567 24.9944 23.0326
18.543 24.3979 30.479
22.3222 21.2316 24.1295
33.3974 31.8889 30.4753
17.0275 14.184 15.3573
24.1182 23.9421 25.5423
38.519 33.6614 25.5917
23.0679 26.2965 29.0299
27.4061 23.7817 22.7988
24.5014 22.7501 21.2175
48.903 54.2002 51.9132
19.1171 19.9958 23.7423
25.8015 28.5597 30.7509
22.6725 18.5169 16.8933
20.4182 22.9008 25.9815
47.7378 47.7593 44.34
20.7795 20.8172 21.2427
16.0144 18.5329 23.6242
21.4065 18.1332 15.1263
19.3801 23.7698 27.7284
27.2081 30.21 35.1473
25.931 25.9929 27.0515
31.7435 34.8527 34.9961
17.4608 20.5095 26.8784
19.8141 20.3974 20.3352
19.107 20.7248 22.4532
15.0483 11.7957 11.8482
21.5768 24.4098 26.2672
28.0688 31.3438 32.1498
22.4744 22.1236 22.9473
16.5296 17.4679 19.2601
28.1439 32.1089 31.3337
11.3195 17.3515 27.546
25.9837 22.1762 20.5034
21.1772 24.353 24.8246
20.5559 23.3185 23.3657
16.7239 23.1974 30.2624
13.6197 12.8049 16.3012
19.5365 21.8324 25.047
23.3086 27.398 31.1342
18.6518 18.1703 19.4933
27.4894 32.4196 36.1179
24.5049 28.2434 30.3629
19.8134 23.2008 26.6006
13.8241 16.9097 22.2398
24.2792 29.2572 35.2415
19.1847 21.5603 26.957
18.2865 20.1983 24.4099
15.9293 16.789 19.5409
16.6369 15.2193 14.2382
19.8795 23.5789 26.9048
22.0935 29.4952 36.4659
24.3794 26.8831 30.278
25.936 29.6845 31.6788
17.778 20.1416 22.1719
21.7185 25.4001 26.5526
21.1864 30.5187 39.6681
20.7724 24.9345 33.4426
17.2523 17.6244 18.5057
16.386 23.2879 31.4678
28.7387 36.3417 43.8706
15.1248 15.7689 22.7942
30.0595 34.0402 36.8407
18.3034 25.7921 33.8044
19.0901 20.9457 24.1593
16.6362 22.8968 29.8986
18.5641 17.5465 15.0568
13.9383 22.5072 33.0906
19.9537 26.0644 31.9011
15.14 17.9876 24.2623
13.8333 18.5191 25.2446
21.1055 25.2873 31.3338
19.5702 20.5105 21.8754
15.1331 23.886 36.8006
19.9088 21.6893 26.2062
21.8713 28.8226 36.425
21.3545 29.02 40.5524
23.5717 26.1876 26.7201
19.3282 33.9357 51.2257
20.4177 24.4806 36.4458
21.8215 27.5485 37.0832
22.2542 25.0289 26.826
11.4184 14.0825 20.3602
15.7201 18.0775 22.978
18.2878 22.5306 29.1923
21.0764 24.1723 27.2837
12.1484 14.2415 15.9271
21.2712 29.7423 33.9872
16.669 25.2127 36.3792
21.7097 30.3541 38.3633
16.0772 20.4473 25.8554
11.7776 18.1634 26.6059
17.3096 23.6466 34.2377
21.8164 25.461 26.2707
16.2467 27.6192 36.794
12.3277 20.2271 35.4974
16.7859 20.9022 29.6134
14.5259 17.6198 22.2641
12.7188 18.3101 28.0022
21.9652 31.1214 42.5495
19.5011 24.2533 31.8572
20.2922 23.624 31.6238
31.2507 45.4767 57.6545
17.3693 24.8981 37.9145
23.3899 31.6359 39.4864
15.7768 19.0745 22.6662
15.4458 23.9057 33.1924
19.3194 29.8344 41.6752
12.4777 15.9698 25.8542
15.4995 24.0151 37.5919
23.6372 31.1549 39.3171
12.7512 19.2862 29.1783
12.3875 17.6364 27.8663
18.2185 26.9241 39.7291
19.6547 27.3164 38.1215
14.6854 18.4901 24.8646
13.822 18.7299 21.5775
6.93346 11.7231 22.9791
23.5016 34.0849 47.202
16.2204 22.7892 32.1844
16.0247 22.9129 29.387
12.7791 19.8102 30.8058
11.9857 17.2174 26.0794
13.7426 17.7217 23.9707
17.0371 28.308 40.2918
10.79 15.2796 25.3074
15.1891 23.4693 36.7469
14.0864 19.1583 30.3403
12.5652 16.9702 22.7
11.161 18.9204 30.9267
13.4435 21.0603 31.3446
10.0302 14.0485 23.6656
13.1059 22.904 39.0525
14.6035 17.855 26.5862
11.5741 15.4188 21.2214
16.1654 24.8506 35.2851
13.9005 22.2369 31.1023
15.6653 30.5662 54.3715
18.0265 21.3279 25.7525
12.0961 21.947 40.2167
18.219 24.2475 34.6704
18.1953 26.3014 31.4677
11.1313 16.2799 26.3337
17.4886 27.8263 38.9573
11.1843 21.5247 40.8832
19.0585 30.8311 47.9787
19.2253 25.136 31.8758
18.1989 32.3963 51.1616
13.1211 18.4684 28.2985
11.8569 19.5687 30.5356
10.5974 15.683 25.2874
11.9029 19.8457 30.6028
11.2941 18.3108 27.238
8.62641 16.3046 30.7168
11.7662 13.0905 16.0082
10.1532 17.5792 26.4263
9.38799 17.2971 32.1768
14.4049 23.2592 32.7224
10.076 17.7787 28.9538
8.94057 19.9797 40.872
18.0118 35.552 64.3357
14.3843 17.4469 27.7184
12.238 19.3451 34.7933
12.859 14.8074 20.4447
11.7043 20.5854 30.5117
11.2499 21.2124 39.3325
10.5492 15.6349 27.4565
17.5257 29.3979 44.2132
11.6282 20.339 37.6155
17.2398 28.8481 54.2648
17.1196 21.7066 27.5369
11.9042 26.8787 49.9052
12.9186 17.5138 28.7384
10.1248 16.7734 28.7645
15.1349 24.2906 36.7097
12.7898 23.2703 39.3003
13.8794 22.4077 34.0177
8.53693 17.7044 36.6989
10.8931 14.9841 25.6662
15.0154 27.0782 42.0182
9.03075 17.0157 35.993
12.7742 17.2633 24.4212
11.6258 19.3415 30.4537
10.9313 20.8144 34.0625
10.1888 17.5359 26.4102
9.29338 17.6015 33.4409
11.6866 19.8866 37.1268
10.1073 16.8281 33.0367
14.7515 26.0817 41.7819
12.4582 20.7687 30.7475
7.0655 13.7218 28.7452
8.2938 12.4324 25.0795
9.68499 15.8489 25.7237
8.4933 16.9068 28.7338
9.47813 17.0969 31.0313
7.42386 13.3266 27.2347
11.4412 19.6689 32.7574
12.8446 26.3802 52.6634
17.798 27.8553 46.589
11.1561 16.5074 27.3511
12.7596 23.0943 37.096
12.4247 21.713 35.0529
11.1981 22.4621 38.8399
7.54094 14.0411 29.1799
13.6336 25.0642 45.8301
13.435 23.0384 42.3565
11.6602 16.0455 20.0549
10.4025 24.7564 44.597
9.88932 19.8146 40.9964
11.0832 23.2116 56.7032
17.4538 24.4091 37.3281
9.81209 15.1401 23.1549
8.71388 16.976 31.2697
11.7077 25.3651 50.9856
13.7549 22.278 34.6218
7.24889 15.5851 37.3663
15.2575 25.2275 39.26
11.2834 21.8865 38.4215
6.67549 14.7519 35.8141
11.5019 18.7005 31.4957
9.02194 19.4539 35.9065
9.20426 22.6714 46.8999
10.4235 18.5658 39.3635
10.5894 21.2357 49.1956
17.7049 29.0239 45.2347
6.59127 12.812 32.7629
13.5633 26.1421 52.195
12.2754 19.8807 36.666
10.0427 17.0469 38.006
10.6096 16.0109 27.496
14.8177 29.3232 46.756
6.43295 15.0737 40.6647
13.6772 23.5843 36.5932
10.8674 21.2554 41.0533
9.77954 20.7647 51.0493
14.1539 20.8734 24.26
7.3988 18.3462 36.0882
11.1413 21.2167 43.0697
14.6734 33.2002 67.272
11.4337 16.8978 34.1567
15.8272 29.9412 50.332
13.1011 29.4993 53.7627
11.8618 26.2299 55.2325
11.0011 20.7257 43.8391
11.2174 19.3973 34.3904
7.28458 16.2058 38.6808
9.38187 17.1283 34.6519
9.74641 17.3709 31.8333
7.65392 14.64 28.6609
8.67288 19.5502 43.8336
11.6989 23.2444 47.8661
10.6231 21.5536 49.8197
17.3197 33.1146 55.2552
9.05662 19.9365 45.6898
12.0187 20.5645 31.9718
6.4846 17.273 45.8541
14.7289 32.2314 70.378
13.9817 24.4272 41.4961
9.75884 20.6977 42.9916
8.94129 19.2899 38.4873
11.6976 26.3182 51.4714
8.47914 18.9969 45.5137
10.203 17.7609 33.1918
9.71781 21.0911 44.3597
15.0052 36.0873 75.2129
11.2523 21.5468 45.7481
10.87 22.94 48.2006
10.1323 17.1748 31.2932
6.98572 14.7707 38.5385
8.93338 18.5002 37.6302
10.2767 21.5658 44.5028
7.19497 12.1026 28.0648
8.89796 20.3239 42.1499
7.92275 16.4048 36.9711
10.0478 15.9285 28.708
11.8734 30.7074 60.0312
6.83647 12.4675 34.4383
8.75069 20.7451 51.6868
13.0527 22.6699 38.2254
8.72959 20.9328 45.3534
10.7641 24.5258 47.9012
7.64269 17.5601 46.2843
8.57116 14.639 29.7795
12.439 32.4603 72.3549
11.6292 22.9687 51.5441
7.83875 13.9001 40.8323
13.4926 28.5711 60.2263
12.8576 20.9804 33.846
11.1466 26.1828 57.0387
11.7717 21.9205 43.0643
9.30001 21.8396 39.6425
7.38644 19.6508 49.9532
10.0884 20.1894 36.4812
6.10729 17.5053 48.8622
13.9353 33.1919 72.9586
10.503 21.3193 59.3233
11.5788 19.8748 38.4641
7.57471 15.7872 32.1341
8.45693 22.8185 54.2451
8.04398 14.4383 33.5445
8.64916 18.7705 46.1048
9.48237 16.6374 32.7629
7.27602 15.9685 32.2834
5.39993 10.0007 24.8285
8.94931 22.9837 51.7968
10.1146 21.4757 40.2526
7.39833 22.7779 58.8754
11.2103 26.4736 58.3187
8.6097 18.6563 47.5778
9.44761 22.1389 51.3754
8.26444 15.5364 34.7779
7.55881 17.3558 45.1071
10.6383 22.8608 45.9885
7.0724 14.0954 32.3207
7.70157 15.6495 25.2687
4.84116 14.657 41.0023
9.68852 22.3197 47.175
6.50088 13.1275 35.2495
6.79597 14.7351 40.5222
10.6144 23.5207 42.6531
6.25667 15.2359 36.3387
4.43592 9.31375 27.0341
7.50096 17.3392 44.621
8.12252 14.912 29.7455
6.20516 16.9928 43.2207
8.97795 20.4896 42.9248
6.49077 13.7387 33.8136
6.01898 11.2872 26.0063
6.52132 15.9434 34.8239
5.34218 14.077 38.0202
6.42114 14.1746 32.3883
4.99764 11.2095 26.348
4.94068 15.0499 48.8447
9.16676 16.3954 27.2504
5.31484 13.4225 32.6832
9.15748 26.1741 60.6968
9.82209 23.0026 43.2833
4.95177 15.8249 50.4091
9.3243 17.0446 37.4532
8.18114 19.4093 50.5896
11.2876 27.5896 58.9403
7.07601 18.5657 50.3782
9.82656 24.0412 60.0562
8.99535 20.2036 49.2237
6.81622 13.6778 40.3607
9.10792 20.82 38.4513
6.89462 16.4441 38.0254
5.06308 13.0539 40.0151
8.24614 20.1161 49.8752
7.29288 16.6597 51.3545
10.5975 18.0663 30.3688
5.94326 17.8462 50.3407
9.54418 22.1019 45.5468
