# pn-170911/RbIIR-56-AMC2-1280-1959.psd
# Power spectrum* (dif=0,1,2) (really just |FT|^2)
# NOTE: only the first half! (symmetric)
# weeks: 1280-1959
# 396 clock-days, 149 excluded
# PSD: 1441
2426.65 0.0989914 0.0571071
36481.8 0.292093 0.18277
328007 7.34646 0.171966
12125.4 0.493285 0.183217
119956 9.14242 0.172041
4070.26 0.402368 0.186198
9761.44 1.45416 0.166085
2393.74 0.463028 0.172517
3844.08 1.2264 0.174962
1453.96 0.478863 0.169316
1543.49 0.632181 0.155581
988.684 0.502408 0.17405
1067.77 0.620331 0.161384
816.592 0.556124 0.15942
800.387 0.6614 0.181119
642.157 0.594644 0.165746
655.962 0.702637 0.158526
521.986 0.647198 0.17392
530.167 0.695704 0.153588
422.409 0.63575 0.169281
453.63 0.746528 0.171529
439.408 0.807812 0.184706
396.334 0.852552 0.17012
391.161 0.839823 0.188961
379.065 0.953474 0.173663
329.354 0.978934 0.187066
337.731 1.01188 0.187653
296.188 0.973552 0.191565
278.819 1.00029 0.185116
287.007 1.04603 0.196858
283.8 1.1856 0.169873
317.876 1.28267 0.196523
295.842 1.29729 0.181251
283.474 1.38419 0.20331
236.948 1.29542 0.20032
251.515 1.35987 0.193356
244.418 1.41617 0.181937
247.329 1.49812 0.205848
239.566 1.54614 0.170701
235.721 1.55996 0.206581
221.025 1.63713 0.190715
244.581 1.88158 0.205222
226.056 1.82271 0.18871
243.322 1.98334 0.198505
213.939 1.97854 0.18938
254.979 2.36334 0.214487
244.105 2.40381 0.19911
204.36 2.04678 0.211891
217.668 2.19855 0.21124
205.713 2.30795 0.218692
208.638 2.38244 0.209886
211.45 2.50388 0.21494
189.646 2.27391 0.195791
203.1 2.59738 0.224934
217.6 2.91736 0.229852
201.426 2.77094 0.229043
210.782 2.99129 0.228477
193.902 2.86654 0.244397
197.098 2.91691 0.223203
183.787 2.99778 0.243666
187.374 3.13883 0.22108
180.767 3.10618 0.255212
177.714 2.98719 0.226197
165.042 3.09838 0.250515
177.334 3.27276 0.242161
164.7 3.11638 0.240099
169.597 3.38312 0.247793
178.697 3.70195 0.248479
171.14 3.6878 0.254313
187.369 4.03543 0.272292
172.544 3.94191 0.272212
159.362 3.71054 0.239387
166.129 3.91006 0.272818
154.991 3.73026 0.263859
183.904 4.67882 0.305395
168.891 4.43055 0.308282
163.215 4.23814 0.293226
153.043 3.9884 0.264904
157.198 4.34821 0.287399
182.414 5.19008 0.331113
158.93 4.57645 0.303781
162.275 4.81733 0.356753
149.096 4.6405 0.31141
141.082 4.51763 0.307691
156.167 4.9299 0.354692
154.152 4.97671 0.338882
128.003 4.35142 0.314016
144.159 5.02686 0.343135
132.482 4.64453 0.326675
130.465 4.76656 0.328259
152.394 5.56928 0.380766
149.848 5.76018 0.40355
139.74 5.51335 0.412858
152.358 5.95906 0.446232
165.017 6.67318 0.469984
153.57 6.19743 0.435881
130.257 5.70547 0.419555
156.256 6.72393 0.446033
156.671 7.03973 0.511876
149.156 6.64803 0.483531
137.084 6.35405 0.465167
148.593 7.08984 0.535024
126.057 6.16516 0.457264
125.054 6.19862 0.484789
137.801 6.86058 0.498859
138.684 6.88439 0.516874
139.163 7.3321 0.564796
130.638 6.9822 0.54287
133.627 7.23042 0.552025
131.038 7.05295 0.533876
123.991 6.99272 0.587014
121.676 6.83602 0.572346
123.698 7.20685 0.583667
124.983 7.35779 0.605677
127.796 7.92016 0.618592
115.511 7.03666 0.589609
116.868 7.33836 0.616977
122.547 7.77679 0.626452
123.919 8.06171 0.722705
134.12 8.7113 0.773062
130.414 8.46796 0.714474
120.553 8.18468 0.743541
115.629 8.10223 0.698551
130.368 8.92376 0.820368
124.367 8.81551 0.795611
125.294 8.9402 0.820333
127.288 9.26197 0.829968
124.316 9.28011 0.88075
114.95 8.8289 0.799224
120.624 9.32532 0.869679
109.208 8.54303 0.867721
117.961 9.32434 0.903411
119.335 9.69113 0.952349
118.274 9.82151 0.948738
114.822 9.72891 0.962943
107.386 8.99344 0.890071
117.486 10.0796 1.05159
108.293 9.21649 0.951803
115.072 10.1755 1.04958
114.539 10.1227 1.06198
112.863 10.1004 1.03281
98.8414 9.23384 1.00484
112.793 10.4578 1.1041
103.013 9.83037 1.05433
104.152 10.0631 1.12448
97.7776 9.33839 1.10346
101.713 10.0075 1.13166
101.604 10.048 1.16942
98.3457 9.94885 1.1679
112.209 11.5169 1.34829
106.124 10.9752 1.3002
112.03 12.0886 1.43077
98.1842 10.671 1.305
103.038 10.8243 1.3307
105.774 11.6732 1.49532
94.9712 10.4897 1.29554
93.3675 10.6638 1.39149
99.4892 11.2168 1.41506
98.8172 11.5545 1.45136
98.0459 11.5612 1.48202
96.2233 11.5577 1.50622
103.063 12.1938 1.52578
90.3434 11.213 1.51201
99.648 12.2418 1.7807
88.1092 10.8741 1.52803
91.7785 11.6344 1.58701
100.802 12.4885 1.74415
91.2657 11.7491 1.69325
99.9862 13.1557 1.81904
95.1643 12.7987 1.87885
91.8679 12.1677 1.76226
87.1999 11.6559 1.73768
88.6575 12.1519 1.76428
93.4964 12.8185 1.92191
98.7902 13.5916 2.01435
92.0562 12.913 2.00388
94.3915 13.3905 1.99672
98.3256 14.0409 2.20038
98.5777 14.4956 2.22202
85.9352 12.8574 2.10514
88.3534 13.119 2.07338
90.8295 13.9698 2.33017
90.8791 13.9403 2.31072
91.2435 13.9295 2.2902
85.2259 13.2731 2.30079
88.4658 13.8324 2.27373
83.2859 13.4878 2.35389
91.9402 14.89 2.51521
79.1831 12.8262 2.23965
87.2581 14.3888 2.55816
88.4693 14.5176 2.58183
89.6552 14.7442 2.60311
88.3006 15.1375 2.66052
88.3868 15.3477 2.72281
77.6834 12.9548 2.39311
87.9258 15.2914 2.79052
81.356 14.3273 2.56117
80.9752 14.3836 2.69295
82.3837 14.5149 2.78919
85.2661 15.3435 2.88888
78.938 14.3388 2.70587
86.5285 16.2284 3.1582
82.0752 15.4982 3.13034
84.0334 15.7811 3.16487
89.6782 17.2052 3.37325
82.7902 15.6098 3.03999
88.9612 17.3769 3.52843
80.5207 15.9037 3.35031
87.0505 17.2561 3.57355
79.7878 15.7799 3.24106
74.7279 14.9984 3.09438
76.2659 15.7473 3.43539
80.3019 16.5736 3.45302
79.4423 16.1048 3.44507
77.382 16.1079 3.55599
77.4001 16.8217 3.79656
85.763 18.4799 4.12559
77.5935 16.6363 3.60003
82.3149 17.822 4.00071
75.0689 16.673 3.77037
79.4651 18.1151 4.18845
76.8659 17.7816 4.19875
81.8921 17.9353 4.01175
73.5878 16.792 3.98573
77.1291 18.086 4.42524
80.7914 18.6905 4.38876
75.9641 17.5121 4.25658
74.6283 17.7307 4.30288
79.7284 18.7804 4.4617
78.0129 18.8409 4.67263
73.795 17.9541 4.58441
75.361 17.7851 4.39535
71.6189 17.6555 4.45617
66.3729 16.3971 4.11915
78.1247 19.521 5.18232
81.1665 20.314 5.15617
73.9584 18.9673 4.84712
71.3618 17.9721 4.79909
72.6112 18.9448 5.04166
69.1491 18.1055 4.85757
66.9219 17.3359 4.71567
77.3746 20.3795 5.52057
70.7826 19.1642 5.38165
69.549 18.5316 5.06264
64.6602 17.5169 4.98666
69.3297 19.0071 5.44009
73.9963 20.1251 5.70023
75.5469 21.4561 6.19223
73.0485 20.2333 5.89137
71.0199 19.4889 5.62026
72.2769 20.1861 5.83679
69.7826 19.8509 5.91583
71.7813 21.0398 6.36206
66.6752 19.0639 5.76283
72.2167 20.9844 6.39681
67.4436 19.6222 5.95622
67.0401 19.4915 5.82756
68.5722 20.5957 6.38646
62.9945 19.2948 6.07653
69.8643 21.5689 6.77253
62.563 19.2154 5.87694
64.381 20.0525 6.40598
66.6733 20.1583 6.30172
63.4308 20.4486 6.72443
67.9594 21.2729 6.81929
69.9462 22.1157 7.11895
63.7201 20.2683 6.49271
64.2119 21.0154 7.05431
66.3513 21.7074 7.25033
65.7445 21.9186 7.34233
61.7242 20.1225 6.76511
60.1654 19.8825 6.65158
63.0612 21.4327 7.41855
64.9525 21.8909 7.49074
61.5102 21.1674 7.36671
57.4323 19.1353 6.69777
68.2357 23.2644 8.08806
62.9349 21.7709 7.99547
69.5302 23.8936 8.29256
59.6142 20.8385 7.45774
68.8412 24.664 8.92158
57.8827 20.3392 7.45632
64.297 22.5341 8.24946
69.7687 25.7638 9.60424
64.1913 22.9689 8.60735
61.5625 22.3763 8.35585
64.9005 24.1947 9.31678
58.2726 21.5389 8.30845
59.4391 22.2997 8.43825
61.8664 22.9134 8.71176
57.6567 22.3039 8.94888
62.999 24.0349 9.50227
66.0283 24.1008 9.15793
59.2629 23.4581 9.49973
61.9433 24.1969 9.6851
52.2761 20.2871 8.06841
54.8244 22.1536 9.17432
62.5127 24.3719 9.65459
56.0736 21.8956 8.87049
64.1933 25.5006 10.3515
55.9894 22.9372 9.53493
60.4186 24.4497 9.9908
59.4279 24.6604 10.1909
53.2895 22.1698 9.6833
58.2277 23.4392 9.8434
60.0781 25.5039 10.9529
55.3232 23.0079 9.87666
52.776 22.6668 10.1542
64.883 27.8292 12.0898
48.9836 20.9761 9.38701
50.8515 21.3296 9.1713
55.2039 23.6393 10.5722
54.3289 23.7816 10.8197
55.3767 23.7082 10.7255
55.9542 24.0491 10.7219
57.3297 25.4295 11.476
53.55 23.7497 10.9251
55.8258 24.7939 11.6069
55.6303 25.2394 11.7803
53.0444 23.9091 11.2733
53.4469 24.8605 11.7582
54.5411 24.9279 11.7239
51.0133 23.7509 11.3296
52.383 23.8495 11.4013
51.6914 24.4643 11.7071
54.4619 25.5243 12.3454
52.6013 24.1732 11.8106
52.353 24.4358 11.6891
50.3426 23.7244 11.7212
55.7611 27.1514 13.2971
57.9199 27.7108 13.6003
52.8915 25.9513 12.9285
52.6576 26.5416 13.35
50.8334 24.6318 12.0547
50.7661 25.5785 13.1487
52.8584 25.9808 12.9354
51.9919 26.2954 13.5308
54.4611 28.0499 14.3772
55.3451 28.6783 14.9588
54.8697 28.205 14.5981
47.4021 24.5883 13.2771
48.5144 25.2115 13.4593
49.3023 26.5912 14.4397
51.092 26.0237 13.8909
55.3965 27.817 14.5173
51.3429 27.5972 14.8135
45.8701 24.5321 13.7208
48.9886 25.4298 13.6881
46.8031 25.5633 14.1362
52.2078 28.7784 15.9283
50.693 26.7449 14.6363
50.7003 28.2964 15.9469
51.6678 28.1344 15.7344
51.9626 28.3407 16.0513
46.9171 25.6702 14.4802
49.1739 27.2191 15.2831
47.2005 26.3568 15.1175
48.5392 28.0522 16.1479
49.1626 28.655 16.7316
44.9582 25.4473 14.9937
48.2116 27.1659 15.8638
48.0738 26.6605 15.3618
52.5925 30.667 17.912
45.6398 27.2189 16.6386
45.8319 26.6961 16.0923
46.7297 27.8669 16.8806
49.1944 28.9299 16.867
44.9986 26.6289 15.7262
45.9778 27.9371 17.453
48.2551 29.1496 17.6711
48.4618 29.3044 18.0561
48.6155 29.1979 18.1037
45.4803 28.0674 17.4104
48.0337 29.9892 18.7218
42.2104 26.7428 17.4127
45.4875 28.1696 17.9349
50.1836 31.2878 19.6471
44.565 28.1537 18.1329
41.1037 25.9876 16.9404
48.1245 30.5684 19.8658
43.8081 26.8776 17.0835
45.5062 28.0436 17.9789
45.4623 29.2831 18.7615
44.4178 29.4219 19.3901
45.1307 30.1466 20.4057
44.0109 28.3288 18.4158
42.9158 28.6124 19.1162
40.63 26.3544 17.7366
39.7403 26.2804 18.1139
39.4263 26.3638 17.6648
42.5121 29.2864 20.765
45.915 30.5926 20.5975
45.8055 30.5512 20.6876
42.8795 29.0309 20.4365
44.8997 29.5468 19.6914
38.8585 27.3422 19.539
41.9168 29.2105 20.6182
40.4952 28.3145 20.0761
42.1594 28.4537 19.9185
45.6856 33.1027 24.3211
45.6808 31.353 22.3289
47.7068 34.1141 24.7215
43.2826 29.6018 20.8542
49.5187 36.8109 26.9408
43.9363 30.792 22.935
47.3082 33.7119 24.7278
49.643 34.9372 24.6386
42.4675 31.2055 23.6307
45.2142 33.0602 24.7488
47.8151 34.195 25.5302
51.1131 37.3709 27.5854
50.284 36.4627 27.1523
45.8965 33.3154 24.8962
46.6729 35.5812 27.7692
47.7521 34.5527 25.4236
46.508 35.4975 27.3784
46.2646 35.1106 26.4892
44.7009 34.1254 27.0879
45.1791 34.1593 26.2136
43.9038 33.641 26.6223
43.2566 31.7334 23.9672
39.8185 31.3258 24.9783
43.5177 33.4787 26.0236
41.266 31.8552 24.8292
44.5233 35.0312 27.5128
40.9682 33.0787 27.1729
48.0044 37.5793 29.0405
40.599 32.1612 26.163
45.7521 35.6385 27.4825
38.708 32.2701 27.178
40.5229 32.2656 25.7798
38.5632 32.825 28.2458
42.7657 34.0708 27.3228
37.0452 30.5838 26.2976
42.7133 33.4529 27.1731
39.7311 31.9141 26.1912
41.4529 34.3897 28.8076
38.4621 30.1761 25.0299
45.2531 37.9206 31.1743
39.3712 34.2573 30.0559
37.9552 31.0131 27.043
42.7491 35.0471 29.4069
40.4493 34.2188 29.7993
38.3925 30.9079 26.5867
41.0203 34.8553 29.6329
38.1749 32.1372 28.3896
40.6235 34.8068 30.5997
40.7505 33.9186 29.4886
40.5221 34.0678 29.3683
38.2828 33.2178 29.812
39.9335 34.1343 29.8246
40.7094 34.3436 29.429
37.7248 33.4505 29.9922
40.2205 36.6022 33.0272
33.0698 29.6607 28.0935
39.2411 33.5629 30.2628
40.4508 35.6291 32.431
42.3794 37.9797 33.4446
42.4738 39.2029 36.2076
41.3979 37.5793 34.6047
39.965 36.7384 34.0851
37.1014 34.0773 32.0888
41.5134 36.9793 33.8571
35.4812 32.2204 30.498
38.0497 34.3865 32.0197
33.8824 31.1746 29.4294
30.9617 28.4491 27.6026
35.8726 32.3898 30.2773
36.2587 32.0708 29.6049
35.4583 33.8416 32.7262
34.8524 32.4452 31.2077
35.1932 31.6969 29.3715
31.0078 29.6354 28.6988
37.2214 36.3482 34.6917
34.7168 33.9464 34.2277
34.7128 33.3282 32.5243
30.9344 29.1016 28.796
34.0343 32.5243 31.9379
34.5195 33.2635 33.153
34.5708 34.4508 34.9595
34.9035 34.8182 35.6018
33.5993 30.7034 29.8382
30.9011 31.0843 32.0708
33.8004 31.6681 31.1453
32.1663 32.4507 32.5194
33.3101 32.923 34.2243
35.6677 34.8122 33.6192
31.0988 31.3661 32.7396
30.8151 30.8184 32.4923
32.3503 32.1571 32.307
34.3124 35.8653 37.689
31.1897 30.9575 32.5023
33.3499 33.6366 34.5999
31.8048 32.8052 34.2604
33.2645 35.0696 37.2342
30.8557 31.4925 33.5698
31.2679 32.7361 35.5511
31.2389 32.4994 34.5851
28.5152 28.7251 30.9842
32.1596 33.9349 35.8663
31.2026 33.6787 37.1028
31.7668 33.7162 36.7845
31.3998 32.4884 35.7425
33.3107 34.8678 38.2375
32.9603 33.7538 36.1905
30.7068 31.1867 33.0682
31.4113 33.81 35.0829
29.3657 32.9306 36.7074
30.243 31.475 33.8839
27.3366 30.5296 34.547
30.1074 32.2372 35.3985
27.0764 30.4683 34.8447
29.6364 32.123 35.1894
28.2763 31.0721 34.6837
30.129 34.6684 40.1255
29.6902 33.4085 38.5543
31.3368 34.9368 40.6089
29.88 31.7264 35.527
31.1521 35.7379 41.2885
28.8353 30.6982 34.7907
29.2988 33.5548 39.8009
27.3083 30.0662 35.3284
31.3953 35.2971 40.6517
30.4946 34.1925 39.7077
32.1799 35.5415 40.0986
29.2046 33.9173 40.6634
31.2539 35.0625 39.9171
29.2207 32.5169 37.3408
27.8666 32.3318 37.0509
25.1143 29.5262 36.0432
29.3576 33.6235 39.2957
27.6994 33.1755 39.3649
27.5247 33.2314 39.8663
28.0776 32.6288 39.3887
26.271 32.0207 39.1292
29.5774 36.1366 44.7288
26.519 31.6236 40.5535
29.3511 34.3573 41.1447
27.3368 33.4596 42.5345
26.9741 32.4607 40.8951
26.9348 31.8178 38.5872
28.4011 34.0364 42.1244
25.0811 29.5899 37.8343
26.5785 32.0023 39.5749
26.3685 31.1207 38.8598
26.02 30.6953 37.22
26.0316 32.4711 40.9388
25.6232 30.3164 37.647
27.4532 34.2287 43.2354
25.4499 30.4875 37.4
26.5416 33.1175 41.162
24.3446 30.1109 38.4597
24.803 30.9594 38.5995
25.4511 32.2347 40.7366
23.0984 29.6243 40.2428
25.67 30.3272 37.196
22.6151 29.5665 40.9911
27.1187 34.5045 43.7493
22.2805 29.2063 39.1392
24.0583 31.1713 41.5323
25.2505 31.3718 40.8791
25.2472 32.5015 42.2621
22.1554 28.5917 39.363
23.6554 31.237 44.1855
26.3276 31.8086 40.754
23.2733 29.0222 38.3422
23.1467 29.9554 40.5614
22.7175 27.8413 36.2913
23.9835 32.068 42.5289
22.9614 30.4798 41.9486
25.7425 33.465 45.1296
25.7077 33.3386 42.9349
22.6567 31.6117 44.9539
23.0834 29.4617 40.1935
22.7868 30.3072 40.3245
21.5677 29.8721 42.0109
20.5672 27.6829 40.3108
23.2751 29.9745 40.0134
23.2333 31.9359 44.9958
23.098 31.18 43.6405
23.9015 32.8096 45.5884
20.7827 28.3832 41.5613
24.1844 32.9938 45.8336
21.3148 28.7681 41.4482
22.9112 30.45 42.1977
23.1628 31.7321 44.7179
22.2152 29.3075 40.9078
20.4855 28.8939 42.1703
23.4574 31.0561 42.0311
20.2552 29.9718 44.6268
20.41 28.6135 43.3914
23.9174 31.3574 41.4636
20.1199 27.8842 39.9109
21.1124 30.6988 43.9195
19.4244 28.1153 42.5182
20.8532 28.9845 42.1298
20.0852 28.5069 42.4958
20.0108 29.0082 43.7525
22.4823 30.6773 44.0337
20.0835 28.1647 41.2753
20.7542 29.4622 42.5779
21.0042 31.8243 47.8193
19.5757 29.1918 44.822
19.8647 28.4596 42.6429
22.7061 32.6896 48.4928
21.7663 31.5914 48.7752
21.0447 29.9166 45.4367
20.2194 28.9509 43.2794
21.0205 31.2012 46.6566
19.4388 28.9916 46.6022
23.1555 32.5619 48.6881
21.0749 29.1132 42.0626
19.627 29.4092 45.3422
19.8385 29.5015 44.9286
20.6735 31.3925 48.189
20.8144 30.4415 46.4959
19.9486 29.9533 46.0118
18.0242 27.9034 45.4649
20.3852 31.289 48.8339
19.2052 29.2122 46.3641
20.7482 30.0845 45.0147
18.6511 29.4322 46.5141
19.4372 30.1077 48.8065
20.3525 31.8793 49.2534
20.5821 30.7144 46.205
18.0441 29.495 49.9122
18.6967 27.9061 46.406
20.5589 30.6212 48.2591
19.635 29.1068 44.4126
20.0837 31.8726 49.0091
19.3004 31.3259 51.5184
18.9648 28.5434 43.771
18.715 30.6855 49.9479
19.7035 30.2425 47.1694
17.3584 28.8871 49.1668
18.8693 30.2045 51.0859
20.0162 30.4353 48.457
17.3083 26.597 44.2472
19.6738 30.1259 48.6991
19.3999 31.5231 52.2838
18.6059 29.7497 50.0388
19.0554 29.2826 45.0806
17.6496 29.3024 49.2548
18.5343 29.3274 47.2236
18.0501 30.0525 49.9909
18.0976 29.8806 50.414
17.5335 27.8493 47.6971
18.6142 31.1076 51.0981
17.1203 28.2023 48.1014
16.9484 27.2841 46.6872
18.5477 29.8779 50.1958
18.2999 31.5836 55.0813
18.9702 30.3284 51.3633
18.2853 28.4091 47.633
18.8014 32.5859 55.7079
17.4258 28.0615 47.6707
16.536 28.6846 53.3978
20.2969 33.2619 55.4521
18.3158 32.3072 57.6306
18.2582 30.2092 52.6142
18.2047 30.8206 55.5518
18.4067 29.5895 52.5397
18.7002 30.8708 51.4093
18.4354 29.1628 47.1771
16.1925 28.8675 50.3786
16.6416 29.6737 54.7796
16.4019 28.3314 51.3805
16.8708 28.4765 49.8531
17.1206 29.0486 49.2965
16.9672 28.4702 49.8778
16.0367 27.3313 48.1858
16.2138 28.6811 52.5104
15.3192 26.5484 51.2775
17.6447 29.3663 51.3322
16.1733 27.7024 48.3304
16.1752 28.5945 50.0723
16.2905 29.9598 55.1742
15.559 26.5731 52.091
17.1026 29.3539 50.9592
16.6912 29.2985 53.4147
15.5511 27.1966 51.0137
16.8702 29.3414 52.3145
16.9836 31.4852 58.3625
16.7853 29.8969 56.0721
16.5506 28.3717 52.2723
17.5621 30.7337 53.6678
15.4892 29.0678 55.6721
15.2429 26.3806 50.2346
16.2451 28.6231 51.4167
13.6782 24.6406 48.0412
16.5377 28.2592 49.9247
15.9337 29.1614 53.9256
16.2268 30.8385 58.5073
15.0775 26.6727 51.3114
14.9685 27.7488 55.2266
17.0505 29.2923 53.1643
15.548 28.8447 55.8742
15.3843 25.4704 47.3155
15.7124 29.5545 55.4698
16.3948 29.631 55.234
15.5755 29.1718 57.1223
16.4358 29.5066 55.4801
16.2308 30.4194 56.9448
14.5856 26.408 49.0511
14.4592 27.9168 53.9116
15.2426 29.0254 57.0745
15.0258 29.3671 59.7061
16.9573 30.4591 56.0291
15.5361 30.5003 61.1181
15.0628 26.9 53.2517
15.1819 27.4293 52.3319
15.1322 28.8296 59.138
16.5704 31.4685 58.7453
14.068 26.857 52.7881
14.8069 27.7782 54.1639
14.0522 25.9619 51.8678
15.1751 28.9704 57.26
15.9481 31.01 61.1965
14.3038 25.7021 51.8739
15.0107 28.9805 57.3358
13.6668 25.1292 50.0576
13.7153 25.9254 51.1785
14.6285 28.8976 60.1878
15.6877 29.5615 56.4786
14.2471 27.6495 56.3762
14.5302 28.1335 55.8396
12.9977 24.7272 50.5828
13.0606 24.4415 49.7027
13.6527 27.3331 55.9542
13.8531 27.5992 57.1388
14.8379 29.0814 57.3083
13.0634 26.0193 55.4492
13.6627 26.4662 52.9747
12.9578 25.4269 52.8951
13.4267 26.2857 54.0712
13.4791 27.1427 56.6913
14.7359 29.2062 61.3679
15.1387 29.0182 58.7466
14.151 28.6777 58.5839
13.2682 25.6762 54.9068
14.0777 27.7175 56.2835
13.5317 27.7551 60.3998
13.9571 26.2653 54.5939
13.1629 26.6557 54.4721
12.5895 24.6568 53.7871
13.4878 27.3876 56.6473
12.6875 24.7142 50.5592
13.0725 27.835 58.2389
12.1059 24.3349 52.7729
12.2706 25.002 53.6667
12.1274 24.6 54.0458
13.2469 27.138 58.8959
12.8857 25.8458 55.5606
12.7078 23.6643 50.8013
12.4627 26.2792 56.2122
12.4476 24.1821 52.1932
12.3747 25.6099 53.9846
12.1453 24.5897 51.8204
11.629 23.9171 49.7087
11.2794 24.6764 53.9357
11.0865 24.3903 56.1099
11.6972 23.0723 50.1027
12.9485 27.954 57.4413
11.6221 24.3514 52.1711
12.7129 27.2522 60.3917
12.2303 25.2181 54.9796
12.3193 25.4139 55.5626
11.8024 24.9126 55.9362
12.2614 24.9312 53.5906
12.0963 26.55 59.1446
12.4537 25.7752 53.7398
10.5248 22.8098 51.121
10.7573 23.6957 54.0547
11.6965 25.6363 58.7507
11.444 23.1917 53.0578
12.0271 25.2628 55.3884
11.5498 24.2788 53.1931
10.7444 22.8751 53.0568
11.6189 25.3817 56.868
11.5393 22.8033 50.188
11.4744 26.6952 61.8375
11.4278 22.5216 49.6214
10.4 22.4567 51.6366
10.6241 23.0296 54.0498
11.9169 24.6992 54.5504
10.984 22.8222 53.4957
11.2568 25.1531 55.6321
10.6528 22.8789 54.121
10.8432 23.2839 51.5382
10.4528 22.262 51.6719
10.5803 24.175 55.8135
11.1479 24.2157 54.7172
10.1924 22.2411 54.6143
11.8725 26.3283 57.1232
10.5737 23.818 55.1829
10.4371 22.9899 55.1024
11.4933 26.189 60.8477
11.6564 24.2429 56.7043
11.6542 26.1589 61.9237
10.3315 21.6303 50.6686
11.1238 25.2545 59.7363
11.4136 24.7062 57.1032
10.5583 23.3214 53.1742
10.4733 24.4013 57.671
10.7365 23.4178 53.6354
10.0356 22.724 53.1688
9.76736 22.212 53.5845
9.62396 21.8826 55.2456
10.9192 24.4715 57.8696
10.6825 23.5016 55.2035
10.5257 23.0299 53.2118
9.51485 21.1386 52.3647
10.3069 24.2258 55.4773
10.3891 24.713 61.1413
10.0131 21.6859 53.4961
10.3973 23.0506 53.0986
9.80633 22.9118 55.0409
10.0379 22.1191 51.7819
9.63949 22.6586 58.4155
10.9223 24.7476 57.9377
9.71375 23.284 57.9683
10.1694 23.4946 61.2686
11.5834 25.1455 57.9677
10.0821 22.8117 54.9284
9.11845 21.2771 53.4057
10.1051 24.4085 59.818
10.2737 23.104 53.0439
9.45005 23.3229 59.0739
