# pn-170911/RbIIR-46-USNO-1280-1959.psd
# Power spectrum* (dif=0,1,2) (really just |FT|^2)
# NOTE: only the first half! (symmetric)
# weeks: 1280-1959
# 11 clock-days, 0 excluded
# PSD: 1441
1299.56 0.236295 0.0215201
63593.3 0.623365 0.0227474
523472 11.2905 0.0383596
18599.7 0.902454 0.0447261
39195.2 2.10948 0.0301625
7866.69 0.641314 0.051829
7265.11 1.29817 0.0192928
3358.43 0.363489 0.0355342
4357.01 0.883141 0.0430911
2095.07 0.310729 0.0323854
1790.58 0.561087 0.0480821
1356.64 0.430391 0.0248905
1553.73 0.607617 0.0377503
1245.66 0.681579 0.0421629
1214.58 1.09759 0.0317487
929.342 0.556083 0.0461858
643.903 0.621745 0.0386527
1131.04 1.07178 0.0358447
725.415 1.12188 0.0450953
838.609 1.02828 0.0232555
520.668 0.663047 0.0316547
244.146 0.389568 0.0456703
574.994 0.737561 0.0408988
381.7 0.888558 0.052122
389.486 0.832956 0.0202675
218.119 0.497263 0.0342614
537.425 1.26297 0.0448502
241.948 0.63671 0.0311345
232.862 0.691551 0.0519064
453.41 1.47331 0.0255549
382.905 1.25 0.059739
273.25 1.25648 0.0461088
352.101 1.63516 0.0360205
239.495 1.12662 0.0581714
183.468 0.807147 0.0371382
207.174 0.794767 0.0543268
226.597 1.37066 0.0477857
169.035 0.800656 0.0263484
327.412 1.94534 0.0550809
384.967 2.42599 0.0513473
433.195 2.41234 0.065078
239.8 2.05949 0.0576613
287.714 2.50496 0.0548257
339.861 2.47239 0.0717371
276.379 1.96779 0.0578188
321.08 3.6171 0.0564526
156.022 1.45213 0.0908292
306.056 2.8783 0.0827099
206.184 2.0604 0.0578473
241.821 2.24995 0.0760941
315.51 3.06124 0.0688945
270.519 2.89158 0.0843835
267.239 3.64177 0.0646067
331.293 3.98492 0.0919535
420.207 5.291 0.118148
228.97 3.21799 0.0804125
343.111 5.923 0.148108
237.811 3.75825 0.105073
237.134 2.52628 0.0925578
223.536 3.36431 0.0864905
231.612 4.16748 0.100522
116.662 1.96091 0.0920388
211.259 4.28422 0.115548
151.72 2.11042 0.0605372
138.095 2.8152 0.0924037
422.597 6.75469 0.199685
260.533 5.61782 0.152107
237.363 3.97081 0.0794775
189.242 3.12472 0.0787534
240.986 5.71325 0.120908
163.496 4.11465 0.109257
249.833 5.00631 0.137093
146.026 2.79192 0.0595109
322.464 7.28667 0.278601
94.951 2.23868 0.0827365
336.977 8.12934 0.219902
199.702 5.37413 0.178943
306.731 8.06615 0.288086
206.934 6.39759 0.296591
303.91 9.01681 0.240807
246.873 7.41248 0.256783
161.729 4.51578 0.2244
199.726 6.23836 0.220811
309.022 9.33696 0.428763
231.699 9.10265 0.403076
266.244 7.93308 0.265783
202.296 7.07416 0.24222
129.727 4.47682 0.229417
281.367 8.94672 0.298154
415.086 14.7374 0.58775
236.038 8.74926 0.330422
260.67 9.35264 0.414821
160.633 5.46427 0.270811
181.813 7.46868 0.300574
258.173 10.6754 0.43048
223.897 8.67646 0.388733
503.772 23.0071 0.941855
93.1811 3.9526 0.196015
122.895 4.96249 0.23965
171.859 7.3699 0.44301
210.297 9.90936 0.495821
200.653 10.6871 0.555176
194.251 9.68762 0.50009
357.405 16.0838 0.73456
216.656 12.1537 0.622136
114.499 5.4536 0.263391
174.284 9.38163 0.573764
184.396 10.2262 0.563521
234.28 11.5253 0.667303
204.437 11.7717 0.756851
197.436 11.8687 0.748454
138.032 7.15802 0.46594
139.119 8.72038 0.458119
189.214 10.582 0.70926
171.149 10.8335 0.791038
229.483 13.634 0.864248
129.892 7.37909 0.496499
162.562 10.6745 0.71081
152.812 10.0751 0.609947
241.46 15.6785 1.09769
208.821 12.4117 0.807773
131.823 8.50174 0.625065
196.753 13.3089 1.09592
234.558 17.0463 1.26655
124.433 9.11264 0.766302
128.365 9.5177 0.857485
177.388 11.5264 0.813416
149.814 11.5142 0.872322
211.003 16.058 1.29566
177.671 13.4506 1.15254
181.019 14.5435 1.36724
445.522 38.2802 3.11018
129.659 11.2211 0.96825
117.107 7.54582 0.548087
192.194 15.9061 1.22895
220.827 17.5738 1.4763
119.429 10.0162 0.746809
71.1509 6.28597 0.478393
133.857 12.3371 1.23477
286.781 26.0275 2.54435
115.165 9.11629 0.938708
250.311 21.3575 1.89509
92.4716 10.1248 1.0308
88.552 7.75576 0.819689
173.394 17.6167 1.71576
103.158 8.60764 0.889813
84.9733 8.40448 0.789659
173.398 17.379 1.65555
96.0194 10.1475 1.13565
155.946 17.7594 1.99848
107.254 11.2492 1.06846
143.283 14.9244 1.62509
131.078 16.4919 1.69772
152.446 15.2662 1.69765
200.237 21.6073 2.26864
160.265 20.0443 2.33315
156.294 17.9076 2.0147
119.698 15.3842 1.7765
68.0361 9.27737 1.09214
129.318 15.2916 1.77209
110.237 12.3747 1.5793
205.175 22.1725 2.67389
200.787 27.3325 3.27063
197.127 23.6192 2.80581
76.9382 9.5761 1.19955
157.83 20.4503 2.78426
110.486 14.8609 1.82586
109.467 14.0468 1.73514
103.734 13.6642 1.73772
90.3161 11.5838 1.62092
118.594 15.2884 2.13845
76.8937 12.0529 1.7543
90.3099 13.0072 1.78428
86.1347 16.3211 2.48537
125.192 18.3865 2.8354
68.3397 9.89779 1.61361
194.284 24.7448 3.16735
51.5569 6.8389 1.02258
123.616 16.4778 2.50419
140.421 19.7584 2.81346
91.4358 14.8977 2.37274
96.3026 15.0829 2.57652
55.4985 7.29033 1.19766
156.695 26.0535 4.20986
93.109 13.9642 2.1633
62.7983 11.5391 2.23605
208.764 29.47 4.45441
133.468 19.1482 3.19644
74.1907 14.0802 2.24952
95.4335 15.5366 2.54043
119.256 19.6487 3.74693
147.325 25.7627 4.41372
167.951 27.3837 4.78194
115.565 22.1894 3.88424
78.9001 10.7585 2.03405
85.8768 16.5273 3.36764
132.289 20.5202 3.51832
115.75 19.4805 3.45364
116.502 19.1477 3.38229
74.5302 14.8235 2.78274
99.5668 18.9553 3.43145
80.1198 15.1319 3.19735
91.0341 16.1584 3.2472
84.375 15.8126 3.19689
64.5624 11.2262 2.05898
74.5891 12.27 2.23509
84.2079 16.1113 3.15136
92.2166 18.0896 3.78136
83.2719 14.774 3.22326
103.711 20.7127 4.541
130.379 23.9969 4.53204
103.781 19.9035 4.5315
80.8258 17.975 3.78016
90.4975 16.3029 3.56319
104.999 20.7096 4.04324
40.8084 7.51928 1.60876
91.4624 20.1938 4.28094
109.451 22.456 5.18196
88.7134 19.2107 4.2369
85.1627 19.9 4.36815
65.9729 15.6553 3.59258
99.8653 20.8845 4.62355
64.5942 12.235 2.84815
102.474 21.2411 4.95424
55.1814 11.5157 2.62383
78.7594 18.7786 4.83156
118.529 27.2452 6.2778
109.433 26.3069 6.49017
102.966 20.5214 4.76429
72.6702 15.8597 3.92988
108.657 25.0604 6.30926
61.3779 14.6895 4.07415
88.0069 24.5991 6.35546
102.59 27.0659 6.91731
81.3536 16.8187 3.66436
74.1872 17.6571 4.59955
47.129 13.1878 3.85703
88.5132 22.366 5.08252
66.8936 20.6093 5.76775
90.6918 23.7887 6.05201
62.3125 15.4387 4.09767
58.242 15.4401 4.00322
96.3101 24.5616 6.30867
49.7596 15.432 4.76805
91.9012 25.2892 7.70425
83.4746 21.9427 5.89962
65.747 18.5463 4.84907
52.6373 17.0019 4.875
60.8428 17.4036 5.80103
82.1337 21.7891 6.15163
50.0744 14.5913 4.7236
56.5158 17.3036 5.48835
92.4831 22.6765 5.93158
82.5819 22.5287 6.10665
40.1343 11.6362 4.04246
68.6703 19.5974 5.83433
75.4097 21.1651 5.73659
40.683 12.14 3.60954
49.3212 15.6596 5.29474
52.9677 15.2723 4.28518
46.8657 14.1173 4.49892
101.066 29.9773 8.68216
88.1164 27.5424 9.15995
101.684 29.005 9.03782
91.8887 30.2754 9.74141
38.0828 11.3607 3.58376
28.1281 7.25056 2.31203
30.192 11.0185 3.73433
54.22 17.2302 5.66445
47.3495 15.3374 5.64518
46.7609 13.8226 3.83212
101.992 36.764 11.8552
33.9913 13.2881 4.7573
34.9648 14.8192 5.50905
98.4456 35.7186 12.6242
48.5375 15.2514 5.31295
66.1881 20.2238 7.05322
28.3041 10.4091 4.34363
57.4808 19.8724 7.15034
67.3771 23.6246 8.56515
77.3447 29.1702 10.3639
99.1145 37.9418 14.2264
35.1292 14.2217 5.26336
47.2701 17.1643 6.8339
51.4483 14.9457 4.9788
49.8616 22.2803 9.01754
56.3486 15.1502 4.01755
67.5606 23.0288 7.89332
81.6581 30.2864 11.6173
26.1696 11.4965 4.60104
39.5627 19.3606 8.71731
46.6339 17.7685 7.86307
77.316 27.608 10.2757
30.5579 13.3138 6.06892
58.0371 23.0549 8.48515
45.818 22.8069 10.4365
42.7806 14.4563 5.97994
48.6402 15.7774 5.87287
34.0317 12.1373 4.88804
58.3063 24.5153 8.96999
37.9566 15.6691 6.32748
39.0856 17.7909 7.86925
42.6223 16.0859 6.01494
28.5012 11.9121 5.82361
67.1568 24.8107 9.74962
52.6441 22.4747 9.40479
77.296 35.4637 17.2763
111.735 43.8272 17.4721
66.7014 25.23 9.68926
44.006 19.6201 9.53877
15.7073 6.82111 2.81587
28.363 16.0212 9.19214
64.4193 23.082 8.27547
29.7025 17.2338 8.97876
71.3965 32.6893 15.2932
46.4975 17.6959 7.41008
50.1817 27.7451 13.8324
68.8852 35.9819 18.4238
43.4274 16.5468 7.53553
38.0108 14.8777 6.02596
42.0751 21.5102 10.5606
57.8186 26.208 13.4613
87.4176 38.7968 16.731
38.2266 16.922 8.2098
33.4812 17.3415 8.50814
64.4187 31.1675 14.9571
44.1368 14.7131 5.67168
40.8753 19.4419 8.95321
22.5081 14.3515 7.83146
23.5009 11.5281 5.92304
49.7594 22.8571 11.3115
41.4189 22.6354 10.8506
66.76 35.3652 16.7912
35.0105 23.8302 14.8322
51.4691 24.5792 11.8942
49.8159 21.3929 11.2105
42.3266 22.5284 11.737
43.5128 20.0679 10.4137
52.1005 29.188 15.7179
50.8103 25.9692 14.3915
44.5391 19.6595 9.03322
31.5831 15.0664 8.53541
72.3958 31.7953 16.2761
38.2589 21.0041 12.112
47.1934 23.6818 12.112
48.4229 24.2086 13.3971
41.2069 22.9 12.1523
38.849 19.7566 9.65659
35.8703 20.6923 11.6027
23.2886 12.7464 8.18618
22.3563 11.4166 6.3628
33.6699 20.7669 12.1322
26.3771 13.0848 6.92944
31.8516 16.0622 7.61059
28.6724 16.2364 8.86916
42.0459 25.1829 14.1993
36.5475 19.5938 10.9766
26.4086 17.4817 11.0244
32.4568 17.1795 12.4309
42.7086 20.015 9.79804
34.4352 17.6827 9.10725
27.0142 16.5636 9.8597
39.0427 24.9686 14.1937
44.6701 26.5658 15.4403
23.0152 13.9907 9.15414
40.7562 23.5562 13.3411
41.306 26.1684 17.6614
32.8901 15.0151 8.34495
24.9394 14.7524 8.95457
14.9908 9.48583 6.4665
22.3509 11.87 7.22635
20.6876 14.0527 9.97654
43.9352 26.7101 16.4129
22.6404 16.4944 11.1199
32.0586 18.1275 11.9264
70.5776 42.5488 23.8073
20.8118 15.3589 10.9886
34.9903 21.4867 11.8005
25.8874 18.6572 13.8643
32.6394 17.679 9.77371
26.4701 18.1557 11.8094
28.4413 20.3259 14.0216
24.6966 20.8949 15.5635
20.464 14.6013 14.4928
89.7906 52.5743 31.3325
32.2438 18.8266 11.9482
30.6643 19.1177 11.9398
22.8132 15.0633 11.0315
36.5962 20.3783 11.239
40.5079 33.4243 24.0916
29.9782 15.3677 8.93058
17.8952 12.4362 9.43563
40.4563 27.3059 17.9557
38.6475 26.0097 17.1403
31.4223 23.9651 20.247
24.1623 13.1349 6.89044
19.3993 14.7875 11.3304
28.2273 19.1054 12.4056
22.0646 14.0653 10.546
35.6468 22.1051 14.3321
22.082 12.2319 8.06061
19.5215 16.3699 13.8774
35.5843 22.6494 14.977
21.1293 14.5738 10.8889
17.071 10.8993 7.2841
27.9724 22.0853 15.5898
27.1383 19.3983 15.0059
26.0333 16.6403 11.2329
23.3442 18.0763 14.0469
20.6565 14.9246 11.3711
16.6797 16.6748 17.0986
34.3447 23.5244 16.2359
29.424 21.0823 16.2668
20.0027 11.9994 9.03642
23.3516 17.2132 13.2607
24.327 16.9584 11.4585
23.5401 18.277 13.0276
53.19 40.391 29.0789
35.8253 31.4963 26.6139
34.5626 23.6542 16.812
16.9313 14.9146 15.3225
24.4015 15.0367 12.3066
30.3165 21.4552 14.7459
26.7661 20.633 15.0047
19.948 16.6854 15.9669
21.8353 17.441 13.3767
26.3916 24.1673 22.8619
19.4235 11.8395 9.62903
36.563 30.7591 22.8399
21.7306 14.1663 11.0434
33.2496 28.4905 20.471
21.6979 17.9647 15.7429
28.0914 25.905 21.4372
17.0455 12.3281 10.1962
28.6431 18.9226 14.3414
20.6339 17.9161 16.3348
31.5029 27.376 23.3687
41.8137 26.4273 17.2692
30.1634 27.6133 25.6551
25.8523 21.1834 18.9854
27.1547 23.1968 21.3304
18.5581 11.0297 8.43248
28.4864 22.517 18.2146
29.181 26.332 25.0552
26.2335 22.1093 19.3237
32.3305 29.4959 25.7519
28.1611 26.3075 22.5033
17.5083 15.9082 15.9548
25.4562 19.4091 13.4946
7.99459 9.70061 10.6855
28.1002 24.9314 21.555
23.1504 22.1463 18.6757
22.7944 23.5762 22.1224
20.7595 18.0301 14.1784
14.777 15.3094 13.8234
11.496 10.8991 11.5395
15.462 12.0635 10.8188
31.3254 27.6639 22.8574
19.8208 19.0928 17.5599
32.6048 31.637 30.5707
14.461 15.1988 17.7623
39.6427 32.9298 26.6725
18.4118 18.7305 19.1703
27.1248 23.9965 21.8769
27.9586 24.4306 21.5456
27.5227 23.554 23.2803
30.6682 26.0189 23.0548
14.8619 12.4238 10.3151
14.994 16.0249 16.9003
22.2904 20.3622 19.6984
23.9037 22.758 21.1979
18.49 20.1765 22.4142
25.4304 23.7893 25.5198
31.1977 28.2178 22.8986
12.9444 15.1547 19.6405
28.1005 21.6913 16.1867
18.5133 22.0436 22.5813
28.1423 27.6676 28.9979
17.7723 17.9507 16.9401
8.49183 12.5719 22.2027
53.1203 46.5274 34.6876
21.9168 23.9418 24.6054
22.0014 20.6339 20.1201
24.2006 23.9192 24.0667
15.3054 18.0984 22.7543
26.4988 16.8447 12.0762
18.5662 18.5607 19.5066
20.5111 22.79 25.812
24.9033 23.1462 23.5301
22.625 19.3746 17.6715
18.521 19.0393 17.7427
20.0014 24.819 28.2155
26.1939 24.0328 22.8768
31.3079 36.6284 38.3736
15.5906 16.4498 23.7221
18.3488 17.1988 14.8294
13.4789 12.7138 12.3574
16.8275 18.7523 19.0221
21.3406 22.7054 23.1196
15.7383 19.9528 22.735
12.9015 11.7103 11.5335
17.7649 21.3144 25.3922
19.8564 20.8857 20.225
7.64333 10.8123 19.0165
23.5138 21.9257 24.4434
20.1598 21.6947 25.1723
28.2516 29.2966 31.054
22.6936 22.0775 20.919
16.3619 18.1369 21.1691
12.8503 13.4357 13.3897
15.7333 19.7486 27.0093
33.7565 32.1809 26.8375
18.4236 28.2954 43.9423
33.7823 33.3594 30.3737
19.3592 18.3497 15.7915
11.8437 16.8099 22.059
21.785 25.19 28.4583
16.9493 24.2748 28.511
8.0945 10.3214 13.5475
21.2527 27.2166 32.4961
9.19551 8.89423 12.534
19.8758 22.5634 23.8616
26.0585 31.7888 37.9596
30.3694 40.8049 56.3802
47.4265 59.9752 72.4442
36.3737 27.4493 19.1935
17.212 20.4081 21.8481
14.2023 18.4648 22.7344
13.4333 16.5953 21.7557
17.0957 20.4212 23.4831
10.0442 13.1174 17.0964
13.6797 16.1335 20.7727
20.2798 20.0943 21.0972
25.9067 41.1138 58.0013
25.7884 22.4876 24.1587
14.4108 13.0507 14.84
11.5918 13.4657 18.2408
13.064 16.6803 22.251
11.6198 14.383 19.2754
13.7352 12.4022 15.2376
20.5705 24.7212 26.5509
12.0785 18.5816 26.8365
18.075 18.1449 19.6602
19.5488 24.406 28.2286
13.9781 13.1922 12.5462
11.4427 17.0892 19.8522
9.55773 14.7294 18.3018
9.87108 11.3564 12.9162
18.7196 27.1809 34.5288
18.2152 21.8607 24.9134
15.8434 25.1647 35.5055
19.964 26.6296 36.9866
21.4252 25.0277 28.4276
14.527 19.9594 25.1201
14.7905 15.822 22.7541
12.9953 12.8827 10.9581
11.5191 18.1816 23.4035
8.06054 12.8061 19.779
12.6619 16.1076 19.5263
24.0402 34.7781 41.5801
16.8165 24.4045 33.5373
10.4678 16.0344 25.8352
18.621 22.3347 28.2638
14.8982 18.9975 28.6413
20.301 24.6171 29.5869
11.5673 12.9983 17.9938
21.2127 25.7553 32.8415
11.4325 14.4264 17.8862
16.8294 22.7818 29.8265
12.5995 15.2316 20.159
16.9173 28.895 39.9376
14.0806 17.1531 23.1627
17.0921 24.1537 34.0842
13.9133 13.9797 15.0377
14.3663 24.3555 39.4482
9.16335 15.1397 32.8876
28.3655 31.8998 29.7116
8.17798 13.1898 19.9498
14.3659 28.2819 44.943
12.4155 10.5729 13.0678
8.4476 10.201 15.5147
12.5165 19.4142 27.7532
13.7033 17.3279 22.2022
8.25262 13.1297 24.8727
15.8693 19.182 21.6046
15.0317 22.1223 29.3165
5.75056 14.2913 31.9033
24.127 28.4556 33.577
9.57861 14.9003 29.8734
21.3572 26.1272 28.4189
7.53921 13.1196 23.6534
17.0443 22.3122 31.3845
16.078 18.5495 27.5785
18.8733 23.0767 24.604
12.3035 21.6701 28.3638
9.9092 19.3455 36.3774
19.5365 20.3301 20.8141
11.3879 18.3642 31.4672
11.3092 15.9576 20.1816
4.94229 10.0008 23.0997
8.54681 13.9161 24.5964
10.6078 14.8876 25.8497
16.6315 18.2351 17.2029
9.52365 14.493 21.9015
15.4137 22.2591 29.1267
8.46825 16.393 27.1935
17.9885 28.1603 40.5042
14.1725 18.0062 24.0731
13.2698 21.9598 30.3595
8.66885 17.4873 37.5023
11.9933 11.6234 15.8424
18.5952 25.0741 31.5192
9.9333 19.7362 32.9028
11.3854 18.2666 27.3252
5.87868 9.56167 18.6516
12.4866 18.0056 28.8492
13.0031 15.1067 19.5823
5.10351 7.17626 15.5261
13.1496 20.9912 25.6296
10.6099 18.295 27.2422
11.4546 22.4255 39.3699
13.587 25.0555 51.3769
16.2237 14.4528 15.137
11.6395 22.0572 37.1052
11.671 17.7319 27.3639
11.8497 23.8001 41.8772
15.4214 18.7123 32.0492
15.7336 20.6648 30.0862
19.2966 27.1766 32.0681
13.3755 25.2549 40.8962
11.1129 16.849 27.8898
10.4184 16.5033 22.0841
4.1995 9.52407 25.6806
12.8182 20.5053 32.0302
12.2013 16.1753 23.8398
14.7394 24.072 37.1402
14.6462 18.8919 23.6806
10.5523 19.4448 33.8768
12.8053 25.1065 36.7944
10.8133 21.8934 37.3075
9.40994 18.4276 29.2301
8.22765 17.2871 34.8329
8.03193 12.4907 25.2681
9.97852 16.9139 32.2533
10.6725 14.4885 24.67
10.2024 17.4976 29.4056
6.77848 10.5794 23.4769
12.7115 19.1809 34.5403
10.1204 13.9079 23.4115
14.7262 27.4302 57.6481
27.4394 31.2764 26.0602
7.64498 20.563 36.216
7.18742 14.3178 28.1356
8.68735 13.8183 24.4142
10.1694 16.0777 30.2433
14.4868 26.7844 47.5546
10.6619 14.2354 18.7364
6.26968 16.3444 33.3595
7.5508 9.4666 21.6481
12.4112 17.957 28.3477
10.674 13.0823 16.9594
10.4969 18.7779 29.1913
8.65988 20.9648 43.8171
5.91082 6.90022 16.5976
10.8097 19.3469 37.1128
14.5651 20.6987 27.7072
10.1396 21.215 40.3567
11.9775 22.7019 34.6786
6.38592 17.2432 45.5697
14.2229 25.4338 50.9976
8.54238 9.40471 18.1608
5.75751 13.6563 44.6647
23.1502 34.1511 41.9632
8.5734 14.0508 21.9392
8.90831 18.1608 35.4717
10.0401 18.0384 32.6793
12.5163 17.772 29.9769
8.62422 12.207 19.9437
11.0673 19.9019 24.6447
7.23054 17.1769 33.9519
9.17563 15.3781 26.8544
4.62486 8.92865 27.5247
10.7368 14.7762 21.7422
9.60052 15.847 27.1997
10.9063 16.0554 24.4194
7.29005 14.9017 26.374
7.065 14.3016 29.7953
10.5657 17.8888 26.8066
8.30103 16.41 31.8319
8.95666 16.1306 26.9523
14.1854 34.6757 63.541
7.72846 9.42639 23.2394
12.4355 22.5698 39.3087
11.2319 22.7807 48.686
8.03047 15.1453 36.5452
9.88649 14.9101 32.4351
8.58247 13.277 26.2575
11.2053 19.9623 37.2389
11.058 19.6487 36.8462
11.3717 22.1033 37.7804
10.43 15.8818 26.6239
10.2142 17.1845 24.4462
8.32992 22.5371 48.5212
9.56616 16.5069 35.9562
8.77512 15.5184 25.8148
10.837 22.6282 40.1376
8.04646 15.8591 38.781
12.1934 17.8341 24.535
10.5168 26.0786 50.2794
7.23638 12.3381 27.3213
7.00852 12.6145 16.6438
4.21931 12.1263 30.2758
10.7042 19.4235 32.7633
5.00467 9.84909 21.9003
6.15284 16.7032 37.5644
6.14084 12.5959 39.2385
16.0329 23.8026 26.4619
5.33564 13.6412 33.3414
6.77965 8.71206 16.9555
5.25111 10.3687 24.8447
10.1918 26.2652 61.2991
13.3739 20.73 34.6624
8.92066 16.692 39.1047
11.1996 18.8801 31.3712
9.61041 17.2911 25.7702
5.54575 10.8333 19.9252
9.45697 24.5522 53.5668
8.77988 10.0008 14.7456
6.34523 15.4052 29.8401
5.52762 15.89 40.7146
12.7579 22.6065 36.5052
7.55066 17.8896 32.163
7.19367 19.7497 51.9655
9.96752 14.9257 30.3869
7.63325 14.8039 35.0616
11.6749 23.2347 28.5011
4.27527 14.5468 38.2915
9.10836 14.9929 27.4559
7.09129 15.1123 36.433
9.09682 20.1593 40.1694
8.32644 20.3003 44.2079
10.1927 19.2905 40.6724
9.92338 17.9451 34.366
5.08683 13.3257 34.9767
6.99035 12.558 36.3887
15.8214 28.0632 44.5509
7.19496 14.5437 32.2098
7.96894 13.4877 26.0186
6.8878 15.8219 29.7333
7.71546 16.7647 32.401
4.31615 7.95381 21.0565
6.17042 14.3605 26.9587
5.59651 12.7306 24.1614
3.70805 7.91288 22.0921
8.59824 19.55 36.7076
6.61678 15.0682 36.5585
7.2401 13.6101 32.8659
9.29299 21.1225 36.1626
6.02409 18.5516 52.7642
9.18451 15.7468 38.2905
12.4498 26.8517 55.5143
8.60695 16.0151 25.2957
3.22138 9.9897 30.6234
8.41867 12.4807 25.1663
9.38568 18.5771 35.8989
6.26516 11.6409 21.2178
3.59499 10.1814 30.3362
11.376 29.6672 70.2131
13.2927 32.4091 71.6868
8.84502 9.50996 19.335
5.62674 10.7629 22.3179
3.89314 6.43341 13.4962
2.68618 5.14925 14.0362
4.60992 11.2177 34.0426
7.939 14.5564 26.8175
4.55651 10.8516 26.7292
8.73392 13.8276 20.2242
5.19435 17.3378 44.373
8.33255 14.4838 35.4869
9.54975 20.678 48.118
9.76726 18.1929 33.2738
6.57707 16.9789 47.8391
9.01663 16.188 33.5002
7.12064 16.5786 33.2128
7.72321 16.3716 35.3217
6.68418 13.7409 34.6901
9.54727 23.3729 45.9256
5.99576 13.4849 37.9145
6.75319 12.0866 24.0038
4.63181 10.2672 28.6326
8.53841 18.73 40.3734
7.42039 19.6702 42.4057
7.67383 14.1981 32.162
5.44939 12.9724 37.8779
7.02076 10.7566 20.2942
5.63455 13.0648 25.6277
3.53674 8.25081 20.9
4.8209 10.7736 26.1516
3.92002 9.72963 26.5567
7.78794 16.4483 35.8386
7.9272 20.6284 40.1494
4.9399 10.479 34.6612
10.2968 22.9886 38.0655
1.7028 7.08285 33.7656
7.36964 19.0419 52.6744
9.36531 14.3154 28.4499
5.82364 13.6012 34.5276
6.53957 14.1137 29.7994
7.36197 13.8907 22.6402
4.19058 19.0004 65.3479
9.90396 14.2362 21.2499
3.08523 7.03217 28.6137
10.6976 19.4098 31.4278
6.96241 20.5778 40.581
5.02424 12.609 28.4809
2.97544 9.42519 33.3004
5.94016 12.0246 22.5438
4.05714 11.6596 34.4906
5.86569 10.9739 23.6671
4.51986 12.0004 34.6811
8.2682 18.2219 34.5188
3.94827 11.2176 31.8007
4.35249 11.8747 32.8188
6.1006 13.0339 27.6958
5.17557 17.7469 47.6056
6.90894 12.7422 30.1236
5.88025 12.8847 31.4863
6.73363 15.0836 29.5706
