# pn-170911/RbIIA-av-RbIIR-1280-1959.psd
# Power spectrum* (dif=0,1,2) (really just |FT|^2)
# NOTE: only the first half! (symmetric)
# weeks: 1280-1959
# 16909 clock-days, 4845 excluded
# PSD: 1441
7766.58 0.221965 0.0244282
537432 10.5453 0.0126468
1.79636e+06 35.0904 0.0134229
310356 9.48772 0.012856
194840 11.3505 0.0135023
95549.8 7.3557 0.0133201
63825.4 7.01129 0.0138504
44039.2 6.24139 0.0142893
35232.1 6.75534 0.0146006
26377.9 6.15406 0.014968
21731 6.44167 0.0153888
17559.2 5.94737 0.0161843
14738.5 5.97329 0.0168398
12212.2 5.8707 0.017393
10518.2 5.68919 0.0177777
9080.75 5.63904 0.0191378
7992.76 5.71608 0.019778
6940.52 5.61889 0.0205598
6143.1 5.41423 0.0212491
5348.49 5.29282 0.021687
4902.12 5.27656 0.0226731
4459.32 5.43245 0.0241179
4078.81 5.4031 0.024934
3669.82 5.26205 0.0257877
3507.55 5.3475 0.0274562
3194.48 5.39334 0.0286608
2932.28 5.40485 0.0300106
2685.5 5.327 0.0311318
2512.38 5.37119 0.0329638
2388.75 5.52302 0.0348756
2213.47 5.3603 0.0364809
2063.08 5.34553 0.0370537
1905.98 5.22554 0.0380843
1850.02 5.58066 0.0415467
1736.13 5.52842 0.0433835
1619.73 5.47834 0.044517
1519.94 5.37287 0.0456854
1498.5 5.64315 0.0494131
1405.25 5.51633 0.0508037
1345.6 5.51086 0.0523287
1278.18 5.60375 0.0553213
1216.42 5.58445 0.0572587
1168.23 5.7489 0.061248
1098.49 5.66298 0.0626662
1055.05 5.72573 0.0653023
1019.08 5.79685 0.069311
997.008 5.90638 0.072805
948.099 5.8946 0.074716
918.842 6.00948 0.0784272
881.37 5.99201 0.0821371
827.9 5.95895 0.0832381
831.562 6.22638 0.0895904
798.714 6.17949 0.0918918
765.952 6.23387 0.0960613
749.211 6.37983 0.101757
714.374 6.28669 0.103492
689.599 6.35298 0.108273
686.462 6.4577 0.11355
647.684 6.37343 0.11573
641.785 6.69943 0.124182
614.114 6.50965 0.124163
609.139 6.69851 0.130542
593.717 6.79267 0.137365
572.909 6.81615 0.142615
564.893 6.9013 0.147055
551.851 6.97899 0.154264
536.08 6.94923 0.156841
520.893 7.07172 0.16478
508.51 7.16378 0.169396
505.364 7.47 0.18263
489.647 7.16102 0.180521
475.329 7.35409 0.189387
469.523 7.4397 0.196512
455.682 7.48354 0.201675
446.328 7.48817 0.2084
438.876 7.70228 0.220501
432.032 7.75424 0.226611
427.133 7.90778 0.2354
410.959 7.76463 0.238701
399.502 7.74363 0.242429
392.781 8.00635 0.257997
389.263 8.13581 0.267502
385.913 8.34205 0.27854
378.745 8.28856 0.286475
371.084 8.38237 0.295241
364.21 8.3674 0.300639
353.501 8.40494 0.311425
348.51 8.52756 0.317892
347.437 8.70178 0.331705
347.541 8.97667 0.350218
331.643 8.81557 0.351815
329.93 8.97172 0.365032
321.834 8.97057 0.374703
319.962 9.13828 0.38679
307.438 8.91487 0.386195
309.96 9.30497 0.410078
310.185 9.55241 0.429774
294.085 9.17248 0.423208
295.493 9.49995 0.44577
291.436 9.56258 0.457331
291.687 9.75974 0.476899
283.186 9.62814 0.478144
285.589 9.96757 0.500988
273.374 9.75984 0.505116
275.158 10.1037 0.530112
267.535 9.85634 0.529285
266.905 10.1599 0.554042
264.9 10.1832 0.566871
258.667 10.2434 0.581065
257.404 10.4146 0.601021
250.26 10.349 0.606107
249.256 10.3803 0.620036
244.738 10.6769 0.648785
243.276 10.7307 0.664071
244.66 10.9451 0.688361
243.643 11.0924 0.71137
237.997 11.0766 0.719318
235.706 11.3382 0.746457
230.001 11.1584 0.747492
229.402 11.2425 0.768149
225.975 11.1875 0.776038
224.52 11.5918 0.821796
221.885 11.5938 0.830378
216.024 11.5268 0.836431
218.882 11.8326 0.877014
215.579 11.9725 0.90529
212.993 11.877 0.903993
206.733 11.6979 0.907838
210.551 12.1568 0.950921
203.145 11.9642 0.953779
198.377 11.7973 0.958444
201.547 12.2647 1.00952
198.638 12.4894 1.03995
197.795 12.4287 1.05693
193.078 12.399 1.0676
192.233 12.4926 1.08548
190.03 12.6228 1.11466
189.926 12.7253 1.1474
186.244 12.7444 1.16545
186.416 12.8677 1.18713
182.716 12.9616 1.21439
183.765 13.2 1.24819
178.738 13.1613 1.26323
176.466 13.1081 1.28359
179.585 13.371 1.31821
177.413 13.5456 1.35981
171.847 13.1674 1.3367
174.142 13.5984 1.40777
170.064 13.5539 1.41698
169.134 13.5689 1.43415
170.294 14.0672 1.50434
168.743 14.0731 1.52888
163.61 13.9011 1.52775
164.846 14.1421 1.5845
164.148 14.2948 1.61126
164.78 14.7228 1.68387
160.262 14.3706 1.66599
157.588 14.2063 1.65897
157.169 14.3603 1.69764
160.104 14.9883 1.80242
155.291 14.7741 1.80336
149.938 14.2864 1.7611
150.763 14.6581 1.82948
153.138 14.9876 1.88558
148.316 14.8249 1.89848
146.694 14.7874 1.91515
149.69 15.3512 2.00921
147.435 15.2283 2.01511
147.007 15.5024 2.07443
141.769 14.9453 2.02821
142.154 15.1949 2.06679
141.84 15.4381 2.14683
140.783 15.5057 2.16764
139.662 15.6025 2.22122
139.323 15.6267 2.24776
135.518 15.5963 2.26055
139.713 16.2326 2.37687
134.519 15.8004 2.34719
132.207 15.7981 2.37226
135.813 16.4508 2.48071
130.342 15.8809 2.44236
130.969 15.8799 2.45368
128.858 15.8893 2.49309
130.278 16.4557 2.60595
126.059 15.9249 2.55324
126.245 16.2783 2.62458
124.928 16.3114 2.66197
126.806 16.7753 2.76484
124.814 16.8618 2.83144
126.799 17.0941 2.8788
124.836 16.859 2.86582
122.431 16.9032 2.9147
120.406 16.9962 2.97308
122.311 17.1389 2.99728
120.528 17.2194 3.04765
119.135 17.2697 3.09322
119.75 17.3572 3.12486
116.802 17.1541 3.12447
116.298 17.65 3.26951
114.574 17.0683 3.18728
117.484 17.9182 3.38201
112.564 17.3524 3.3014
114.303 17.8169 3.44345
109.829 17.173 3.32325
112.53 17.7444 3.46675
110.646 17.883 3.52849
111.602 18.0766 3.62112
111.218 18.28 3.67558
110.508 18.0729 3.65919
107.523 18.0693 3.71877
106.081 17.8614 3.68777
105.609 17.9426 3.7511
106.7 18.1929 3.83332
106.649 18.6303 3.96834
104.425 18.4074 3.96638
106.773 18.936 4.09954
101.366 18.0032 3.92044
100.62 18.2368 4.04895
100.531 18.3093 4.08738
100.221 18.445 4.13517
100.787 18.7768 4.27379
99.125 18.5482 4.26814
100.749 18.8829 4.33498
98.0045 18.5706 4.33058
99.1408 19.186 4.51544
97.3232 18.8475 4.46131
95.6288 18.6715 4.4726
95.463 18.92 4.54862
94.3176 18.9712 4.62592
96.096 19.3237 4.70757
93.7771 19.0139 4.70311
95.0266 19.6752 4.91189
93.7528 19.4605 4.89764
93.4233 19.5443 4.97432
89.7819 18.8819 4.83714
92.758 19.8547 5.10822
90.4738 19.2422 4.99099
90.4612 19.6227 5.17043
87.9976 19.2864 5.11108
91.6394 20.2478 5.37982
89.8905 19.9858 5.36612
88.1256 19.6914 5.33704
85.8977 19.5201 5.35035
86.192 19.4235 5.32564
86.8768 19.9378 5.50581
87.6191 20.4751 5.74401
85.9662 20.2963 5.7323
84.6251 19.8509 5.65026
84.8679 20.4432 5.87484
85.5014 20.5026 5.91188
83.7329 20.3746 5.95183
84.1583 20.6472 6.07542
83.1496 20.3722 6.03995
83.7823 20.6503 6.11985
81.6831 20.409 6.11236
83.8952 20.9143 6.31651
80.1759 20.4585 6.24846
82.8953 21.3885 6.57111
80.6303 20.725 6.37538
80.2877 21.1034 6.61139
78.5536 20.5228 6.46763
80.7522 21.3385 6.78301
79.3832 21.0643 6.68475
76.4612 20.4955 6.57334
78.2896 21.0481 6.79941
76.1091 20.6673 6.74295
76.6575 21.07 6.90187
74.8143 20.8668 6.91069
75.28 21.198 7.07221
74.306 20.6129 6.9034
72.8289 20.4611 6.93889
75.1398 21.2442 7.17317
73.0477 21.0953 7.27014
73.4268 21.1568 7.29255
73.3129 21.3893 7.47177
71.4474 20.8895 7.31598
69.984 20.6153 7.33269
71.3883 20.8195 7.32604
69.6269 20.8792 7.51198
71.5828 21.502 7.71385
71.3088 21.4816 7.75702
69.6505 21.2527 7.78165
70.5831 21.6833 7.98172
70.4298 21.816 8.03566
67.3872 20.9798 7.87252
68.1688 21.4186 8.05011
67.6554 21.3571 8.05552
67.6945 21.6962 8.24755
68.0772 21.7633 8.30065
66.7257 21.6255 8.36988
67.1013 21.5932 8.3105
66.2154 21.6632 8.45217
65.8786 21.9083 8.61534
65.9381 21.8474 8.57476
64.9797 21.9473 8.83926
63.8247 21.5256 8.66405
65.0377 21.9769 8.85959
64.6833 22.0052 8.88897
62.1721 21.4505 8.82134
64.3576 22.4148 9.19573
62.8809 21.7951 9.0558
63.8775 22.519 9.36271
61.7914 21.717 9.13984
63.5998 22.5009 9.48868
62.8909 22.41 9.46218
61.9095 22.4032 9.62987
60.8601 22.069 9.4317
60.4885 22.0958 9.64516
61.1 22.2071 9.59013
59.676 22.2488 9.82278
60.5097 22.2987 9.7742
59.4381 22.2827 9.90985
60.9911 22.8473 10.1342
58.0932 22.0727 10.0043
59.5294 22.5872 10.1969
57.5527 21.8712 9.89923
58.817 22.7527 10.4592
57.5771 22.3356 10.2346
58.188 22.7407 10.5429
57.0355 22.5956 10.4809
55.364 21.8512 10.3365
56.9288 22.5636 10.5733
55.1442 21.9818 10.4954
56.2062 22.6807 10.8073
54.6039 22.0453 10.5739
55.8952 22.8259 10.9902
55.4046 22.7191 11.0011
54.738 22.8896 11.2763
55.931 23.2169 11.302
53.0904 22.5065 11.2203
53.5984 22.2025 11.0125
52.6772 22.1332 11.1345
53.5531 22.5728 11.3036
52.1563 22.4317 11.4256
51.966 22.1532 11.2295
52.0078 22.3762 11.4884
53.0123 23.2393 11.9094
51.6666 22.3062 11.5421
52.243 22.9266 11.8715
50.447 22.2489 11.6619
52.2682 23.3969 12.3001
50.0172 22.2214 11.7634
50.3861 22.7575 12.1181
50.9586 23.0232 12.2339
47.6361 21.5538 11.7199
49.1752 22.3741 12.068
49.8664 23.0465 12.4782
49.396 22.6273 12.3639
48.5739 22.6049 12.4854
48.6863 22.8639 12.7273
48.2944 22.6406 12.6129
49.0523 23.2259 12.9327
48.1724 23.2454 13.17
48.5119 23.2672 13.1354
47.4804 22.6654 12.7742
46.5714 22.5716 13.0467
47.6987 23.0781 13.1458
46.9457 23.1171 13.3758
45.9426 22.4853 13.0459
46.1003 22.7518 13.3273
46.2713 23.0287 13.5053
46.6566 23.2224 13.675
46.2323 23.2918 13.7824
45.6783 22.7599 13.4828
46.0874 23.4935 14.1253
45.4782 22.8665 13.6673
44.25 22.7546 13.8398
44.4248 23.1243 14.0863
43.462 22.5337 13.8297
44.8741 23.2556 14.2252
43.2198 22.7036 14.0852
44.8693 23.6436 14.7138
44.0205 23.1954 14.4897
43.9776 23.407 14.623
43.3276 23.3403 14.7844
43.6738 23.7789 15.1081
43.4237 23.1856 14.7107
42.0702 22.9396 14.7946
41.5688 22.5271 14.5162
42.5659 23.1951 14.9023
41.5519 22.9543 14.9293
41.4009 22.8673 14.8662
40.8164 22.3831 14.6227
41.1914 23.2199 15.2759
40.4776 22.7075 15.0773
40.0026 22.4443 14.9246
40.2072 22.8199 15.4105
41.2612 23.428 15.6071
41.2619 23.5866 15.9439
39.74 22.6109 15.414
40.3425 23.4156 16.0362
40.4314 23.4861 16.0682
39.2443 22.6203 15.6674
39.2274 22.7932 15.6939
38.2443 22.8391 16.0555
39.1962 22.9947 15.931
39.1382 23.182 16.0969
38.8028 23.2158 16.324
38.4474 22.8542 16.1771
37.9089 22.9072 16.2916
37.2625 22.7283 16.407
38.2925 23.5191 16.924
37.6372 22.8246 16.3929
37.1593 22.8622 16.6438
36.7694 22.4979 16.4503
37.0623 23.1856 17.058
36.7701 22.6123 16.5363
37.2945 23.1552 17.0641
37.2282 23.6012 17.6113
37.3229 23.7879 17.6587
36.1775 22.7505 16.9381
35.6457 22.6089 16.9445
35.2487 22.566 17.2558
35.413 22.5387 17.0194
35.654 23.0416 17.6571
34.917 22.7279 17.4291
35.3487 22.8955 17.6174
35.3681 23.0273 17.7285
34.8191 22.7906 17.6213
34.3434 22.8982 18.0027
35.7749 23.6611 18.4762
34.6681 23.1877 18.3017
35.0797 23.5291 18.4101
34.7351 23.5332 18.8224
34.2534 22.9717 18.2278
33.9 23.0053 18.428
33.7081 22.8713 18.332
33.5313 22.9977 18.6697
33.894 23.2129 18.8729
33.7138 23.1558 18.7616
33.5202 23.0728 18.7348
32.6877 22.704 18.6587
33.122 23.1569 19.1957
32.2554 22.4561 18.6052
32.2137 22.3968 18.4661
31.7471 22.5559 18.9454
32.537 23.1576 19.3289
31.9266 22.8077 19.3607
32.4721 23.0309 19.3138
31.2034 22.399 19.089
31.6588 23.0897 19.8863
31.9195 23.0597 19.5753
31.0659 22.5008 19.364
30.672 22.4931 19.5075
30.815 22.9769 20.1248
31.0121 22.6546 19.6181
31.0939 23.1065 20.0733
30.4527 22.6036 19.9193
30.7476 23.2744 20.6256
30.3375 22.8291 20.2655
30.4786 22.8044 20.2006
30.1024 22.9474 20.4772
29.9704 22.6596 20.1471
29.6511 22.7069 20.5334
29.1785 22.1965 20.1763
29.8255 22.7698 20.5261
28.7041 22.1382 20.3412
29.4474 22.6425 20.6153
29.3869 22.9987 21.1349
28.9828 22.7429 20.9094
28.9309 22.8309 21.2597
29.3006 23.3422 21.8064
29.3071 23.0261 21.5195
28.9597 22.7159 21.1429
28.6866 22.7499 21.5369
28.5693 22.8001 21.3496
28.0285 22.7517 21.8392
28.752 23.4041 22.2285
28.0707 22.7932 21.7705
28.6323 23.2643 22.4013
28.0208 22.7365 21.8093
27.5089 22.4119 21.8458
27.8273 22.6633 21.7752
26.9225 22.2518 22.0054
27.816 22.7418 22.039
27.001 22.4993 22.1602
27.506 22.8473 22.2348
26.6888 22.5013 22.3689
27.5561 23.082 22.6664
26.2167 22.1113 22.148
26.4255 22.6919 22.8671
26.7583 22.6126 22.7595
27.1724 23.0502 23.1597
26.4948 22.7173 22.8417
26.3603 23.059 23.8332
26.6644 22.9104 23.1782
26.0429 22.5382 23.1783
26.2838 22.8255 23.271
26.1535 22.983 23.889
26.2064 22.8675 23.3876
25.9463 23.1388 24.1438
25.4642 22.3265 23.2231
25.3913 22.83 24.0913
25.484 22.3473 23.211
24.6632 22.0684 23.3247
24.9026 22.374 23.9059
25.1898 22.3467 23.7496
24.4543 22.3038 24.0865
24.8162 21.9722 23.3749
24.6337 22.3586 23.9433
25.0628 22.6861 24.211
24.8899 22.8896 24.637
23.8336 21.8175 23.7316
23.9645 21.8417 23.8001
24.2707 22.2267 24.0765
24.1777 22.5683 24.7949
24.1 22.2312 24.4123
23.9473 22.3993 24.7555
23.8357 22.2561 24.6848
23.847 22.6145 25.1315
23.8404 22.6115 25.1293
23.4269 22.3994 25.1133
23.6942 22.4975 25.5252
24.1172 22.8612 25.6352
23.4197 22.161 25.0588
23.7228 22.8278 25.9534
22.869 21.9207 24.9748
23.1728 22.5533 25.8241
23.1105 22.3785 25.7457
22.7817 21.9884 25.1426
22.6667 22.3423 25.8678
22.9263 22.4564 26.1494
22.5899 22.0344 25.5021
22.7558 22.2375 25.8154
22.2603 22.1279 26.2342
22.1813 21.894 25.5569
22.1166 22.0279 25.9703
21.834 21.7032 25.6263
21.9991 22.2903 26.7717
21.9865 21.9403 25.9638
20.9862 21.1551 25.3766
21.6348 22.1176 26.7778
22.0322 22.5186 27.2876
22.1786 22.1153 26.4155
21.3797 22.0728 26.7436
21.6738 22.2983 27.3095
21.693 22.1774 26.8219
21.099 21.8296 26.7874
21.1309 21.8813 27.1218
21.5342 22.1857 27.2788
21.139 21.9078 27.1351
21.344 22.3554 27.5655
21.2101 22.0293 27.344
20.8847 21.7342 26.9836
20.6821 21.8092 27.3324
20.7198 21.8811 27.3625
20.806 22.018 27.6609
20.529 21.6688 27.2674
20.1599 21.499 27.3083
20.2269 21.6082 27.4459
20.5701 22.0564 27.9199
20.064 21.4904 27.4054
20.0833 21.625 27.5865
19.6688 21.2662 27.6336
20.2767 22.2604 28.8581
19.7724 21.4324 27.9272
19.2317 20.8243 27.302
19.6879 21.5159 27.9913
19.8707 21.9193 28.6095
19.8131 21.8597 28.5629
19.2945 21.411 28.2742
19.9443 22.3157 29.3366
19.2678 21.5528 28.5874
19.4455 21.6913 28.8508
19.4266 21.8569 29.1811
19.5772 21.796 29.0187
19.3673 21.8826 29.1674
18.8975 21.6165 29.6773
19.186 21.6158 28.8623
18.8439 21.1858 28.8365
19.5775 22.1935 29.894
18.9411 21.6462 29.7321
19.2099 21.7966 29.416
18.4183 21.0998 28.8788
18.773 21.9185 30.2559
18.4982 21.4816 29.8462
18.7515 21.7053 30.0385
18.9969 22.2939 30.6479
18.5211 21.5837 30.2192
18.4294 21.6381 30.1149
18.3634 21.6495 30.5336
18.6815 21.9307 30.5781
17.7199 20.7915 29.4384
18.2227 21.2135 29.7806
17.6845 20.8903 29.381
17.842 21.4776 30.6345
17.9691 21.3865 30.5331
17.932 21.4562 30.4676
18.257 21.9968 31.1997
17.6888 21.5017 31.1692
17.632 21.1643 30.8426
17.6967 21.1398 30.1758
17.3114 21.0283 30.6673
17.3756 21.0813 30.6061
16.8563 20.5405 29.9438
16.8905 20.548 30.0959
17.2087 21.0264 30.9681
17.0138 20.7064 30.2845
17.022 21.1006 31.0505
16.6859 20.839 31.0618
16.9 20.746 30.8257
16.6794 20.2986 30.306
16.9958 21.3917 31.5168
16.5657 20.956 31.6373
16.9076 20.8851 31.3799
16.8321 20.8603 30.9777
16.4378 20.7318 31.617
16.6741 20.9638 31.3931
16.3768 20.9286 31.931
16.4254 20.7473 31.6969
16.5644 20.5354 30.919
16.4776 21.1352 32.3098
16.1698 20.5903 31.5751
16.192 20.9487 32.388
15.8411 20.1108 30.7808
15.7004 20.1775 31.2108
15.8452 20.4153 31.5114
15.7917 20.6301 32.1511
15.8326 20.5822 32.0222
15.7694 20.4108 31.9675
15.5387 20.2721 31.9812
15.9168 20.6217 32.1643
15.9239 21.0056 33.114
15.7859 20.8751 32.8565
15.3547 20.2186 32.4972
15.8615 21.0726 32.9561
15.6406 20.919 33.3818
15.4092 20.4206 32.6916
15.3019 20.3506 32.9417
15.5495 20.6563 33.1495
15.3748 20.3146 32.5687
15.146 20.5552 33.6542
15.2793 20.4792 33.2928
15.2291 20.4518 33.1243
15.1482 20.3756 32.9759
14.9505 20.3987 33.1149
15.2346 20.9972 34.7065
15.2092 20.4048 33.0241
14.9676 20.3332 33.3041
14.6575 20.174 33.9779
15.0784 20.4536 33.2151
14.5633 20.4301 34.3588
15.124 20.886 34.7322
14.9682 20.7109 34.1084
14.657 20.4174 34.263
14.5502 20.2534 34.242
14.8089 20.6029 34.3914
14.6282 20.2753 33.6933
14.1723 20.0189 33.8314
14.1585 19.9818 33.7891
14.1087 19.9825 33.9093
14.1574 20.2635 34.5905
14.3905 20.4892 34.915
14.4205 20.6646 35.042
14.3994 20.6961 35.3699
14.3625 20.4615 35.0031
13.9298 19.8512 34.3488
13.8987 19.7326 33.9752
14.0943 20.5157 35.4083
13.9542 20.123 35.2632
13.9608 20.0714 34.7776
13.9322 19.9311 34.1989
13.6309 19.728 34.8187
13.8368 19.9555 34.9352
13.5267 19.6974 34.5869
13.7086 19.8874 34.9764
13.6395 20.0785 35.5448
13.6968 19.9868 35.1847
13.4905 20.0122 35.6388
13.7159 20.5149 36.6555
13.6562 19.7955 35.0669
13.423 19.9458 35.796
13.3876 19.5293 34.7262
13.5151 20.3498 35.9182
13.2979 20.1503 36.5708
13.2557 19.4677 35.2236
13.1807 19.9318 36.2541
12.9857 19.3728 35.454
13.1186 19.6817 35.6545
13.0387 19.702 35.8798
12.965 19.5968 36.0856
12.9212 19.3973 35.788
13.2221 19.7113 35.5132
12.8684 19.8508 36.3274
12.7203 19.498 36.2583
12.9336 19.4737 35.5014
12.6586 19.7318 37.0547
13.0633 19.6835 36.2625
12.4033 18.9285 35.5367
12.605 19.3978 36.1885
12.484 18.9441 35.6083
12.4669 19.3299 36.2951
12.4747 19.4647 36.4579
12.3286 19.2663 36.9086
12.6416 19.4432 36.56
12.5752 19.3178 36.0479
12.4031 19.5169 37.1041
12.3471 19.3424 37.0074
12.4767 19.4552 36.4647
12.2624 19.5755 37.6127
12.0958 18.895 36.7166
12.2782 19.201 36.2554
12.2317 19.542 37.3889
12.3498 19.7776 38.0718
12.2951 19.7413 38.1292
12.3399 19.7818 38.0735
12.0762 19.3876 37.3352
12.0238 19.6523 38.2625
11.9572 19.1183 37.0837
11.8671 19.1245 37.2557
11.7884 19.0973 37.3977
11.8455 19.5299 38.7588
12.1731 19.5594 37.9924
11.9993 19.6332 38.641
11.7651 19.0058 37.563
11.7778 19.2353 38.3833
11.7065 19.1569 38.2048
11.8558 19.5163 38.4393
11.6906 19.2136 38.3254
11.8144 19.3256 38.5902
11.7193 19.3415 38.3101
11.3492 18.7234 37.8657
11.6774 19.3726 39.07
11.6674 19.2654 38.7132
11.5953 19.136 37.9446
11.1603 18.6497 37.9105
11.4947 19.5245 39.3294
11.4058 19.4057 39.2599
11.3803 19.0688 39.0619
11.3026 18.7297 38.2264
11.3883 19.3938 39.7072
11.3594 19.0483 38.8296
11.2611 19.2667 39.7555
11.0846 18.464 37.8064
10.8594 18.6975 39.0522
11.0692 18.7072 39.005
11.4429 19.5746 40.2089
10.9274 18.5299 38.8804
11.0983 18.7823 38.8815
11.0281 18.9087 39.0483
10.8022 18.4514 38.7575
10.8227 18.5021 38.7313
10.6782 18.0033 37.5457
10.6207 18.3972 38.7111
10.5623 17.9964 37.5303
10.4111 18.0014 38.306
10.735 18.9411 40.676
11.126 18.9993 39.227
10.5468 18.4968 39.5254
10.567 18.293 39.3706
10.7982 18.893 39.6599
10.4294 18.1774 39.113
10.5948 18.5995 40.0212
10.5876 18.1849 38.5468
10.4839 18.5061 39.6028
10.6193 18.9117 40.1495
10.3108 18.2727 39.5351
10.4375 18.9417 40.5637
10.1463 17.9371 39.2607
10.1745 18.135 39.9626
10.4435 18.4663 40.4534
10.5051 18.2677 39.2894
10.1817 18.293 39.9509
10.134 17.8814 39.0402
10.1205 17.9523 39.4464
10.13 18.36 40.9154
10.1976 18.0459 39.7206
10.257 18.4415 39.9062
10.1708 18.5029 40.8594
10.0977 18.2564 39.9468
10.1589 18.6682 41.5021
10.0637 18.1591 40.4036
9.97149 18.3973 41.2245
10.0538 18.0447 40.0066
9.85658 18.0537 40.3355
9.74957 17.6073 39.256
9.64543 17.8124 40.6871
9.90643 17.7733 39.6117
9.92374 18.2994 40.8277
9.69301 17.8419 40.6092
9.89264 18.2458 41.3021
9.98207 18.4461 40.8613
9.63088 18.2257 42.1785
9.76476 17.8775 40.5553
9.61729 17.8473 40.9115
9.65522 17.8263 40.5068
9.64939 18.1788 41.6206
9.63235 17.733 40.765
9.6139 18.0456 41.7166
9.61346 17.957 41.165
9.50441 17.6532 40.5419
9.45841 17.7446 40.8626
9.33401 17.7025 41.2912
9.63384 17.9879 41.0176
9.3318 17.6902 41.7669
9.59839 18.1045 41.6789
9.35135 17.8144 41.8236
9.38585 17.8437 41.5554
9.27818 17.5407 41.1954
9.32499 17.6575 41.3082
9.22836 17.5795 41.1121
9.1133 17.2522 40.6903
9.20713 17.719 41.7519
9.19227 17.2639 40.4907
9.0583 17.3034 40.9943
9.18715 17.6459 42.0953
9.18847 17.3069 40.4179
9.00812 17.6838 41.997
8.90067 17.1901 41.8359
9.25838 17.9337 42.1591
8.87399 17.022 40.7793
9.06975 17.7549 42.5838
9.03614 17.3326 41.4331
9.03494 17.6106 42.1043
8.93583 17.2661 41.5575
8.87161 17.4217 42.2885
8.96568 17.3607 41.7936
8.85339 17.3301 41.8126
8.83491 17.528 42.5511
8.84599 17.5992 42.7002
8.93424 17.4549 42.4082
8.82641 17.4422 42.7048
8.8293 17.4634 43.0851
8.88661 17.6279 43.0517
8.74051 17.1492 42.4455
8.68873 17.1447 41.7693
8.71301 17.4537 42.5872
8.78181 17.4247 42.6622
8.64406 17.234 42.8897
8.73275 17.2701 42.1395
