# pn-170911/RbIIR-61-RbIIA-1280-1959.psd
# Power spectrum* (dif=0,1,2) (really just |FT|^2)
# NOTE: only the first half! (symmetric)
# weeks: 1280-1959
# 4014 clock-days, 60 excluded
# PSD: 1441
6975.4 0.223771 0.0280903
532161 10.7558 0.0159882
1.67467e+06 31.491 0.0164767
321592 10.3837 0.016239
189419 10.8354 0.0167303
98033.1 7.35576 0.0165949
66952.7 7.66374 0.0173181
44452.4 6.73932 0.0174148
35148.6 6.73562 0.0177057
26418.9 6.46934 0.0184561
22180.6 6.42398 0.0189231
17790.3 6.14688 0.0191712
14716 6.12451 0.0197569
12289.6 5.96092 0.020698
10788.8 6.25676 0.021656
9159.6 5.87823 0.0228301
8232.35 5.94779 0.0227649
7272.15 6.07544 0.0244416
6484.37 5.94893 0.0252559
5501.33 5.66783 0.0252703
5287.03 6.0284 0.0265652
4724.67 5.99225 0.028772
4334.2 6.06696 0.0300348
3870.72 5.7806 0.0302449
3689.07 5.97712 0.0325555
3350.05 5.96813 0.0339341
3008.16 5.70786 0.03409
2786.64 5.86305 0.0361204
2714.48 6.07623 0.0386249
2484.56 6.03029 0.0401416
2364.81 6.01852 0.0419963
2226.67 6.03942 0.0440435
2064.28 6.07459 0.0450842
1940.79 6.25785 0.0473505
1836.04 6.06934 0.0499095
1741.61 6.11687 0.0524247
1633.82 6.16172 0.0526031
1590.42 6.30298 0.0577586
1476.09 6.15433 0.0578193
1417.2 6.18438 0.0602512
1341.42 6.19694 0.0629682
1285.61 6.3628 0.0679659
1224.92 6.43046 0.0698896
1217.82 6.46985 0.0739038
1127.15 6.36598 0.0740994
1088.74 6.40096 0.0781942
1045.78 6.55282 0.082183
1010.44 6.61552 0.0859588
1002.71 6.79979 0.0899558
931.603 6.67898 0.0929383
882.708 6.7447 0.0963844
878.352 6.7714 0.0997621
843.592 6.79086 0.103273
819.508 6.92823 0.108864
791.711 7.01891 0.114931
771.495 7.1335 0.118136
743.628 7.14076 0.121657
727.798 7.22458 0.128347
689.544 7.15648 0.132491
680.339 7.44297 0.139649
659.344 7.2947 0.140796
658.022 7.47727 0.147446
612.962 7.27527 0.149564
604.947 7.44426 0.156231
590.872 7.47071 0.162311
574.775 7.67764 0.171785
570.694 7.67743 0.175416
554.554 7.71883 0.180836
529.111 7.77132 0.186354
544.088 8.29737 0.206135
520.399 7.85434 0.199663
510.881 8.1096 0.212875
498.233 8.27849 0.221783
483.597 8.11321 0.221409
472.214 8.0198 0.226039
477.749 8.64737 0.248965
459.74 8.49476 0.248531
447.227 8.62401 0.25839
427.757 8.39611 0.262347
424.466 8.40856 0.265582
419.716 8.79069 0.284355
415.263 8.78828 0.288112
408.85 8.9572 0.302528
396.25 8.87186 0.308948
389.602 9.08865 0.322392
390.329 9.14946 0.332271
380.72 9.2573 0.343912
366.099 9.24407 0.345539
369.233 9.47841 0.36687
357.463 9.60173 0.377515
353.361 9.62758 0.387419
354.089 9.87885 0.403902
336.616 9.54463 0.401554
341.761 10.05 0.429057
329.894 9.81861 0.42733
332.822 10.1487 0.449901
329.139 10.3742 0.4692
312.049 9.9848 0.462402
316.089 10.2932 0.485965
303.054 10.1132 0.488081
296.139 10.0583 0.493959
301.541 10.496 0.519579
295.384 10.4521 0.530607
289.718 10.5504 0.54643
294.319 10.8374 0.571764
283.135 10.5655 0.570278
283.246 10.8971 0.599273
277.701 10.9076 0.610065
272.618 11.0571 0.62824
270.74 11.2605 0.652256
265.658 11.119 0.654857
261.431 11.2229 0.671719
254.595 11.3838 0.695639
255.228 11.567 0.720419
260.906 11.8105 0.746569
251.943 11.7315 0.759026
251.576 11.8484 0.772577
246.018 11.9137 0.787639
238.823 11.8438 0.794024
244.277 12.1579 0.828585
235.799 11.9099 0.826325
238.524 12.5007 0.888795
235.978 12.4855 0.898425
227.873 12.2259 0.889861
230.804 12.5447 0.931193
223.149 12.7106 0.962301
219.15 12.4948 0.950636
217.749 12.4746 0.970825
217.017 12.6048 0.987862
214.851 12.842 1.02475
207.641 12.5168 1.02127
210.658 13.2806 1.09436
205.687 13.1393 1.09944
205.89 13.0937 1.11591
206.216 13.2278 1.14304
195.784 13.1311 1.14609
198.709 13.4805 1.19216
202.491 13.4411 1.21787
195.812 13.4615 1.2278
197.047 13.6816 1.2638
191.622 13.8316 1.3002
190.252 14.1014 1.33426
188.296 14.208 1.36968
180.97 13.7972 1.35834
183.872 13.9004 1.37014
187.412 14.3879 1.44674
183.068 14.1878 1.44741
185.483 14.6262 1.51361
178.074 14.4549 1.51512
178.596 14.3721 1.52135
178.005 15.1062 1.61756
177.446 15.0514 1.6395
168.624 14.6409 1.61108
174.474 15.3128 1.71737
169.011 14.9736 1.69162
165.76 15.1401 1.73558
168.357 15.2362 1.76553
161.606 14.9827 1.75176
166.492 15.4744 1.84056
164.743 15.928 1.91541
165.02 15.8996 1.94143
157.529 15.2003 1.87349
156.731 15.4231 1.92263
159.07 15.7505 1.98719
157.528 16.0295 2.05674
158.341 16.0111 2.06652
150.254 15.7824 2.06006
152.65 15.9895 2.12667
154.354 16.5136 2.21272
150.714 15.9779 2.16831
146.089 15.9401 2.17174
147.96 16.4936 2.29346
147.873 16.4981 2.3121
148.525 16.865 2.39991
146.243 16.6088 2.3875
143.69 16.6257 2.41132
144.616 17.177 2.51604
141.735 16.7429 2.48502
138.614 16.5599 2.49896
142.06 17.3416 2.61797
136.194 16.7585 2.58302
138.123 17.1356 2.64224
136.684 17.0357 2.68472
137.318 17.6294 2.80508
131.207 16.9046 2.70703
132.817 17.3166 2.80038
131.088 17.1926 2.80374
129.773 17.3315 2.85342
133.049 17.9256 3.00093
129.843 17.6332 2.97232
130.888 17.8841 3.03811
130.038 18.3139 3.15325
126.695 18.0108 3.14429
126.039 18.0587 3.15765
125.79 18.0464 3.20376
126.76 18.5157 3.30887
125.071 18.1545 3.27327
122.018 18.1956 3.32745
124.439 18.9215 3.49925
119.162 17.7477 3.32507
121.744 18.6032 3.51457
118.093 18.2319 3.47425
119.964 18.6714 3.61169
113.317 17.9746 3.47476
117.195 18.4338 3.61901
113.286 18.5713 3.66543
117.281 19.2356 3.84568
113.504 19.0841 3.83094
116.595 19.2711 3.89768
112.745 19.0192 3.92334
108.934 18.6995 3.86681
109.884 19.1149 3.99829
110.771 19.1964 4.0439
111.393 19.7097 4.18687
107.62 19.3385 4.17198
109.197 19.6265 4.24488
103.813 18.7111 4.08801
103.778 19.1506 4.26822
107.685 19.9772 4.44236
105.153 19.6518 4.40797
107.452 20.1656 4.58047
101.014 19.2508 4.44324
105.733 19.866 4.54791
104.097 19.8121 4.63104
104.17 20.2143 4.74928
102.554 19.9192 4.73505
100.426 19.8939 4.76279
100.171 20.0871 4.82063
99.9164 20.2491 4.9682
100.805 20.539 5.00776
98.4275 20.1504 4.96898
99.3039 20.7675 5.17233
98.3058 20.7582 5.23548
97.7314 20.7044 5.25391
94.791 20.1953 5.17406
96.9305 20.9899 5.40718
96.6402 20.6777 5.37206
94.7552 20.911 5.50329
92.6865 20.4295 5.40625
95.2045 21.1592 5.6459
94.8009 21.4055 5.74095
91.4255 20.6442 5.59538
91.6832 21.1297 5.77863
91.223 20.6313 5.65756
90.7533 21.0013 5.82044
93.375 21.8421 6.12078
89.3505 21.2939 6.02635
88.0387 20.6699 5.91844
88.8976 21.9067 6.25585
87.4924 21.3015 6.15552
85.9881 20.96 6.12047
86.9252 21.4728 6.33061
87.6266 21.5856 6.38994
88.1139 22.0942 6.57439
85.0419 21.4215 6.42662
88.5791 22.106 6.66016
84.2785 21.6088 6.59642
87.6193 22.6942 6.97731
84.7891 22.02 6.77357
85.8627 22.8561 7.14622
82.689 21.756 6.85567
85.3432 22.8469 7.25587
81.9025 22.0091 6.9904
79.408 21.3961 6.84384
80.6603 21.9922 7.10868
79.7054 21.9711 7.14343
79.457 22.0559 7.25569
79.4996 22.263 7.37075
80.1613 22.5686 7.53173
78.0989 21.5943 7.22149
77.402 22.1922 7.52828
78.4384 22.4089 7.59684
76.6401 22.1663 7.66271
77.3074 22.4892 7.77448
76.8315 22.5328 7.84084
75.4338 22.1142 7.71347
74.5105 22.2989 7.92394
74.4428 22.1218 7.8309
74.1623 22.2405 7.96312
73.9484 22.5245 8.09622
73.6957 22.5612 8.15589
72.3499 22.4978 8.22595
75.1581 22.9209 8.36979
73.6096 23.2554 8.59248
70.9419 22.2849 8.38649
71.6343 22.765 8.55782
71.326 22.5377 8.48954
72.4931 23.296 8.86554
72.2301 23.4363 8.88266
69.365 23.1347 8.9883
70.1083 22.937 8.86242
69.3448 23.0286 8.96451
68.769 22.9957 9.06306
69.1493 23.043 9.01954
69.1792 23.4526 9.43379
67.4254 23.0156 9.23813
68.514 23.3927 9.39398
68.1318 23.3509 9.4848
64.8403 22.7721 9.3552
66.1003 23.4777 9.63754
65.8141 23.1284 9.64173
66.7543 23.7461 9.84894
64.5854 23.17 9.7119
65.5835 23.7248 9.98863
63.9598 23.4981 9.96563
65.3506 23.7099 10.1373
62.4545 23.3819 10.039
63.6316 23.6047 10.3173
63.7988 23.6838 10.2428
62.2294 23.5383 10.3693
63.4596 23.7933 10.4477
61.9268 23.5702 10.4723
64.692 24.3485 10.8014
61.0664 23.6936 10.7083
60.9493 23.5911 10.7018
60.8771 23.2593 10.5301
60.5196 23.766 10.9352
59.0402 23.3802 10.7712
59.7036 23.457 10.8743
60.6833 24.166 11.1714
58.1056 23.1078 10.9555
59.5503 24.2754 11.404
60.0078 24.0859 11.4243
58.9441 24.2591 11.5654
58.5482 23.7704 11.3415
57.277 23.8399 11.5843
58.4687 24.2611 11.7321
58.4354 24.4122 12.017
58.9474 24.5258 11.9195
56.0119 23.8483 11.8648
56.4724 23.9605 11.9199
55.3847 23.6282 11.8182
55.9532 23.8951 11.9831
55.5842 24.0881 12.3097
56.1184 23.9987 12.1347
55.7375 23.9597 12.2574
54.7767 24.5287 12.6286
54.1704 23.9692 12.4384
54.6567 24.398 12.5813
53.1756 23.854 12.5602
54.3376 24.5262 12.8581
52.3049 23.791 12.6027
53.3137 24.2545 12.9127
54.03 24.7313 13.1796
50.4095 23.1847 12.5524
51.297 23.9387 12.9407
52.6453 24.705 13.4195
51.3828 23.9977 13.1329
51.2771 23.8901 13.215
51.4126 24.2305 13.493
52.4601 24.5709 13.6475
51.5795 24.8913 13.9007
51.7646 25.2699 14.1974
50.6408 24.9242 14.101
50.4042 24.1387 13.5686
49.1238 24.1478 13.9159
50.0071 24.6391 14.12
50.1678 24.8147 14.342
48.5166 24.0819 13.9811
48.442 24.0664 14.1448
49.363 24.6446 14.425
48.5773 24.6821 14.5807
48.8128 25.0746 14.8387
48.7941 24.5957 14.5743
48.6153 25.1154 15.1289
48.1694 24.5785 14.6215
47.054 24.4601 14.8867
47.228 25.0055 15.2407
45.03 23.4479 14.4811
48.0513 24.9396 15.2193
45.8432 24.1931 14.9658
46.8511 25.1369 15.6764
45.9438 24.4588 15.3558
45.3634 24.5394 15.3192
46.0417 25.0009 15.8622
46.3578 25.4176 16.0787
46.1353 25.1003 16.0265
43.5244 24.1908 15.5656
43.9544 24.066 15.4272
44.1762 24.5909 15.8977
42.3829 23.8889 15.5358
42.9519 24.1078 15.7141
43.0803 23.713 15.4759
43.3101 24.9478 16.4001
43.7239 24.8751 16.5262
42.8644 24.2368 16.0998
43.3515 24.8487 16.6808
43.4874 25.0666 16.7601
43.4383 25.179 16.9541
42.1339 24.3924 16.6301
43.0352 25.1415 17.2081
42.4908 25.3356 17.3775
41.2291 24.1341 16.7662
41.7136 24.563 16.9227
40.8454 24.4938 17.208
41.7909 24.6887 17.0466
41.0053 24.935 17.3067
40.8743 24.6802 17.4124
40.9179 24.5804 17.3817
40.5401 24.7364 17.6935
39.8085 24.4612 17.6414
40.0727 24.685 17.6867
39.5747 24.1848 17.4302
39.2273 24.6432 17.9698
38.9066 24.2823 17.7584
38.8908 24.4873 17.9232
38.956 24.0213 17.5384
39.3562 24.8646 18.4395
38.9332 24.708 18.5389
39.25 25.0694 18.647
38.7614 24.5197 18.1535
38.8304 24.9708 18.6101
38.0493 24.6248 18.7891
36.9146 23.5292 17.7754
37.077 24.3673 18.6822
36.9458 24.5785 18.8538
37.1443 24.5848 18.9926
37.6468 24.7438 19.0839
37.6735 24.6486 18.9933
36.2486 24.6709 19.314
37.1353 24.8909 19.4879
36.5134 24.8217 19.6021
37.3014 25.3968 19.8482
36.1408 24.9084 20.0277
36.3461 24.6924 19.5569
35.9003 24.622 19.6777
36.3322 25.1493 20.2212
36.1104 25.0322 20.2149
36.5777 25.0974 20.2996
35.525 24.6915 20.0023
35.2437 24.5901 20.0207
34.8103 24.0957 19.8173
35.0807 24.8468 20.6669
34.4273 24.5047 20.2649
33.8896 23.901 19.6171
34.0996 24.3041 20.3615
35.0485 24.7419 20.6549
34.1168 24.6532 21.1261
34.6053 24.7443 20.7325
33.1126 24.1975 20.4709
34.0709 24.6644 21.2992
33.3456 24.4483 20.7267
33.1932 24.3723 20.8729
32.7518 24.327 21.2156
33.0413 25.1203 21.8713
33.1318 24.6267 21.5347
33.0641 24.9551 21.6894
32.1757 24.0481 21.1092
32.4775 25.0936 22.2204
32.3425 24.3381 21.6245
32.2796 24.2973 21.5342
31.6645 24.4359 21.8153
31.6485 24.2687 21.7386
31.4844 24.6864 22.2755
31.2462 23.8826 21.7268
31.8356 24.572 22.1244
30.7404 23.9934 22.0079
31.4706 24.2683 22.0734
31.3461 25.0798 23.0148
30.7713 24.5581 22.5241
31.4593 24.8252 23.2208
31.0933 24.7439 23.1291
30.8806 24.5074 22.8578
30.7201 24.3052 22.514
30.776 24.8234 23.5937
30.3232 24.2838 22.6247
29.9822 24.5729 23.5626
30.9335 25.45 24.1721
29.2648 24.564 23.5681
30.4071 24.9131 24.0884
29.6433 24.4237 23.3434
29.0296 24.0389 23.3807
29.1351 24.2905 23.5072
28.9038 24.0441 23.6476
29.9088 25.0741 24.205
28.5254 23.7984 23.4663
29.4694 24.7665 24.1235
28.9628 24.4236 24.2285
29.0053 24.5944 24.1893
27.5969 23.5828 23.8432
28.054 24.5613 24.6308
28.6272 24.4176 24.6146
29.0556 24.9323 24.9725
28.1029 24.4997 24.6906
28.3772 25.2322 26.2335
28.5651 24.3878 24.5115
27.3149 23.7899 24.5835
28.0394 24.779 25.435
27.7126 24.7203 25.6324
27.7498 24.5744 25.2331
28.2679 25.4046 26.2416
26.8042 23.8013 24.8045
26.8802 24.4512 25.8815
27.1582 23.9529 24.7925
26.4407 23.8774 25.2859
26.4741 23.9896 25.6323
27.6023 24.8964 26.3664
26.1014 24.264 26.1105
26.7899 24.1429 25.6573
25.7332 24.0931 25.9564
26.6133 24.5633 26.1785
26.18 24.2218 26.0818
24.9695 23.1722 25.2286
25.7522 24.0249 26.1072
25.1502 23.5259 25.6087
25.1039 24.0777 26.4687
25.1297 23.5653 26.0678
25.8789 24.3827 26.9369
26.0543 24.6017 27.1027
25.4331 24.2106 26.8137
25.017 24.149 26.8035
24.8413 24.1986 27.3168
25.206 23.9843 27.2879
25.5684 24.4783 27.4497
25.1688 24.0784 27.1714
24.7042 24.2737 27.6505
24.6896 24.0816 27.3394
24.3142 23.9396 27.2389
24.2221 23.6702 27.2074
24.0176 24.0512 27.655
24.3478 24.3877 28.2342
24.6389 24.6957 28.672
23.9755 23.9178 27.7529
23.9786 24.0432 27.9247
23.5111 23.863 28.1914
23.6238 23.4189 27.3581
23.6489 23.9248 28.283
23.2802 23.4346 27.5513
22.9481 23.8416 28.7433
23.3926 23.6175 27.9947
22.3349 22.4301 26.9524
23.1792 23.6384 28.5096
23.7468 24.1733 29.0555
23.3333 23.9202 28.7331
22.5698 23.6158 28.7559
23.1713 24.2277 29.5851
23.0445 23.9562 28.9506
22.4925 23.5365 28.82
22.658 24.0029 29.5143
23.0198 23.9719 29.6417
22.5144 23.7402 29.3713
22.7851 24.2491 29.8498
22.4105 23.5329 29.3286
22.3534 23.358 28.9876
22.0649 24.0444 30.0322
21.6951 23.3055 29.3538
22.3794 24.0667 30.1387
22.0602 23.7847 29.9543
21.7204 23.3184 29.5193
21.5922 23.6901 29.8033
21.3825 23.4751 30.008
21.2695 22.9259 29.4614
21.2488 23.5481 30.1025
20.7845 22.9421 29.8794
21.7041 23.8425 30.8314
21.4848 23.4738 30.5115
20.8686 22.9487 30.1761
21.1954 23.369 30.3409
21.3087 23.7618 30.8119
21.1144 23.6032 30.8581
20.6041 23.3115 30.6579
21.3753 24.007 31.7524
21.064 23.9185 31.4482
20.3696 23.0861 30.661
20.6157 23.9656 32.2621
21.0683 23.58 31.2147
20.5219 23.5168 31.5025
19.9879 23.3732 31.6628
20.1258 23.2862 31.5268
20.1731 23.1227 31.4539
20.6602 23.864 32.1467
20.503 23.5384 32.0926
20.1473 23.2871 31.3635
19.3284 22.7964 31.4473
20.0045 23.4171 32.4707
20.0988 23.3738 32.2468
19.7603 23.1133 32.0844
20.273 24.4164 33.5651
19.9446 23.4936 32.4528
19.7565 23.8172 33.4129
19.7068 23.66 33.1809
19.9003 23.7661 33.6627
19.3957 23.1326 32.5376
19.2161 22.9363 32.4667
19.2852 22.962 32.4286
19.33 23.4097 33.3129
19.1373 23.1213 33.0341
19.0028 23.2103 32.9613
19.3384 23.7463 33.8184
18.8593 23.396 34.0549
19.3993 23.4221 33.8095
19.0421 23.1075 33.0491
18.8686 23.0539 33.2309
17.9477 22.1266 32.1796
17.829 22.0229 32.2837
18.1097 22.5447 32.8463
18.1391 22.9358 33.8701
18.4035 22.5598 33.1955
18.0111 22.8286 33.5473
17.8066 22.4008 33.4407
18.4609 22.7131 33.4103
17.9196 22.303 33.2647
18.2603 23.5904 34.8175
18.0892 22.5454 33.8956
17.9124 22.456 34.011
18.0464 22.6364 33.4806
16.99 21.9896 33.7005
18.0571 22.6184 33.8488
17.6016 22.9565 34.8093
17.576 22.8155 35.1406
18.2026 22.7546 33.9403
17.4353 22.8883 34.8518
17.3201 22.3944 34.6053
17.5137 22.8607 35.2114
17.1794 22.2932 34.5991
17.545 22.4095 34.2157
16.924 22.1028 34.2835
16.8875 22.3659 34.7652
16.8723 21.9456 34.2234
17.0099 22.406 35.2646
17.1467 22.4537 35.2004
16.9216 22.324 34.9424
17.2467 23.079 36.2536
16.8605 22.8258 35.9431
16.4961 21.9638 35.1406
16.9793 23.0374 36.1917
16.6848 22.4099 35.5738
16.4139 22.3571 36.119
16.5258 22.0861 35.3752
16.4804 22.4365 35.9029
16.0816 21.9065 35.741
16.3594 22.5381 36.7625
16.4586 22.3128 36.1236
16.1936 22.1735 36.1716
16.3827 22.3472 36.0974
16.2031 22.563 36.144
16.0389 22.339 36.8445
16.0791 22.1192 35.9074
15.8239 22.2152 36.197
15.3861 21.8009 36.8133
15.9265 22.0922 35.8943
15.6934 22.4688 37.9015
16.1539 22.6733 37.567
15.6162 21.839 36.1964
15.4155 21.8327 37.0729
15.6004 21.8996 36.5069
15.911 22.6876 37.6934
15.8286 22.4775 37.6313
15.4489 21.9879 36.8451
15.2647 21.8468 36.9281
15.0632 21.7089 37.1218
14.9854 21.4696 36.5182
15.5818 22.4544 38.0158
15.3631 22.3417 37.9284
15.3959 22.4173 38.2006
15.2855 22.1872 38.1128
14.6449 21.3906 36.9848
14.8895 21.9274 37.8619
15.4916 22.4786 38.2764
14.481 21.6599 38.2566
14.827 21.729 37.7182
14.815 21.7734 37.5635
14.9925 21.9469 38.321
14.8758 21.8467 38.5571
14.8447 21.9083 38.4293
14.4814 21.4469 37.5483
14.4615 21.4484 38.0503
14.4705 21.5368 38.313
14.6373 21.7541 38.7685
14.6905 21.8207 38.8189
14.6867 21.7193 38.5736
14.491 21.8035 39.1801
14.5465 21.0626 37.4151
14.502 22.3165 39.485
14.2612 21.6703 39.2277
14.3648 21.5566 38.8473
14.0249 21.7034 39.4569
13.8933 21.0341 38.6733
14.0839 21.18 38.7102
14.0828 21.7159 39.1948
14.0756 21.6037 39.6009
13.9133 21.3578 39.8007
14.265 21.1722 38.3934
13.9524 22.1303 40.4142
13.7757 21.6686 40.1954
13.9182 21.5098 39.512
13.8666 21.7201 40.4874
14.2463 21.7026 39.9571
13.5791 21.097 39.2298
13.4989 21.3542 39.7028
13.2742 20.6357 39.0993
13.4085 21.1838 39.9543
13.6613 21.5544 40.3636
13.3284 21.0023 40.1263
13.5371 21.2808 40.0025
13.5437 21.4381 39.8702
13.3577 21.1926 40.4382
13.6599 21.2647 40.699
13.5091 21.3832 40.0285
13.2889 21.6086 41.6079
13.2247 20.8248 40.4819
13.2977 21.0715 39.5578
13.2102 21.3839 40.6543
13.3653 21.6807 42.0531
13.0662 21.2721 40.9335
13.1589 21.8634 41.6488
12.6917 20.8337 40.6984
12.8649 21.1896 41.2548
12.8973 20.9509 40.6892
12.7797 21.0421 41.1757
12.5063 20.4488 40.0647
12.8848 21.4977 42.2327
12.6854 20.6972 40.4507
12.7716 21.3241 42.435
12.8787 21.0662 41.608
12.6598 20.6311 41.1632
12.7833 20.8795 41.3904
12.9074 21.9811 43.0037
12.4068 20.6097 41.3553
12.5143 20.7829 41.2035
12.2797 20.7144 41.0014
12.2111 20.5447 41.3187
12.1993 20.7456 42.0036
12.2671 20.4285 41.251
12.4188 21.0389 41.8098
11.8314 20.2435 41.6268
12.6912 21.4463 43.2009
12.4549 21.2398 42.5966
12.0671 20.6253 42.5647
12.2069 20.4271 41.6242
12.3805 21.5734 43.8234
11.9437 20.6025 42.0436
12.0496 20.9623 42.9693
11.8241 20.1365 41.6446
11.6114 20.5376 42.8916
11.9931 20.1839 41.5874
12.2149 21.4746 44.0529
11.5217 20.2706 42.8723
12.044 20.8543 42.7877
11.5363 20.37 42.5286
11.7729 20.3392 42.5289
11.5804 20.3502 42.7328
11.5916 19.7426 41.0747
11.5546 20.5367 43.2542
11.5769 20.2657 41.6962
11.3697 19.8035 41.9201
11.4762 20.5506 44.2732
11.998 20.445 42.3021
11.5457 20.6313 43.9167
11.5253 20.2239 43.384
11.432 20.2413 42.5151
11.0684 20.0147 43.009
11.247 20.1965 44.4568
11.4664 19.8988 42.3891
11.5746 20.6391 43.5548
11.1961 20.589 44.0411
11.1767 20.1405 43.9268
11.1817 20.4059 43.7799
10.9142 19.6526 43.247
11.2058 19.8453 43.0654
11.1839 20.4366 44.857
11.357 20.072 43.8124
11.0887 19.9487 43.6219
11.1127 19.9506 43.3323
10.8821 19.7731 43.467
10.8348 20.2981 45.0919
10.9334 19.5044 42.5816
10.8265 19.8147 43.5695
10.8766 20.1055 44.3968
11.0106 19.771 42.7987
10.8719 20.5824 45.6877
10.8134 19.8787 44.0884
10.6845 19.9425 44.3445
10.8155 19.8266 44.3262
10.6522 19.8531 44.102
10.4573 19.5028 43.773
10.6371 19.4926 44.2242
10.5251 19.9128 44.8534
10.7731 20.0572 44.9826
10.4925 19.7088 44.6743
10.4174 19.2305 43.9191
10.6312 20.0603 44.4446
10.2031 19.6112 45.3702
10.6619 19.7573 44.59
10.342 19.9842 46.073
10.432 19.5845 44.5942
10.3492 19.9332 45.7828
10.4914 19.6141 44.531
10.2062 19.4928 44.8729
10.3528 19.8157 45.5486
10.3506 19.4901 44.9881
10.2387 19.7028 44.9881
10.1485 19.714 45.7178
10.4652 19.9042 44.8997
10.1117 19.5155 46.0102
10.4678 19.9401 45.6881
10.0288 19.7002 46.2106
10.0612 19.5928 46.412
10.2235 19.5677 45.3097
10.0248 19.5923 46.3179
10.0367 19.2279 44.8437
9.86831 19.0697 44.8214
9.75367 19.2603 46.1588
10.0076 19.0639 44.354
9.72053 19.1577 45.3036
9.99916 19.3506 46.2271
9.79708 18.9356 44.3539
9.71664 19.3022 45.795
9.66086 19.0437 46.8264
10.0048 19.9311 46.5567
9.37448 18.4914 44.4846
9.65757 19.0834 45.9616
9.84803 19.2466 45.7122
9.58993 19.2911 46.2522
9.63046 19.0628 46.1137
9.66059 18.9936 45.7508
9.73515 19.1856 46.6357
9.66168 19.2981 46.1313
9.72705 19.4977 47.0921
9.54868 19.131 46.764
9.63722 19.3016 47.1462
9.65063 19.5445 47.7977
9.70533 19.3147 47.4638
9.69185 19.6813 48.0344
9.4049 18.9746 47.21
9.39364 18.982 46.0584
9.54485 19.4054 47.621
9.80473 19.8308 48.0329
