# pn-170911/RbIIA-24-RbIIR-1280-1959.psd
# Power spectrum* (dif=0,1,2) (really just |FT|^2)
# NOTE: only the first half! (symmetric)
# weeks: 1280-1959
# 1 clock-days, 0 excluded
# PSD: 1441
903.336 0.00450007 0.0123269
1.72162e+06 4.19006 0.0357515
2.06689e+07 554.762 0.0654295
1.13833e+06 27.4103 0.0510779
931462 44.3778 0.0180852
452965 70.2949 0.0142852
974.484 21.8215 0.0391915
83749.8 50.3457 0.0235551
131380 5.61995 0.0487914
45931.1 0.330401 0.0413052
401547 228.71 0.0306525
50582.4 60.1791 0.0213953
50471.8 13.6953 0.0817589
75012.2 61.9352 0.166741
18443.1 8.03128 0.013109
123344 85.4128 0.236643
14061.5 20.3288 0.110566
53219.7 46.8466 0.198826
10689.5 64.0728 0.166707
24384.3 81.3847 0.275573
8447.43 59.734 0.10471
17109.5 31.126 0.00844202
4907.23 37.8336 0.0627283
11910.2 1.2207 0.0478536
25454.1 26.4213 0.197164
7388.09 3.77596 0.00725047
36581.6 72.9826 0.450242
7875.02 4.6139 0.00683931
15585.9 54.4427 0.0706957
18038.2 118.644 0.692133
385.151 32.3123 0.19595
15790.1 20.1132 0.060762
2105.78 57.4088 0.291734
28946 62.2766 0.416833
11417 50.3512 0.112812
219.887 24.5383 0.196153
7119.2 79.4602 0.730703
12334.4 47.966 0.135962
2699.34 3.13463 0.105878
13395.8 28.4544 0.222456
696.244 5.07621 0.0701932
57053.2 352.177 3.40468
1768.26 23.2564 0.110227
26774.7 126.099 1.32911
29085.9 150.367 1.6047
34.0401 20.4831 0.213129
45558.9 316.667 3.68826
14601.8 72.4311 0.700552
19.6609 14.3072 0.188656
26569.1 183.136 1.9362
3105.75 15.9918 0.0776331
43.1735 23.4424 0.286867
1424.02 0.181784 0.0498797
7250.15 100.18 1.81531
9386.76 51.7369 0.724858
306.005 4.79949 0.113985
8094.06 98.0505 2.03997
3043 7.20537 0.168239
5862.75 67.0014 0.695708
2708.33 118.25 1.97834
1570.28 5.17957 0.258376
3201.92 10.6874 0.269438
1605.79 57.7172 0.773235
687.459 5.73484 0.0474729
3022.14 10.8221 0.213261
2250.3 29.0209 0.950373
7728.39 72.4069 1.46223
1827.41 15.6842 0.17457
829.775 70.4988 1.47539
592.459 17.2654 0.233639
1615.54 17.3903 0.220356
1892.85 115.713 3.05249
2779.33 18.3431 0.269289
2798.17 42.2864 1.46861
4318.12 37.6961 1.08022
1764.05 6.58634 0.278956
4778.23 56.8484 1.90518
1715.9 17.1023 0.876537
4397.18 51.0143 1.39574
3514.15 56.3985 1.35118
2291.36 19.6895 0.817729
2585.21 57.3628 2.50215
2367.96 39.0447 0.934011
47.852 9.70907 0.294118
1043.96 52.5412 2.20932
388.311 1.96302 0.00879206
904.23 22.8779 1.27688
119.101 28.4826 1.3158
2410.22 28.211 1.21389
804.322 76.2036 2.33617
301.651 22.888 1.4441
7429.04 235.553 7.95715
2838.59 90.6119 4.47301
1911.25 30.3557 2.03908
2520.64 147.519 4.63803
3258.38 132.229 4.56282
1691.88 161.938 7.43763
2993.78 131.356 4.70793
3335.31 74.4069 2.95777
341.168 12.3468 1.03951
5163.51 243.18 9.60269
3035.23 119.548 5.28166
177.668 5.0054 0.124415
8.45359 20.9995 0.873956
1041.43 96.687 4.22307
7282.35 416.551 21.5573
694.659 8.63486 0.324379
2156.87 65.4482 3.7965
73.1972 10.9375 0.732477
1361.9 20.3829 1.30574
312.755 50.2008 2.44962
1196.81 41.1284 2.33506
2016.19 80.4485 5.0631
392.081 77.2746 4.82289
645.471 19.0354 1.6853
2505.54 72.4425 5.19056
222.543 17.2526 0.574847
0.360725 19.8711 1.30682
834.316 15.305 0.653788
422.719 8.59355 0.300713
2509.03 110.204 7.75254
699.296 107.201 6.78245
274.817 11.4633 1.07143
1373.93 34.2248 2.85507
62.2519 3.9507 0.125412
110.78 35.7138 2.81236
1466.97 48.2627 4.40492
431.106 10.7318 0.597239
332.056 27.8547 2.56444
224.606 30.6371 3.3446
1102.36 158.637 11.4517
2122.59 92.5681 6.71199
192.726 28.0792 1.92163
418.386 45.7113 3.86988
136.249 16.7337 1.7965
284.326 85.1645 8.32314
1745.85 105.545 7.57093
86.2013 4.74295 0.419717
424.13 42.3865 5.11734
761.887 46.9622 2.84896
972.181 188.092 16.6472
799.186 47.879 3.53125
124.446 44.8669 4.04416
27.1468 10.9544 1.24649
553.136 22.147 1.72534
72.7239 38.8502 3.76789
162.153 3.58702 0.500343
34.9942 34.6278 4.52312
2077.62 165.555 16.3482
1654.17 88.2822 8.99786
250.197 15.1039 1.97354
268.329 38.8721 5.37055
122.994 12.846 0.785163
713.966 28.9814 2.91193
1651.36 233.196 23.5082
521.542 160.933 19.4515
1292.21 56.4663 6.07623
45.8558 39.0964 3.83042
328.775 46.486 5.46152
596.405 181.053 22.9911
606.592 11.5925 0.956142
524.694 29.3313 4.13526
370.213 106.728 14.5963
36.799 13.8474 1.93413
270.79 82.5476 10.7388
15.4402 33.0416 6.8941
2708.49 195.008 23.0257
354.288 87.634 11.9856
232.42 10.8774 1.30829
873.721 80.0156 11.6542
530.781 49.0858 9.97525
438.072 24.4419 1.4074
717.335 34.0089 3.79842
207.075 13.9555 0.931275
308.954 80.069 9.88644
250.169 73.328 11.8225
927.028 43.5348 5.32424
1110.9 102.653 14.1089
242.386 4.20488 0.980135
85.5059 42.9083 6.82398
619.414 41.0816 5.33866
223.993 17.4699 3.35792
362.88 60.7935 8.81075
13.5855 11.2937 1.39163
255.936 54.7282 9.38049
318.41 148.621 25.8401
212.531 84.2282 17.2403
1571.52 117.54 16.7152
246.055 17.1242 1.64445
338.591 10.887 1.03022
410.889 37.1757 5.73513
84.5798 4.43043 0.933022
339.375 10.235 1.64915
141.668 22.9797 3.85625
231.008 86.3948 16.2557
169.578 14.0867 4.6907
506.094 37.8188 4.38014
542.06 32.5315 4.88369
66.8188 5.61045 1.00206
225.047 19.6784 4.00265
596.818 38.8598 6.4292
77.0151 11.2696 2.81933
449.038 22.4603 3.74588
112.738 21.4345 5.58475
838.01 88.0214 16.6137
162.327 80.896 15.7857
80.6624 3.11135 1.93174
805.465 58.4102 9.85779
334.477 18.1798 2.64343
733.51 71.3393 16.4747
38.8705 0.20456 0.341927
144.832 88.312 17.6334
724.173 69.0479 12.2555
112.359 1.20686 0.615304
210.514 82.6169 16.1575
165.282 24.6645 6.29629
162.696 1.15035 0.23041
140.788 2.12015 0.817865
766.568 85.0835 19.4759
210.725 130.951 30.7111
554.125 29.0037 3.48461
1198.11 160.493 37.5629
348.712 37.2678 13.0476
53.5611 30.0039 3.52649
21.3897 40.0926 8.22886
192.512 8.13691 2.84374
444.747 170.129 40.5214
9.54539 21.5454 9.23309
357.643 112.717 25.149
821.842 163.259 41.8633
699.734 131.077 31.5513
925.379 111.133 24.3149
5.9287 30.1485 8.23042
868.082 114.89 26.4922
162.787 76.161 19.5533
137.727 2.14955 0.994582
142.665 11.6131 2.39873
19.4168 10.1318 4.00893
402.671 43.1791 10.0348
265.403 14.8245 3.72399
385.155 35.7777 10.0049
33.5711 1.36169 0.131238
35.7756 6.53641 1.90306
402.343 38.6854 11.4131
176.778 89.2324 22.9087
236.134 19.9608 5.42573
45.3556 4.89313 3.94713
959.265 126.062 28.0678
461.409 63.5424 19.4408
358.129 43.7399 15.2452
93.3994 3.35015 1.67919
263.738 61.8068 15.3402
489.691 84.9594 30.4891
3.24819 9.29424 3.13703
183.198 79.492 20.9775
127.279 1.39869 0.0869071
597.533 106.572 37.6171
66.8766 20.297 3.56281
116.255 103.525 35.3536
849.624 172.891 49.3593
8.92772 13.8235 2.90034
33.3828 1.952 0.670887
47.0901 21.5137 9.31192
528.703 75.5508 21.3717
275.995 39.9674 15.2195
21.1553 20.9571 5.90949
254.187 27.2279 8.98286
127.152 16.5889 8.67171
44.5289 52.7142 16.7148
260.801 97.7186 30.2904
82.1695 4.54926 1.09092
50.4282 1.45991 0.927834
255.281 25.1296 8.53712
14.5275 8.93635 2.84499
342.075 63.2739 24.8903
147.908 29.3085 7.36187
218.193 27.3342 12.9023
125.097 43.2923 13.3743
42.5651 41.0692 17.0672
74.1442 61.4181 21.5389
295.059 28.5871 8.21493
72.9064 1.71168 0.805786
78.7954 7.83782 2.36888
24.1261 14.0477 8.25256
346.882 125.448 37.9984
118.209 12.2629 3.85584
285.169 81.6429 34.1589
218.354 34.2034 18.8235
21.8794 31.3495 6.68214
93.591 113.794 44.3853
235.764 33.5348 8.64809
327.168 98.0838 41.0467
90.25 74.2938 41.4859
50.5632 22.728 5.30365
84.1901 70.1602 25.8308
31.334 6.50981 4.99834
92.446 8.55013 5.27457
44.5745 14.7361 14.2679
321.017 51.7291 10.7941
205.208 46.2434 17.739
201.322 38.2811 18.6167
378.361 124.008 44.755
66.9067 26.4737 19.7795
676.748 169.455 67.3542
4.49932 12.5826 3.17432
62.3434 4.4798 0.862958
107.526 36.8812 14.8757
48.8794 21.0081 12.9757
245.661 42.5854 22.1128
78.4235 4.40698 4.97264
45.8976 7.41457 0.389538
370.931 130.779 49.6419
41.986 25.8251 13.6252
59.0967 24.1818 18.4955
47.2338 19.4928 4.55626
72.4619 2.75525 2.49201
2.89631 18.6691 7.02133
76.3163 10.0463 0.83655
260.012 173.443 67.2301
113.679 140.931 86.8341
363.272 44.2302 10.7772
159.312 30.2407 15.4665
121.987 11.0726 5.41931
68.8869 36.1218 20.2093
3.19819 28.3132 21.3475
602.803 165.146 77.1904
10.3061 6.32596 8.8478
135.534 43.4584 13.4482
82.4487 13.809 8.47119
108.44 21.6931 10.2339
2.27994 26.0527 11.5638
132.467 48.2136 25.8415
181.446 41.9043 28.8589
20.009 40.4648 20.5321
260.993 53.4199 27.8834
137.848 29.4887 24.0289
36.7768 56.7889 20.1971
53.6354 84.4217 45.0051
73.9329 5.97759 6.32995
373.85 89.0417 42.7224
14.1458 14.2262 8.52985
2.09823 35.5837 23.5914
178.938 20.6247 7.96427
46.264 23.0878 10.5367
67.9853 2.59964 1.21872
61.045 5.7898 4.1269
229.11 78.7434 41.9539
23.8349 29.6671 26.8403
10.1347 15.8045 24.566
481.783 128.342 46.6688
53.1237 3.46394 0.669388
141.678 30.7622 10.8191
295.371 124.881 84.604
43.9238 16.4142 3.46354
22.2198 26.444 14.3177
67.7295 32.5548 19.7917
133.836 79.415 41.6062
30.4509 5.09781 7.99224
37.237 5.01864 0.61895
27.3689 81.3786 49.9713
76.3482 18.7715 20.0967
325.944 80.3113 42.2602
73.7195 17.3681 9.06154
3.60375 32.7102 18.3241
74.7269 3.92249 2.99904
33.6485 16.0911 22.9507
224.606 70.4112 28.1527
2.91059 11.2872 3.63007
163.378 132.362 77.3979
37.8019 30.705 23.9676
119.17 12.8164 4.20482
76.36 4.24305 1.84911
163.495 74.7331 59.8261
77.5602 57.5705 21.8468
47.2801 72.7117 60.8277
278.308 55.3247 20.9258
39.406 5.30401 6.44503
121.863 17.42 11.2632
62.268 14.1859 4.01929
47.3666 1.91259 0.327922
71.8021 13.6831 9.23055
14.034 49.7507 35.2013
44.8861 62.0039 57.0989
316.516 61.4623 20.7019
207.092 98.8124 53.2059
205.296 40.8042 15.1779
337.097 181.913 127.102
43.0934 5.02955 12.7317
25.2335 28.7382 19.936
352.169 130.463 83.3623
53.2995 41.3081 42.1607
266.51 204.2 124.356
23.8448 7.77419 19.9641
192.279 32.08 7.04954
255.283 90.5919 62.3639
57.4937 15.831 12.3758
8.64116 2.11036 0.431429
79.68 14.4703 13.9186
55.7517 43.3097 18.549
33.063 58.3137 53.4924
274.833 83.2577 50.4627
125.889 50.5905 42.5181
4.39955 6.75782 1.40242
51.579 16.6102 9.00889
37.0737 55.7578 54.676
121.716 26.2325 7.77807
45.0504 13.522 9.70481
84.6157 9.7068 4.33018
82.95 15.7289 10.6603
49.1529 56.7399 50.9181
153.155 22.5944 4.99191
349.729 176.604 138.704
73.2178 36.9211 58.9243
12.4836 22.1747 5.34267
13.6706 0.451104 1.99733
14.6855 47.4471 77.6023
359.379 158.414 72.1032
55.0038 108.796 83.7946
211.159 43.6533 10.1429
230.806 85.5168 47.009
185.84 152.849 106.067
1490.99 1150.28 983.483
50.8932 5.45967 14.2787
56.6635 87.8119 62.549
17.1226 18.7241 9.99366
72.2261 19.697 32.5819
29.5589 17.4463 2.32912
18.4643 0.237394 2.54532
43.4642 11.3921 19.048
62.3231 70.8028 39.1762
4.79065 2.50938 0.172325
24.3436 20.2232 32.419
83.1484 118.67 63.8433
18.0833 9.01093 4.00088
27.7839 93.764 92.4001
158.486 40.7966 32.5268
104.957 49.6304 49.0571
22.5297 56.3433 27.8046
7.62273 20.1286 19.7834
29.0544 0.159242 2.47905
21.7688 16.5073 11.904
107.757 46.1132 35.9706
35.0152 6.24929 12.9945
2.89621 8.30252 6.53592
73.387 47.9701 37.6177
6.52139 9.2416 6.21621
49.124 21.6642 22.4945
19.1133 29.3012 20.1361
62.0356 23.2403 22.6758
27.4187 4.89244 17.1743
90.0052 82.1591 56.4714
11.4026 6.65577 4.20509
3.44506 51.169 68.2022
170.154 45.7988 26.6016
76.4926 15.4822 9.54054
54.088 30.4588 21.1265
25.677 10.1759 14.7643
150.609 58.3934 48.4206
90.4611 67.2963 77.3737
8.21377 33.6774 45.7042
19.8037 14.9634 4.76674
26.4156 14.8161 35.1908
60.4938 44.8906 18.5377
11.3985 1.7141 1.63209
17.3259 4.49212 1.77004
62.4884 32.6712 24.8652
1.44388 8.45449 3.93965
5.43712 21.985 21.9646
38.4871 4.72406 5.50747
53.8686 6.41132 4.96705
40.1787 14.0742 19.0884
3.54933 16.1498 10.1807
20.5433 2.01351 0.531198
11.5184 21.9861 23.7633
29.7948 10.1784 22.5126
108.128 29.8327 13.6173
97.7271 23.6295 10.0959
172.511 115.159 131.385
11.7832 7.60675 11.9867
4.63313 13.5191 7.65538
61.7392 24.3487 37.0008
30.6564 23.0323 42.3783
45.3321 94.7626 56.0591
21.2866 15.902 24.3568
48.0097 108.7 98.1691
54.5225 2.76177 0.761105
29.059 57.4992 63.6394
25.9349 12.8261 25.4844
87.9046 11.0646 1.37347
78.3605 26.5519 17.1858
89.1359 44.2848 52.843
15.0131 2.28238 0.934786
53.9715 25.3216 51.5841
73.1383 153.701 148.935
50.4148 0.826895 2.75044
54.4888 7.56275 1.45116
52.3964 11.8881 8.2956
44.4289 19.2217 25.2476
11.2351 0.790675 4.0577
1.81891 20.2878 21.2904
73.6591 29.249 32.2865
9.59926 8.56579 8.03084
41.3087 25.09 28.6169
11.8693 1.79144 11.7301
20.1214 11.9693 3.16124
22.0654 3.84288 14.7538
49.939 113.969 95.6324
21.0058 21.6164 44.517
46.2205 9.92304 3.23878
19.0613 0.108596 1.35716
21.8582 4.90603 3.3964
9.64794 4.94805 12.6433
93.1186 32.6295 32.6743
51.3743 28.7258 36.4695
3.06105 36.2389 38.0873
112.033 88.4573 99.6207
64.9799 25.206 43.4432
13.0259 24.219 11.5292
10.3727 2.65399 3.87167
23.7838 27.5784 43.796
99.9639 48.0747 43.8809
78.1027 66.3904 100.458
11.192 0.520992 11.5964
48.8373 45.3002 43.8041
7.36202 27.9598 11.6482
17.8613 82.1744 69.2625
3.1974 24.0517 29.9789
29.1792 89.3978 160.357
218.74 110.867 91.8893
18.746 35.5719 32.7562
0.99094 17.3827 27.3946
49.3279 12.6155 16.7664
6.62773 63.4586 81.0487
91.6219 30.216 27.6721
10.6955 4.01162 4.56753
27.9404 29.9887 50.3007
39.0367 120.113 154.522
128.346 46.3702 38.7965
32.9696 3.66878 0.848906
60.5506 28.7282 47.7455
85.2554 153.245 189.805
26.1647 2.46549 6.0309
60.0517 26.7389 47.8402
25.9762 42.4553 29.6161
4.7296 34.4831 23.4465
7.54522 32.3779 36.6595
18.6581 2.33039 6.30641
36.1899 17.0773 49.5804
90.0405 231.787 254.256
26.5714 16.1328 43.1818
48.2667 2.24006 3.06632
60.5826 19.9044 37.9851
60.3718 101.414 84.8246
0.31802 50.5734 90.7522
91.0594 74.48 110.113
19.4469 6.47874 20.3075
30.2337 0.431099 10.9045
31.7064 1.25918 4.17905
32.2813 1.7734 2.21241
17.9944 4.13246 24.7201
78.3702 52.5594 81.8984
125.961 51.387 22.314
57.12 27.1395 23.5515
23.9597 21.7744 26.111
71.8102 59.7815 92.8102
11.6218 7.92042 39.3485
47.964 13.0023 31.1041
10.0781 8.42748 72.2852
125.84 74.5952 23.0959
69.1518 70.4029 66.449
9.89464 18.1746 28.7777
11.7621 7.48313 14.972
58.7432 40.1241 41.6188
6.22899 10.5829 27.5478
55.546 20.507 18.9602
12.7028 0.84072 4.13275
11.0762 6.2989 12.7235
21.6907 37.8484 54.1646
18.0492 12.9041 32.1978
128.728 83.7463 102.513
1.37708 1.20526 4.72101
4.40652 10.0863 7.28895
17.5203 17.4923 53.0013
49.2458 35.4506 18.4366
14.0117 9.20229 16.5694
50.4775 14.0982 8.65584
72.8369 43.2336 54.9844
28.1875 28.9619 76.2157
25.3339 62.3727 58.8752
42.4251 21.0876 24.8375
94.1823 58.747 54.6849
85.3286 70.6357 102.692
20.0128 30.5995 78.8089
0.908175 16.5278 24.8502
12.5486 5.38469 32.7414
6.63066 3.9099 0.898537
0.367001 31.5459 57.4905
71.9868 44.2082 42.1773
8.94456 1.2724 13.8302
1.74917 13.6014 4.5846
0.151958 25.4286 27.5358
12.4888 0.910767 2.29299
5.94596 18.9428 34.8902
41.5403 8.38162 9.95281
5.38145 9.6055 7.05695
10.3269 18.2674 37.3868
27.4026 1.49796 12.3956
45.3151 20.8596 15.6638
15.904 25.9067 55.1922
31.8367 38.8823 49.1981
15.7166 4.89592 1.58575
13.4523 9.90187 13.2377
17.0785 2.59528 10.439
24.5373 23.4047 47.2496
50.3774 41.6145 57.6286
106.66 97.2541 164.367
0.966329 5.89277 2.82594
5.76974 17.6414 18.8235
1.04268 8.54671 9.34822
0.874295 18.2084 43.6234
59.3194 73.9066 70.4708
4.70238 16.2925 38.511
18.7488 105.912 165.576
25.6335 23.7566 92.2977
75.2543 10.744 0.0212101
42.8357 7.84093 1.78022
30.2167 39.1234 75.2812
49.2091 18.285 48.3906
31.7514 3.27136 4.3395
54.2498 24.9876 10.9841
31.1931 6.04571 0.694876
53.1104 29.5222 30.0977
29.106 24.8201 48.9394
3.20596 3.96042 16.9653
35.5111 46.3341 84.2213
29.4571 11.9616 16.2635
2.98043 6.26765 3.01256
19.4316 5.57042 31.408
23.9832 48.0611 41.5349
24.74 7.39376 4.67238
19.7251 40.0121 72.6992
40.5058 21.3585 59.3477
10.6423 10.8345 3.90804
0.757457 36.8053 58.5315
26.8383 0.602804 4.04039
34.2675 7.09915 5.29697
20.6396 12.5494 25.9173
0.3273 19.6186 50.9213
61.4452 38.5649 49.2435
0.237389 21.8077 39.8702
29.5066 0.474013 6.98518
57.3921 25.4525 19.9002
23.5812 8.9843 14.1075
19.6957 11.8773 43.2679
5.43759 24.5309 29.4172
60.9845 56.1968 113.496
2.13513 28.415 38.2802
10.5734 6.88745 18.6406
40.2996 21.224 23.8852
14.8758 0.403632 0.707928
33.5638 18.2047 36.0731
26.8784 13.9862 10.7609
21.9654 12.6765 26.9053
5.241 1.67289 3.74985
25.6682 14.7985 39.0115
27.3765 48.0027 116.307
1.824 3.22153 6.43953
3.04735 34.1773 54.9319
1.81997 19.0305 65.1262
30.9472 7.6173 2.87232
29.2575 25.5234 15.7396
21.6803 104.169 144.685
21.7441 0.413404 3.02311
13.3869 18.6399 21.0297
14.4133 36.667 94.7283
20.1171 20.97 75.5882
86.8033 47.7245 50.4243
8.98857 13.3602 42.9098
81.5321 50.1383 38.7797
43.6926 64.8121 181.639
10.2897 49.4133 53.7532
52.0015 74.7182 221.51
87.3135 114.799 155.197
4.52206 29.6121 21.5283
6.86255 11.265 29.5294
26.3804 4.52125 3.46892
15.9665 6.89022 20.7879
3.78792 14.6763 31.6104
54.5511 42.3853 79.5984
0.445717 7.81987 18.8118
5.97373 0.969309 17.0954
11.5181 8.45658 0.906177
13.6544 6.96006 9.40819
0.855752 14.6271 9.23204
3.97039 9.4663 14.6552
11.5137 9.39147 23.3947
35.9261 13.9075 23.8503
0.924585 9.62241 32.7728
39.4164 63.5826 81.2921
2.41627 18.8499 31.0505
9.35169 36.2642 119.718
62.3246 18.3356 21.0625
45.3023 13.6943 1.38051
64.1141 84.0643 179.595
2.4238 20.5132 27.5445
28.4192 23.4419 96.0441
59.8361 54.8037 61.4177
7.75237 42.1304 70.0898
12.876 9.6541 73.4346
55.4109 20.3213 4.92972
78.3895 115.944 190.998
3.51798 22.4026 75.084
3.55485 0.631514 39.9581
9.66744 79.8156 136.149
56.9714 43.2578 120.765
8.95449 25.6101 4.73496
0.963043 35.1089 66.197
31.648 6.98276 9.95828
1.72424 14.1536 44.8694
41.3047 23.8875 23.4345
11.3585 9.70395 47.1523
4.43009 45.7054 51.2036
1.08275 41.1636 132.226
56.7583 15.5927 17.6429
24.2431 12.8239 14.2274
16.9573 6.93517 16.2618
19.2975 11.6266 31.8906
3.5998 30.4396 67.6126
36.6064 13.1841 7.71698
14.2244 11.5012 51.9949
31.9699 71.4978 141.932
38.6628 12.8304 2.79228
22.1394 8.86444 11.093
29.6894 28.0526 61.4892
4.99956 1.5212 7.7427
16.2522 17.0272 71.5476
2.03566 17.3361 22.6912
3.26399 10.0137 53.9905
33.671 29.2314 79.4528
1.34288 12.9724 0.327361
0.548357 15.5102 38.9167
19.0231 12.5596 7.15153
3.3438 26.0945 22.7187
3.03126 14.1299 27.1435
7.00269 11.4913 67.4827
62.0167 52.5971 82.8921
27.1516 16.1244 24.1947
9.03024 4.74851 14.4916
8.65429 4.91935 37.3128
8.80334 13.0105 16.6553
2.79242 5.36607 8.21467
23.8251 14.6739 43.4728
5.0083 10.2183 60.4166
3.91163 23.3033 22.0557
24.3571 32.2787 80.0111
4.3214 51.6881 86.7879
20.7745 33.6653 28.9978
0.845838 42.9221 142.152
54.5717 21.0448 17.9209
12.0379 5.48639 7.5886
6.22866 3.4205 3.48313
8.08527 22.5689 52.521
15.7983 10.4424 74.2949
6.07595 35.8949 21.07
11.126 91.6087 161.587
27.0787 4.30722 13.4241
0.0591688 32.9305 76.4805
13.4136 5.64649 31.214
21.6158 1.61693 20.6401
18.1605 7.8556 19.3346
55.1066 72.8996 185.346
8.40234 50.948 69.5985
25.9333 24.4554 82.6982
39.5661 30.4605 33.9005
10.0091 12.2283 94.4272
8.21679 43.5131 30.8278
2.91411 12.99 14.7
5.80418 17.6541 16.1319
1.06114 24.3329 56.3976
17.5315 1.17692 7.24426
3.16901 4.86848 21.2172
11.9204 65.1319 136.893
24.1173 27.4492 72.1928
17.5615 3.84051 22.3244
19.4755 0.590716 18.0619
27.0717 6.68801 3.18635
9.12587 3.93919 2.40205
10.4368 3.45577 6.94133
24.434 36.822 97.5854
19.2084 13.3739 14.7595
2.43352 12.9924 43.6397
25.9694 3.75358 28.4113
32.292 53.2749 63.7647
17.431 17.8794 57.1486
35.8389 35.9351 110.272
5.6983 10.7109 10.1493
18.556 12.2643 35.8109
5.51429 2.10112 37.9481
4.7314 13.2597 4.3959
4.32663 4.46351 2.83514
1.31584 46.8047 148.866
43.8748 8.17967 1.38686
28.3222 25.4373 82.0535
2.17579 34.0486 63.2324
27.5682 22.7969 66.7001
17.8579 2.0168 2.32593
15.2614 9.81248 60.6341
7.30234 4.58787 7.68523
13.8879 16.0733 7.28303
4.18654 22.5552 57.1898
14.4889 51.7988 132.175
21.5518 5.11315 9.00733
18.4554 51.7687 122.036
35.1971 9.19939 5.01926
13.9028 2.5844 1.1712
13.0716 6.27662 34.9365
6.60449 5.41849 11.7918
26.1081 36.5356 29.1848
9.11676 63.6134 195.208
15.4241 6.18206 24.0243
18.7558 32.8565 68.3316
27.8827 16.1393 37.6837
4.91286 4.75792 0.0286241
7.02352 31.955 72.5277
8.38397 2.97157 37.8006
11.2286 14.9199 27.5196
25.055 102.446 322.259
70.4348 38.4682 20.8729
