# pn-170911/RbIIR-60-KOKB-1280-1959.psd
# Power spectrum* (dif=0,1,2) (really just |FT|^2)
# NOTE: only the first half! (symmetric)
# weeks: 1280-1959
# 7 clock-days, 0 excluded
# PSD: 1441
215.877 0.0624356 0.0117669
18544.3 0.471306 0.00818001
63959.2 0.873418 0.00794712
16958.3 0.500926 0.00782681
28475.5 2.10005 0.00783989
4248.92 0.28971 0.00839983
5806.59 1.11685 0.00740386
3188.03 0.651118 0.00840736
3891.51 0.927649 0.00978378
1764.04 0.51976 0.00885633
1590.32 0.621051 0.00799645
1208.37 0.373201 0.00770666
923.583 0.450164 0.00773073
1184.41 0.605353 0.00825483
652.668 0.344338 0.0096875
559.936 0.427039 0.00794722
742.943 0.525711 0.00963598
575.263 0.515059 0.00880344
438.057 0.656688 0.00873074
642.849 0.972594 0.00803402
480.395 1.11288 0.00680637
321.217 0.365627 0.00962061
410.106 0.70498 0.0131924
250.761 0.456039 0.00942224
492.555 1.20366 0.0110189
224.071 0.586765 0.0125395
252.42 0.946499 0.0121468
730.802 2.08118 0.00961163
331.202 1.42036 0.0110918
384.76 1.26498 0.0142095
227.984 0.536379 0.0134113
298.47 1.03109 0.0111913
447.033 1.59223 0.013984
283.203 1.29108 0.0146648
360.402 1.50279 0.0137606
360.64 1.52222 0.0210736
260.437 1.34643 0.0217964
160.604 1.18419 0.0160925
212.542 1.69774 0.0212548
222.606 1.53925 0.0155194
218.801 1.61266 0.0191451
231.401 1.84584 0.0258545
159.844 1.305 0.0157541
168.792 1.42686 0.0209337
289.085 3.17225 0.0461931
70.1991 0.586513 0.0137982
229.728 2.46519 0.021933
168.169 1.06065 0.0236723
168.5 1.19665 0.0174206
236.82 2.21122 0.0219133
247.798 2.40685 0.0430547
276.254 3.33208 0.0392643
92.2962 1.30877 0.0158664
141.219 1.54489 0.0274584
138.863 2.49065 0.045227
203.991 2.00827 0.0345705
231.437 3.03518 0.0500992
181.362 2.21649 0.0303523
94.5144 1.59063 0.0373499
175.793 3.05811 0.0660224
127.007 2.11196 0.037262
231.162 4.10204 0.0956023
128.769 2.36483 0.0549846
96.8684 2.17889 0.0657299
112.482 1.88089 0.0530383
94.6509 1.54074 0.0391419
92.7914 1.8597 0.0468634
221.206 4.26599 0.129453
221.458 4.82385 0.131521
179.851 3.49442 0.0909875
171.332 3.14931 0.0716405
170.936 3.44585 0.0836161
57.7106 1.44552 0.0422634
205.416 3.90755 0.118027
181.332 4.6875 0.104907
70.6288 2.05363 0.080631
169.753 4.82743 0.116475
161.114 4.75931 0.141425
161.228 3.58641 0.120762
217.827 5.38857 0.166566
220.713 6.96217 0.257953
167.919 6.23528 0.20312
94.5305 2.76208 0.101595
203.777 7.04779 0.25583
159.63 5.32046 0.239715
91.1783 3.72009 0.130739
89.6734 3.37553 0.139454
165.579 5.36608 0.18892
111.191 4.42333 0.186113
121.043 3.44951 0.127131
234.73 8.58083 0.312774
100.772 3.93771 0.185528
123.631 4.65124 0.200269
119.303 4.82389 0.218856
67.4734 2.90734 0.126701
46.7703 1.90855 0.0871623
158.049 7.2156 0.343702
131.959 5.52113 0.246081
141.732 7.03638 0.350031
61.5988 2.68609 0.163432
148.076 7.54248 0.371015
175.279 7.33156 0.331632
170.277 8.86146 0.479233
39.7922 2.25663 0.141614
227.735 11.5935 0.624047
103.691 4.52902 0.257976
106.196 5.27882 0.269801
141.843 8.16617 0.468241
86.3411 4.90462 0.296963
130.842 7.44283 0.406378
51.2705 3.55112 0.256327
134.952 7.32452 0.396171
156.985 8.88554 0.565202
158.711 9.49253 0.557508
172.756 10.0487 0.524579
95.375 4.88086 0.27542
55.1678 2.86655 0.196642
64.2982 3.64688 0.194785
85.2769 5.50128 0.352049
86.4777 4.79545 0.338594
97.6338 6.63294 0.453089
145.504 9.81688 0.618386
192.737 13.8155 0.973149
78.601 4.84954 0.343547
205.6 13.4204 0.979116
83.3023 5.7418 0.38013
102.055 8.31987 0.559748
68.6153 6.25858 0.516548
158.224 12.1821 0.988495
63.9507 4.59299 0.347252
116.34 9.64709 0.724276
129.366 10.2292 0.770045
84.1596 6.75537 0.589133
56.4629 4.76991 0.382611
129.544 10.9052 0.943122
109.549 8.30359 0.723656
29.1452 2.67533 0.251408
262.95 22.63 1.90923
104.048 8.4566 0.691096
116.592 10.9286 1.05004
87.4608 7.57159 0.631587
109.292 10.8934 0.977538
83.7528 8.05272 0.810481
68.114 6.15606 0.586864
79.5727 7.43082 0.765191
114.195 11.1119 1.16353
114.432 13.1136 1.44676
84.0525 8.48081 0.862873
25.251 1.93106 0.187222
149.048 14.4541 1.46174
65.3185 8.40441 0.980404
88.3706 8.90557 0.916618
125.322 12.9928 1.52692
118.548 11.9808 1.33142
92.8153 9.79654 1.07725
63.22 7.41431 0.971612
44.6069 4.69136 0.627947
68.7614 7.2673 0.796512
95.9681 10.0708 1.1124
57.0417 7.20076 0.851627
146.446 16.9775 2.02695
117.067 14.1927 1.64495
64.4342 8.75212 1.23428
63.7782 7.69524 0.927483
78.0228 10.0327 1.30382
28.914 3.43787 0.483567
59.8409 7.99321 1.11002
50.0047 5.78673 0.755598
135.617 18.8231 2.62997
111.912 14.3431 1.98155
93.1308 10.2061 1.11526
85.0762 12.5393 1.65689
99.0194 12.9864 1.73839
73.2245 9.42829 1.41014
61.3916 9.60021 1.54257
43.7511 6.31338 0.899823
67.5465 10.5508 1.73372
127.274 19.026 2.76183
103.008 15.5573 2.51053
81.7903 10.636 1.3789
36.5256 5.88402 0.870674
66.0464 10.381 1.58574
59.8482 9.60777 1.53818
102.785 14.4424 2.29671
65.8378 9.12671 1.47146
117.569 18.1732 2.99444
73.4679 11.2385 1.82143
42.6487 6.46211 0.94165
59.5823 10.1616 1.84046
46.436 6.98172 1.02264
47.1189 7.79378 1.23545
62.5639 10.8203 1.98311
65.6376 11.5074 1.96503
95.5715 16.616 2.84428
56.8389 9.41895 1.65501
71.3237 14.218 2.79068
60.3169 11.1369 2.16893
94.2528 14.1169 2.13211
38.8069 7.68427 1.51531
98.412 18.541 3.48536
144.013 26.1103 4.73957
39.433 6.21353 1.21374
69.9353 13.1636 2.51897
42.0895 7.34569 1.40712
73.0259 13.477 2.46075
60.4319 14.4082 3.07693
66.519 12.0234 2.21342
43.8387 9.91256 2.19172
53.5435 10.6121 2.3044
67.058 12.9117 2.70876
35.4916 7.47805 1.72886
81.2142 16.9101 3.68261
124.192 24.8773 5.21785
74.8002 15.5543 3.1012
57.3308 12.34 2.76064
47.8107 12.2167 2.92296
64.4987 16.0665 3.97537
85.9976 18.4604 4.39322
73.6822 14.6755 2.90861
26.2591 6.57195 1.58805
32.8601 8.93691 2.31117
57.518 10.7521 2.14662
63.5469 13.7307 2.84574
32.1276 6.68026 1.70917
63.8829 14.6746 3.12182
58.2045 14.74 3.97341
67.0188 13.5988 2.88389
54.6425 12.7869 2.88811
42.1576 8.79006 2.04187
26.9895 6.20566 1.39926
56.0734 14.0336 3.8149
28.2909 7.06339 1.86943
76.4175 19.5433 4.87051
70.649 16.2715 3.76819
85.9955 20.4681 5.04157
52.2104 12.8946 3.30075
38.3122 10.3885 2.56737
32.8593 10.1856 2.98668
40.159 9.45713 2.56909
62.508 15.6707 4.23122
24.1421 8.59216 2.9361
79.614 20.2566 5.22202
50.417 13.1315 3.2134
19.3071 6.53797 2.05505
47.1854 13.7719 3.90516
22.7015 6.08211 1.90613
55.5114 12.357 3.30804
50.0734 13.7633 3.85745
17.0179 7.28654 2.73355
77.5284 18.7173 4.72023
57.0739 17.9051 6.31604
108.44 28.2495 7.2583
37.069 11.1073 3.54953
70.6563 20.3181 5.86179
22.2233 6.76577 2.22242
30.0521 7.20857 1.82436
49.4781 16.3376 5.6308
41.7852 11.6433 3.366
68.2179 24.0763 8.28164
86.0018 24.969 7.06623
53.0106 14.2134 3.93812
37.6349 11.3683 3.0412
72.439 23.8472 7.09844
25.4686 9.55945 3.4978
24.6119 8.30218 2.94793
29.0804 8.32932 2.79883
90.0425 25.7893 7.28478
55.9834 17.9022 5.82691
59.9127 19.7209 7.04772
51.9412 18.1965 6.69998
29.889 10.1323 3.63182
60.0666 20.5384 7.37369
9.3243 3.72339 1.844
20.8869 9.02239 3.82752
39.9298 11.8857 3.582
62.1807 20.5582 6.183
33.6594 12.0663 4.37909
44.3563 17.2206 6.77064
58.7387 19.7456 6.51215
23.9234 8.48721 3.19022
21.0472 6.94069 2.14429
20.3943 8.19979 3.26953
48.2498 18.2573 6.92684
22.3264 7.07926 2.44776
31.1517 10.9675 3.94855
30.493 13.7051 5.85532
69.945 22.9179 7.81839
38.125 12.0953 4.24859
43.6371 15.418 5.58425
29.3962 11.6003 4.45084
14.5706 5.92183 2.83369
27.8714 10.4589 3.99132
13.9198 5.85141 2.73086
26.4386 11.5791 5.00269
40.863 15.7629 5.69407
49.7355 22.781 9.45063
41.5843 15.5073 6.10296
61.3045 26.2727 11.0349
28.9128 11.3201 4.97465
35.2168 12.3388 4.59133
45.2432 20.942 9.29178
19.1984 7.46275 3.38753
36.5424 13.9982 5.90163
31.5126 13.9808 6.79239
37.6319 16.9867 8.04762
49.8166 17.5721 6.64125
47.1755 21.1521 9.50308
28.9535 13.2866 6.36881
32.1449 15.5616 8.21141
83.9355 30.5943 10.1834
37.3431 17.9277 8.4671
26.0044 8.70422 2.94306
29.8923 13.7104 6.0199
28.0673 12.8518 5.45517
12.8946 6.60869 3.25047
54.8814 24.3188 10.9349
20.3863 10.4606 5.25949
45.3314 20.8864 10.0686
13.624 7.07281 4.28046
43.062 17.0284 6.23997
30.2437 14.6636 6.46128
35.9855 15.3211 6.30677
30.2006 14.7942 6.18844
16.654 9.36448 4.90568
46.238 24.6463 12.5801
50.2828 22.4894 9.76431
28.2412 12.9757 6.16031
36.6831 19.1088 9.08877
13.9652 7.07497 4.00512
47.9017 22.5294 9.44869
39.2184 21.7312 11.2064
57.0067 28.4226 13.2453
19.6169 12.9429 7.94246
25.8603 9.93023 4.33473
26.6868 15.7558 8.90708
34.4921 15.3188 6.94186
24.317 12.9714 6.92864
37.9072 21.1632 10.7176
27.5763 15.2832 8.70246
18.2018 12.2918 8.26217
31.6376 15.0945 7.49398
36.1373 18.2383 8.86426
21.0023 11.8644 7.18163
34.75 16.1482 7.74197
10.4517 6.42443 3.40217
17.6894 10.9128 6.31746
16.3692 7.7995 4.54875
21.2726 11.2783 6.06775
32.9649 18.0367 9.63607
25.9492 16.5092 10.4155
43.4237 23.5613 12.7312
15.6469 9.07196 5.36557
28.5186 14.8444 8.59042
36.3375 21.1025 12.1311
23.5215 11.0566 5.73987
30.9264 18.5639 10.0498
33.4221 23.4863 15.6519
13.5205 7.24097 5.33891
32.0921 13.568 5.68127
26.1907 18.4484 13.0475
29.0343 12.3547 5.7641
21.6823 11.4904 6.05653
32.936 18.8353 9.87553
27.9855 17.6904 10.1469
20.4502 12.44 8.33614
21.3394 10.9778 5.90438
21.733 12.6954 6.86932
18.4412 11.6933 6.84108
14.5304 11.7161 8.9
23.7567 13.0109 7.39599
14.5165 8.81528 5.54449
21.2 12.9448 8.48431
22.3975 13.8632 9.74369
28.4497 16.2577 10.021
27.2396 16.2836 8.81193
30.1864 21.8798 14.116
20.903 12.5577 8.09991
32.6992 24.1323 17.1089
23.7914 13.8236 8.9556
24.5483 14.5124 8.68538
16.8584 11.0944 7.85182
24.7177 11.6253 5.98663
25.5499 14.4991 7.34597
15.2228 9.54644 5.40678
22.4822 16.0185 11.056
30.1662 19.6761 12.6507
17.5696 12.7674 9.05295
25.7666 17.4427 11.7903
17.9746 15.581 11.8347
15.3649 9.52133 7.27642
26.2034 19.0141 13.6936
20.8675 12.7512 8.02173
11.7274 9.90455 8.99533
29.495 14.8348 6.91327
20.052 15.6716 11.6471
15.106 10.0852 8.37256
34.5996 22.6578 14.5071
26.0781 18.1246 11.8207
15.3657 12.8836 10.2098
14.6611 11.891 8.94815
7.32003 3.34521 2.53735
21.2884 17.6845 14.6808
47.7473 35.0174 24.7384
13.6325 8.9084 6.65311
19.2415 14.2597 10.9421
35.3649 23.2741 15.0068
9.006 5.89412 5.44263
26.9652 18.7991 11.3833
13.7687 11.1906 9.201
19.7814 12.5457 7.24417
18.7025 15.1643 10.7908
13.2746 12.5342 10.5227
20.1799 16.4397 12.6921
19.0332 14.9497 11.6896
25.3605 18.0597 12.6412
25.9047 22.5307 17.7622
14.3196 11.6985 9.77842
14.2017 10.8467 8.92926
24.7374 17.9866 13.4194
10.5199 5.79372 4.70659
19.0692 17.6542 15.2883
13.839 7.6134 4.95954
27.2209 24.0653 19.8892
23.9591 20.487 17.7648
18.0416 12.9738 10.9231
13.3875 9.01025 7.1703
14.1475 11.1824 9.47147
16.826 9.71528 6.9491
24.1975 18.675 15.1969
11.8513 6.76041 4.19348
30.8489 24.6073 17.7506
20.1721 16.3165 12.9163
10.5131 10.2978 10.6372
8.1439 6.52656 6.19397
14.0169 10.2952 7.71367
12.4538 14.7648 16.1531
40.0824 29.0552 20.4482
14.7855 11.8387 9.78238
16.402 14.2554 10.5328
7.20244 6.41362 6.26091
15.6321 10.6587 6.96805
16.9441 17.3905 15.0636
17.9011 12.867 8.27981
15.0034 16.7246 15.3065
8.09118 7.33051 7.90706
13.508 10.1013 7.76292
15.7786 16.8177 16.6958
14.23 13.3455 11.3686
12.5809 13.2372 15.3264
28.5004 24.8572 21.8109
16.0026 14.652 14.9762
14.7037 10.4696 8.55203
11.0275 10.1601 10.2361
18.348 16.3825 15.4967
15.3074 9.16213 6.63224
41.9601 40.3999 33.0145
13.3006 13.1435 14.8947
27.9626 22.1237 17.2029
19.6013 15.4394 11.5389
20.753 20.7665 18.2636
9.09508 9.48509 10.1847
11.6868 12.8778 13.9355
18.6997 19.026 20.3748
29.6562 24.0654 18.112
9.95501 12.6923 15.8274
25.6539 24.5476 22.8105
20.6937 19.5693 16.8028
14.7381 15.9123 18.1338
15.8211 14.1454 14.2421
16.4106 14.4734 12.9092
10.423 13.0581 16.0992
23.1231 21.7665 21.3901
17.524 13.236 9.6081
13.6237 14.1975 13.3558
14.6383 13.3697 11.7401
14.9595 15.7881 15.9861
14.3439 14.1836 15.8887
22.2606 22.223 21.3011
9.65643 8.10337 9.41022
25.0802 22.5637 18.5945
26.9958 29.7117 28.2262
7.58635 8.08403 10.2835
21.4395 27.7292 32.3537
23.3027 17.7063 13.4283
7.79181 9.25435 11.7179
19.9337 22.0895 23.669
10.7111 6.76099 5.77127
16.9351 19.3634 20.1948
13.4602 12.5325 11.8812
5.5976 6.18735 8.54426
11.5441 11.838 14.2104
18.4575 15.6253 12.9367
14.6196 14.8064 14.6832
12.976 16.1921 19.0274
23.1155 22.2515 20.088
19.2304 20.5658 19.7768
8.55029 11.0553 14.438
16.1019 21.1074 25.2814
14.4426 10.6389 11.813
20.3997 19.7451 17.8381
16.8886 21.4434 23.5372
9.97585 9.87562 13.939
16.3661 15.8642 16.4314
12.3235 8.54878 6.18348
21.862 26.3029 26.3226
17.0044 21.6318 26.7899
12.6352 10.2295 10.7732
12.9919 14.4325 14.0508
8.97431 10.3842 15.3551
24.0685 21.0689 17.0214
17.2131 18.9556 19.5515
29.1276 34.9553 35.2309
12.0244 18.9514 24.5933
12.0618 12.4603 15.4076
17.3456 20.1196 22.6066
5.07335 4.48558 6.32431
19.6345 25.2563 29.4996
24.9138 28.6821 31.4718
12.7093 14.282 18.1271
15.6808 21.6609 26.6375
10.1128 6.87171 4.95587
8.9426 12.4549 15.1536
10.1667 15.17 23.3574
23.997 23.2371 22.6679
10.6245 11.3921 11.3114
5.74429 9.05644 14.9466
6.25898 5.17061 6.1023
14.6955 20.1719 25.1227
12.0907 14.8432 19.6095
13.9733 14.174 18.495
15.786 15.6561 17.6539
16.5545 18.6592 17.6566
7.59468 9.27781 12.3429
7.81016 9.30748 12.3013
8.03992 8.61761 9.60432
16.9119 20.999 24.2867
8.71829 10.4558 12.5403
9.76557 12.5893 16.4842
7.18243 7.61419 10.6147
10.9658 11.92 14.7936
8.91491 8.86673 8.31243
13.1617 19.4611 22.2023
13.3656 22.7321 36.4659
27.1469 28.541 28.9128
6.11443 7.89523 10.8332
6.72878 10.2293 15.4796
13.1817 21.0041 30.1905
12.2531 14.24 19.6792
11.003 16.164 27.0718
16.5452 14.4613 13.7871
11.0729 14.1028 21.2163
20.0829 22.2588 26.4333
19.9543 23.4274 25.1459
15.8475 19.4152 21.6654
4.54174 7.16564 11.9833
13.7279 19.8325 27.3524
9.64424 10.188 11.2596
10.0363 13.8513 19.7131
10.5596 13.4764 17.6268
11.7952 14.0912 18.1811
18.0447 21.7212 25.2115
14.2027 17.164 18.5133
11.0548 17.0424 20.8042
6.46543 9.7488 13.8127
10.9506 14.6923 18.7219
17.3639 28.7461 43.2579
17.8162 18.8958 20.8433
15.244 20.4319 23.9502
3.22745 7.40472 15.5164
11.8872 17.2304 24.454
10.3355 13.1776 19.0614
10.8847 12.3663 18.3187
12.832 14.0924 16.4513
11.2948 16.9563 24.2696
7.89085 8.92614 14.0362
16.707 25.6947 33.3051
11.5779 17.6544 28.3101
13.8772 13.773 14.4367
7.55048 13.611 24.4207
10.8274 12.1754 16.3133
10.6557 12.0619 15.3616
10.8795 13.0643 17.9354
13.4491 18.6639 21.2878
6.16623 8.97118 15.6512
12.1401 14.5666 15.4503
5.79812 8.72155 11.7873
13.3558 26.8063 46.4426
21.8904 26.0693 31.9098
8.23242 11.2908 20.1927
14.8792 22.4972 32.7876
13.2879 16.5058 22.6523
9.68349 11.6875 13.7449
8.36423 10.9918 11.8458
2.14975 6.96002 16.3389
8.22255 10.7049 15.9973
11.254 16.0609 23.5133
7.21086 7.22087 12.3693
15.6104 22.4841 29.0151
9.68641 11.9503 15.8135
9.14518 11.7489 12.715
9.71877 15.516 18.2215
7.56985 16.1556 28.8849
3.9054 4.75845 13.2332
13.8973 18.6699 20.6452
4.77022 9.27363 20.6148
18.6831 24.4827 25.0983
7.34033 16.6182 29.1499
5.56078 9.34946 21.141
10.0611 12.6825 21.2518
15.22 17.8966 18.9068
11.3113 21.2024 33.921
8.13722 9.83807 11.4338
4.60021 11.4692 24.611
11.6181 17.5988 24.9829
11.8444 17.4676 23.3733
10.552 20.5767 33.2525
7.67218 17.7759 41.4603
21.548 27.0432 32.9033
9.3699 17.0686 28.6091
4.34083 9.86739 32.2452
16.0997 16.3481 17.6108
7.51424 10.6209 18.8587
15.9982 24.9059 31.8428
8.33613 11.43 18.6505
9.71341 15.4006 21.1773
11.7216 20.4633 31.0994
6.53581 10.4902 18.7667
9.24165 13.4981 19.6658
6.14924 11.1533 24.1431
15.2903 19.6548 19.7972
4.26279 9.13936 19.7429
9.04272 15.1121 24.1689
8.12836 13.0121 22.6257
10.9823 15.4001 22.7824
8.98534 12.2951 14.4032
8.09367 17.6391 31.7025
6.28636 9.61248 14.1543
2.29764 6.06668 17.2079
5.54986 7.70944 14.4873
8.98108 11.992 15.3072
7.28603 13.4355 24.9817
9.46914 13.825 20.3814
5.9413 8.9444 12.8471
6.53275 12.8245 24.9254
11.1298 16.0913 20.8699
3.72943 6.36732 10.31
3.81726 7.5235 16.4605
5.78436 7.20216 7.78399
3.61387 10.7542 25.4023
7.19226 6.16888 5.14191
6.02084 12.4074 21.5343
6.55063 11.1876 17.8887
7.59328 16.0015 26.583
5.20261 12.5076 27.3136
8.5752 19.1744 46.6074
16.1686 16.9032 17.8091
4.17783 5.98858 11.446
8.2225 12.4736 16.3876
6.92161 15.0273 27.2714
7.90921 17.2128 36.357
8.49295 9.66675 15.6842
8.89521 17.3755 30.7179
11.4034 21.0194 43.2534
17.0803 22.5081 21.138
4.2415 12.2425 26.223
4.24967 6.42729 14.0174
5.85952 9.87787 17.5077
6.99427 13.2082 23.2677
5.70204 7.76319 15.1306
7.66409 13.9408 22.2902
6.4674 12.0581 18.5004
2.5337 4.01268 8.88978
4.65005 7.72115 11.9989
5.51397 13.2291 29.6084
10.4076 20.5272 38.2574
15.2846 26.995 42.3309
7.71738 11.8966 21.3888
9.89664 19.5558 30.8501
3.03712 7.46333 21.9713
6.84941 8.67462 14.1991
6.20299 13.3217 29.8421
8.13564 12.6127 16.7482
8.66193 22.8043 52.3444
8.6019 7.39592 13.4638
10.776 19.7144 28.6126
4.65336 7.60667 13.7067
7.24066 16.4688 28.4803
4.35044 5.62652 10.1507
5.03007 11.5903 17.981
3.44417 10.4985 25.974
8.23806 15.6308 27.0065
5.42278 15.059 37.9601
8.7803 12.1143 20.879
6.85972 16.7651 37.6957
7.25179 6.99535 9.53917
4.57009 10.684 29.6169
9.79531 13.3785 17.6875
6.1419 15.1334 34.9009
5.52663 4.4807 5.19434
3.3949 7.24581 21.3637
11.7425 17.9732 20.8992
3.83788 10.2849 26.6166
6.04942 8.67738 22.6984
12.2858 19.2033 23.9253
5.99842 12.1034 18.5179
7.74037 17.416 27.2037
4.39623 16.9134 48.0559
8.04039 11.0111 23.0051
6.6293 8.77777 13.5263
5.21908 9.73765 17.018
3.84518 8.43129 22.4009
9.3044 15.2955 22.6104
8.65481 16.7201 23.9547
1.89039 6.90904 22.5292
5.52613 9.67639 18.1798
6.38668 12.6948 22.4942
5.74776 13.5334 25.6902
3.35534 6.49765 13.6798
3.53711 9.87851 29.256
7.78314 13.1325 19.8071
3.64188 8.72652 23.0343
8.58858 19.5243 48.1697
12.4324 18.3684 21.3215
4.13301 11.1467 30.5932
7.32061 10.7315 17.5291
8.73716 17.4587 20.0725
2.97501 11.5086 28.4073
5.22932 13.1887 32.9765
6.68453 15.4327 37.091
4.98294 7.0683 25.018
12.8415 28.4219 52.2698
8.40453 16.4387 42.361
11.1058 16.501 23.8706
4.68956 7.78697 14.5067
5.8731 12.7594 20.7059
4.48463 14.0198 39.5618
9.19694 12.6139 18.4723
4.7145 9.22933 19.99
6.17139 12.4702 21.4901
4.9018 13.7116 39.1823
9.76105 12.7461 14.5183
4.34598 10.7562 24.5185
9.12158 20.3235 36.7751
7.77159 17.3533 29.4207
3.41354 8.18211 22.8402
3.93212 8.42551 21.434
6.02861 11.9669 27.434
7.19249 15.1274 28.3528
5.0859 10.6684 18.5225
2.58677 8.69795 27.7047
5.5079 11.2724 36.1241
10.9943 15.4068 16.4299
3.81056 13.7558 40.9588
9.55171 13.9332 23.0711
8.72017 21.9503 42.2411
4.82338 6.73953 10.5447
3.12904 11.2811 28.4677
4.94313 7.55259 15.2348
3.46626 5.90774 13.3459
5.81602 10.0761 11.7207
5.70681 19.4432 41.3447
4.86916 13.5231 38.8464
6.18689 9.95727 19.7154
6.07678 15.4568 31.9539
4.76045 11.8396 30.1962
5.20365 9.1463 16.3732
3.77662 11.438 30.9655
4.47747 10.2416 36.4706
8.41985 14.9552 29.4817
3.77939 5.69275 23.4091
10.3469 16.9178 18.2115
7.79399 23.8726 45.6848
3.36805 6.56301 17.1543
2.61694 4.6851 13.5302
2.86356 7.40065 21.3144
4.85577 10.314 28.7768
7.39217 15.2494 32.4945
8.05237 16.1134 25.3787
4.36523 14.2915 41.6757
7.26228 14.3948 37.8954
11.008 22.3367 39.3374
5.83048 12.8286 24.6894
2.14493 4.47906 20.9843
7.59332 16.2967 28.7147
3.44172 8.49266 26.5388
7.94793 19.6866 42.5673
6.33811 13.8482 30.6188
3.93809 7.85961 21.0133
5.06162 10.0798 19.1061
3.70236 11.4949 33.6085
6.10267 11.0764 20.5957
4.46042 10.0126 17.4365
4.1319 14.6157 35.7258
5.18906 12.7818 34.4971
5.41603 10.474 28.345
8.4757 18.6105 36.5409
5.36521 13.4216 34.1468
6.3001 16.912 42.2688
6.14004 15.9622 45.811
6.28462 9.10472 21.6913
5.31169 8.89678 16.5548
4.53534 8.69271 13.5324
1.72999 8.6287 38.4738
9.25215 14.8783 27.9396
8.83287 20.5979 33.5456
2.23381 3.91941 13.9488
5.50168 13.2494 22.8868
3.3562 9.5816 23.7116
5.94246 17.0782 37.6645
2.996 6.78856 26.1592
6.70754 16.3023 42.2685
8.70551 23.061 50.0091
3.32221 3.93112 16.1952
4.51869 8.46656 16.1569
2.80757 9.22424 30.1455
6.09666 9.28032 15.0717
4.56626 11.7883 20.6722
3.58704 12.5348 31.3164
3.48727 6.91608 14.9414
2.96372 8.00082 19.0548
3.57443 12.5092 33.4217
5.11868 11.1139 29.1238
3.93053 5.85791 12.5146
3.50286 10.295 27.4524
5.31529 13.963 42.3521
