# pn-170911/RbIIR-50-PTBB-1280-1959.psd
# Power spectrum* (dif=0,1,2) (really just |FT|^2)
# NOTE: only the first half! (symmetric)
# weeks: 1280-1959
# 3 clock-days, 1 excluded
# PSD: 1441
671.122 0.099281 0.0134921
16037.4 0.188657 0.0288844
118240 2.21594 0.0291731
16320.9 0.570964 0.0299868
44962.4 3.61164 0.0279644
7113.66 0.821146 0.0261272
2133.91 0.510737 0.0288024
4346 0.632529 0.0294699
2644.67 0.762809 0.0288739
1435.9 0.598201 0.0304782
1007.32 0.594112 0.0322585
1341.79 0.797925 0.0270548
620.492 0.39362 0.0275352
730.859 0.430027 0.0333802
727.22 0.639129 0.0320346
603.47 0.649994 0.0253401
358.303 0.659775 0.0293246
111.572 0.261065 0.0302675
351.716 0.505306 0.021458
285.731 0.347517 0.02332
460.288 0.70999 0.0393238
162.375 0.530622 0.023757
360.451 1.10089 0.021541
320.73 0.947552 0.0275693
554.356 1.13068 0.0454232
149.203 0.40532 0.0370793
636.419 2.23876 0.0541294
205.784 0.775755 0.0332414
263.279 1.22047 0.0460938
193.815 0.693813 0.0344083
136.127 0.728537 0.0313212
466.793 2.2713 0.0228131
279.886 1.42524 0.0402207
105.521 0.540104 0.0416871
184.517 0.886049 0.0494615
263.968 1.46709 0.0645504
159.974 1.14201 0.0238048
251.686 1.84397 0.0444532
285.38 1.76404 0.0305769
140.783 0.875393 0.0146646
428.435 2.81958 0.082955
102.508 0.911842 0.0495674
89.2067 0.750952 0.0216373
101.16 0.922882 0.021966
134.316 1.22739 0.0295455
50.9662 0.692263 0.0338865
144.043 1.46964 0.0414339
321.141 2.79711 0.0270393
536.558 6.02844 0.10222
134.882 1.47625 0.0447577
156.435 2.38014 0.0373101
225.137 2.98029 0.032714
249.623 3.36938 0.0915216
288.267 4.18154 0.0459548
387.343 5.65342 0.0570003
115.172 1.51348 0.0480882
123.326 1.46753 0.0449041
159.832 2.97941 0.0638799
131.699 2.21388 0.0781578
261.793 4.24687 0.0948932
300.281 4.9851 0.0842772
108.905 2.13125 0.0338007
253.765 4.06853 0.158004
126.694 1.94144 0.106376
269.216 4.94141 0.181584
167.701 3.28357 0.115298
426.959 9.79351 0.207394
39.943 1.07769 0.0565514
191.412 4.17363 0.12596
230.991 6.24384 0.161229
257.101 5.02571 0.1137
140.355 2.83001 0.157367
90.2826 1.7033 0.0341742
67.5388 1.60082 0.0552902
257.034 6.63465 0.166501
142.233 3.48957 0.118599
181.692 4.42901 0.240488
76.7989 2.27687 0.140159
153.288 3.87823 0.182229
258.847 8.27071 0.339164
208.369 5.72601 0.233284
123.479 3.5894 0.241164
151.945 4.33763 0.059754
304.019 10.5415 0.350815
123.134 4.96901 0.167185
215.867 6.33297 0.191879
123.959 4.50661 0.151897
80.2477 2.43075 0.0986531
56.5248 1.97747 0.0956651
96.2336 3.35521 0.225743
40.7191 1.76922 0.0514687
298.8 11.5984 0.409595
137.907 5.73734 0.260433
79.3837 3.90809 0.114601
101.873 5.73364 0.211115
77.9425 2.54714 0.183082
264.622 11.52 0.458284
409.509 17.665 1.01883
119.126 4.96156 0.183525
140.293 7.39405 0.462121
116.715 4.24217 0.185284
331.792 14.0509 0.634526
96.2306 4.72627 0.187233
76.4631 3.03777 0.17899
213.877 10.2253 0.482326
49.873 2.99224 0.158226
117.1 5.59681 0.319462
104.227 5.78545 0.353328
87.208 4.07253 0.31999
170.521 9.04952 0.543076
185.892 9.95298 0.766203
122.154 6.28168 0.516427
190.871 12.0527 0.78087
354.199 19.7782 1.3155
113.057 6.95321 0.485585
83.6283 4.97134 0.434619
124.954 7.62802 0.366887
25.832 1.33978 0.112793
99.9805 6.70858 0.418936
126.985 9.09917 0.7918
19.6254 1.32527 0.0814422
96.4365 6.6489 0.579238
129.643 9.25559 0.957002
86.2754 5.37061 0.444434
55.5108 3.77376 0.23597
83.7991 6.12645 0.44462
66.2603 5.06293 0.568813
11.5414 1.11192 0.116866
111.808 10.2009 1.01538
167.345 12.2273 0.836827
219.659 19.9547 1.46954
73.7206 6.49289 0.528836
139.041 11.4234 0.958839
15.3629 2.33571 0.241531
166.515 12.9068 1.04425
200.38 15.3524 1.47496
95.889 8.73858 1.08981
34.1759 4.03902 0.532873
240.834 18.9754 1.64068
201.447 18.9706 2.22908
35.7369 4.74406 0.703752
254.216 21.4056 1.85201
66.5371 6.58708 0.801334
58.9211 6.52892 0.70666
81.9922 8.49505 0.985846
25.6317 1.79521 0.252905
230.358 22.7569 2.04781
55.8127 5.55556 0.384446
47.4769 4.66139 0.561934
31.8125 2.4047 0.257031
57.2757 6.35241 0.932083
71.1275 6.64228 0.529113
131.851 14.2031 1.8306
68.3534 7.43015 0.865314
58.7264 6.93896 0.723049
62.6194 8.39181 0.82394
45.1125 6.05553 0.909736
229.614 24.1165 2.61681
37.9057 4.50153 0.565827
62.1153 7.49355 1.01486
59.6836 6.09475 0.809291
60.6376 7.60169 0.811021
111.052 13.0819 1.51244
284.6 34.3406 4.42048
90.7984 12.6499 1.73391
55.2344 5.87359 0.843016
79.1412 10.7013 1.26669
111.578 15.9004 2.11716
64.6722 8.03316 1.20933
140.668 19.9141 2.64586
108.791 15.3152 2.26117
259.942 36.0385 5.71694
169.696 22.0187 2.72156
177.593 27.9597 3.78689
150.607 20.4048 3.25565
124.705 17.5182 2.38846
56.2341 8.49859 1.26425
178.671 28.0529 4.81601
182.593 24.4944 3.49618
89.2024 12.8459 2.06793
149.134 22.0071 3.42074
262.629 46.4235 7.32912
89.7458 14.5015 2.91751
303.783 42.9963 6.13386
236.525 36.3656 5.25585
117.413 19.7146 3.29289
53.2765 8.90201 1.39422
140.43 22.5441 4.00551
43.8304 5.81377 0.94007
60.2798 10.4565 2.01221
94.1874 15.1696 2.50968
133.349 24.0145 4.56393
164.904 26.6311 4.02623
115.812 16.6261 2.70157
87.1093 15.7268 2.87128
32.5791 5.81427 1.3924
64.1086 11.0651 1.98469
92.0318 17.4897 2.87349
75.3011 13.5257 2.71074
100.173 19.291 4.04107
60.5081 8.7119 1.25702
155.397 30.4188 6.74461
28.1776 5.24123 1.06274
72.769 17.1574 3.86802
120.632 21.4542 4.10938
135.146 25.8411 5.09155
138.607 32.8594 7.62183
160.062 26.3416 3.90594
55.3827 11.1309 2.12839
112.585 25.1318 5.24601
57.0065 10.3814 2.41913
31.0362 7.58329 2.15428
66.0508 16.8779 4.39515
140.483 28.3033 6.14146
43.3387 7.51397 1.48922
55.6435 12.1885 2.72163
116.409 28.9996 8.31987
181.657 36.0927 6.39667
136.386 31.9345 6.93873
117.426 25.2784 5.25137
78.0714 18.3235 4.9799
63.4592 15.5514 3.56831
86.6544 20.8187 5.98796
251.226 55.282 11.4066
26.0597 7.0957 2.04992
19.5035 5.88994 1.58608
167.403 41.0941 9.8229
81.18 17.2637 3.68947
154.089 42.7763 11.5825
94.3892 21.8611 5.56294
84.9043 20.7945 4.82715
37.7811 8.39579 1.63572
88.3151 21.3357 5.73714
175.373 45.3797 11.2448
63.8395 15.2262 3.32583
48.4314 11.2921 2.86881
114.625 29.9786 7.90159
36.6027 8.02452 2.13452
40.4112 10.3489 2.78769
113.067 32.6949 9.77618
138.194 34.8597 8.95552
72.9495 24.3969 9.04127
87.2306 17.8325 3.65043
93.7313 25.679 6.19369
46.1052 15.6354 5.17083
130.628 36.5325 10.7627
47.6156 13.591 4.00936
14.1399 4.50319 2.01861
170.829 48.8089 13.2621
49.9913 12.5454 2.74755
54.9821 16.6892 5.15272
29.0801 11.4063 4.48058
90.2188 25.2061 6.82769
53.4743 15.9526 5.62561
47.4077 12.1472 2.58773
27.3987 9.90918 3.90324
59.981 14.5557 3.12455
84.07 28.0006 9.12478
111.191 38.3561 12.0384
99.6106 27.9446 7.64241
61.0253 21.3976 8.0055
85.1182 25.9649 8.3713
103.428 34.1015 10.4102
19.0593 4.94238 1.54588
69.541 20.4217 6.07105
19.4693 6.86306 2.70681
54.5816 19.7287 6.73777
66.457 19.9995 5.23572
38.3345 16.5466 6.2264
57.1347 18.1446 6.23333
66.7916 20.0791 5.90719
34.4161 10.3746 3.58416
28.5449 10.3687 3.96002
42.4198 11.9916 3.33027
60.2818 20.0893 7.32428
57.2331 20.9385 7.90137
19.2598 8.89765 3.87845
43.8604 14.0836 4.62332
85.3163 38.4816 18.0005
157.65 53.2498 17.9651
53.9792 17.9897 5.91599
110.769 47.3033 17.6187
73.529 29.9518 13.1026
22.0207 5.87688 2.04198
58.8276 26.633 13.2708
73.3609 23.559 8.41047
215.514 89.7803 35.243
33.1298 5.6925 1.40355
79.7154 25.8536 8.2732
19.4884 11.9714 6.69171
135.227 45.3922 15.4975
82.271 28.9843 9.92296
118.414 54.0454 22.4038
53.8343 35.5552 21.4482
144.184 48.6905 17.0276
34.5264 14.7738 7.25649
62.7586 20.3785 6.28535
31.536 13.882 7.01772
42.0965 14.1077 4.49323
42.078 16.5742 7.56066
68.4148 23.8993 6.99676
57.2872 28.7077 12.5071
37.7583 10.2349 2.71239
38.7511 16.5674 6.77194
37.8824 21.0206 10.5527
78.1076 30.6861 13.0225
36.2224 16.1274 6.55025
70.0987 27.4801 11.4153
32.0472 17.6432 10.3925
116.557 54.0328 22.8164
16.5421 4.20796 2.26237
37.9649 19.6346 10.853
47.6124 19.0347 9.64828
65.1299 19.6954 4.59192
91.4307 45.7837 20.4359
60.2186 17.6171 4.21443
77.5268 34.6806 14.559
52.727 29.2254 15.9577
82.2677 34.9152 14.1117
68.4454 27.3832 12.1422
93.2171 46.9946 22.2805
124.623 49.3797 18.1029
32.3401 19.6888 11.0725
44.6105 17.7285 7.34087
72.7058 35.6253 16.8673
55.8657 27.2588 14.1147
72.8055 35.8976 18.1077
10.4994 2.91508 0.787458
79.9746 43.7234 22.5827
28.7632 17.9358 11.1605
32.8273 12.0396 5.32836
81.5341 48.0781 26.4587
32.2082 10.0196 3.70196
38.3385 23.0931 14.5953
67.2447 30.9445 15.142
35.5045 19.1104 10.9489
48.1275 23.3572 11.8734
45.3754 19.8778 9.30019
81.3908 38.8298 16.2108
37.1244 21.5037 11.2048
71.7792 35.3211 15.951
90.3048 50.752 24.162
59.1516 36.5432 19.6067
24.2417 12.6298 7.94915
9.10018 4.14949 2.75082
53.9063 30.9271 15.7496
20.2908 10.5838 7.90053
54.4448 28.4893 15.8684
55.5405 20.9313 6.58698
52.2784 24.7674 9.45853
19.0339 11.0944 5.942
88.4747 55.8939 31.2536
25.7737 11.6003 6.13454
63.1394 33.1753 13.34
34.1436 28.5052 17.4882
14.5475 13.7521 12.375
49.2158 23.1462 10.3571
25.723 12.6945 6.61945
22.821 13.1493 7.81649
97.008 61.1335 38.3874
61.3168 31.6844 19.8851
81.9022 45.2609 26.2843
72.4382 36.6854 20.7915
122.046 68.6349 36.0917
42.4928 19.6268 7.7265
31.1884 19.4675 10.3286
30.5232 19.1401 9.97396
58.5779 35.6769 18.9447
29.3502 25.7821 22.6804
60.7246 28.9227 13.4063
64.3612 37.2996 18.9178
36.3274 23.8415 13.0616
21.8132 11.0275 4.09893
69.0419 47.7534 26.7635
7.88033 5.63232 2.87906
70.6312 62.4174 44.7394
40.6469 17.0651 9.73245
66.3179 37.2685 19.0941
63.2708 36.5062 17.1737
40.2988 33.6956 20.4985
60.8553 50.0996 36.1799
55.7872 40.7072 27.5421
24.8882 15.7326 12.2228
76.7083 49.1622 27.0022
16.479 18.9643 18.217
63.1874 43.9129 28.819
49.5272 36.9915 25.183
35.5551 20.1789 10.7477
90.4396 83.5609 64.3256
118.91 74.9882 49.6828
19.0508 12.035 10.4856
10.798 13.3073 15.3493
49.7033 27.6807 17.5027
91.3165 61.854 37.0732
55.215 35.0006 21.116
146.869 131.829 103.236
52.0243 20.7968 13.3374
81.4096 53.0028 33.1472
31.6012 27.7653 22.8276
22.6022 14.2273 14.9467
75.8943 41.7563 22.7647
82.8624 65.4446 47.9176
42.5285 26.4119 19.8947
61.7134 47.9164 39.8167
44.5571 24.7825 12.4865
15.6315 15.5581 13.1303
19.6712 17.3003 15.706
44.7793 27.8921 19.046
53.6546 33.0199 19.0662
42.8339 48.0881 47.6075
79.8749 39.9414 19.7445
63.1478 46.1706 33.2794
46.9112 35.0454 26.4341
72.9566 59.416 42.5907
40.836 42.9299 42.9762
7.31485 6.59019 13.0716
61.0191 42.885 29.4877
37.5078 29.1145 21.9832
28.6744 19.7634 17.061
38.0033 32.0339 27.0022
25.6244 13.333 7.64086
40.5225 31.648 20.1614
16.1234 18.8783 18.4919
11.6686 7.98681 8.82326
23.2524 20.2787 22.9066
74.178 54.8842 43.0913
83.9501 61.4386 38.109
35.9701 32.9689 25.0568
11.7829 9.43357 11.5663
60.3951 60.6775 57.7325
63.1857 36.5115 18.6101
47.8177 48.3893 40.8592
40.3046 30.1892 21.3216
25.5472 20.1413 16.2203
44.2447 35.2529 28.7967
43.8795 37.8039 33.0627
69.4596 52.251 30.6594
13.8716 20.3948 21.2782
27.6455 19.7093 16.1072
53.4757 45.8061 35.5128
28.4287 33.7283 32.623
34.7126 42.6533 49.8954
87.2725 66.5771 49.6558
21.4262 12.7961 10.5013
20.4795 13.9732 9.52221
23.4497 23.2122 22.4853
28.442 27.8484 26.5196
45.2286 29.339 15.7976
21.8482 17.7637 9.4083
23.8519 27.4281 21.6423
53.9203 65.7677 61.9531
16.5039 35.5619 58.3265
100.925 66.1694 40.8342
2.52702 2.53365 6.78864
55.5448 46.9238 35.343
9.65432 13.6244 18.8404
48.2043 44.0558 41.3426
41.2822 37.2844 34.2764
30.6957 26.4629 24.2848
30.8175 28.8143 27.2496
11.7407 5.99117 5.75618
8.17479 4.35791 2.94537
30.6808 32.7196 31.1597
16.5348 16.7295 19.3848
25.8757 21.1903 20.4297
18.331 21.0292 27.4024
57.9919 36.3743 18.2425
21.3102 24.9845 24.3702
34.4167 28.4573 25.5498
51.4636 49.3635 41.7285
8.07951 9.77772 12.0997
9.83271 11.8744 15.2423
13.4223 11.2679 11.6972
34.7904 26.5019 17.7736
10.6297 10.2846 13.357
69.0727 72.7177 63.0725
40.3843 43.1615 40.8903
17.8787 28.5204 37.0121
46.3121 45.4496 47.647
29.343 22.4591 18.8733
29.8543 37.1618 42.5062
25.1979 26.5173 30.1051
7.39326 3.06059 5.78596
15.9538 11.6803 11.1966
48.7439 61.6701 71.6693
38.7026 27.7727 15.6099
13.4063 21.6471 26.8151
16.769 23.5868 42.9819
62.5521 44.5895 23.765
25.7549 31.568 29.5009
45.0552 57.6683 66.1129
37.7229 36.3866 39.7388
36.4713 41.3223 45.6012
41.8475 40.5255 34.6512
37.6781 55.0648 70.1282
25.7531 14.5024 14.1991
33.0307 34.1727 31.7092
8.32859 8.85862 16.4659
36.3376 34.8998 32.6334
9.75288 7.58741 5.58797
3.48863 5.11852 6.37478
10.0511 16.6072 25.6741
47.8811 58.6679 62.8282
8.81218 5.12907 10.5407
17.3023 10.6165 8.3789
31.4141 34.3672 34.4246
31.8601 35.1556 38.8422
36.6115 33.8597 25.7499
31.5184 47.4033 56.0267
22.9498 21.934 23.5393
15.7201 20.0354 27.2762
14.6371 17.4656 27.0132
34.1553 33.5013 28.1229
22.5968 32.3717 44.1151
28.4908 30.8096 39.5852
43.3681 41.5868 37.2606
15.0809 12.5072 8.69844
5.39989 9.34433 12.4185
28.1788 44.2014 64.091
30.2409 22.6 14.6409
16.1552 26.8695 34.6418
14.6332 16.7812 23.7652
46.5994 61.4678 77.9351
30.5983 34.3575 43.608
28.8004 25.6831 31.0597
41.93 43.8109 40.2235
12.3115 9.82744 8.11748
11.2305 12.861 18.5113
38.1595 40.9848 35.0265
30.2332 46.338 57.1654
26.2634 37.2767 49.789
24.2064 28.2297 38.0773
17.3053 19.376 25.3811
11.8189 16.9692 29.9056
36.9632 39.6661 40.7273
13.7295 15.9083 28.544
46.2007 48.886 41.0085
7.48865 9.0647 9.70132
4.74576 7.51977 15.6756
11.0935 8.10081 4.80038
20.6617 29.9832 33.7643
24.7129 39.8513 60.012
37.5934 33.2316 23.26
6.49893 16.8636 31.7142
44.4114 54.7375 61.2565
18.7696 18.0253 17.3981
13.148 24.666 36.2397
20.0766 27.1117 37.3588
20.6616 31.0206 50.6697
39.9722 31.7984 22.2654
41.102 61.3869 69.1417
14.2247 17.1488 20.3464
18.602 36.8783 65.7959
57.1586 64.0594 56.4121
3.70023 15.7687 36.0587
21.2477 23.1495 27.8509
14.6443 20.5021 29.3891
17.5659 26.685 36.3547
7.45144 3.06731 6.86462
24.9108 30.9364 39.1643
33.8849 45.4241 53.0081
18.3267 24.6415 34.2211
16.8384 17.7728 14.7606
23.2913 42.1464 62.9359
34.4922 50.52 63.7499
12.1129 27.2973 66.4786
37.5275 28.6853 20.178
42.3798 69.6672 90.5679
24.919 24.7466 24.7446
12.763 20.2669 27.0472
7.16982 13.0422 23.1097
16.424 29.1867 43.5121
9.24233 9.15554 13.868
6.28998 14.8795 35.9373
29.0011 35.3603 46.1717
12.567 20.9415 49.5866
46.7206 53.5853 70.6375
71.685 87.8497 94.2513
29.872 39.8797 51.9191
15.6939 26.2245 49.8468
43.057 57.667 64.0974
25.0569 41.7089 67.0523
36.9621 52.0963 68.4767
19.239 25.9065 38.9391
8.22547 13.6946 34.8019
31.6573 34.0257 31.7295
44.6797 76.5486 104.042
13.7267 22.4754 42.3987
11.1109 12.8357 25.0926
30.6341 61.3593 117.787
44.2522 33.826 23.4668
21.7117 35.9204 58.2899
39.5727 53.6606 73.6355
53.2062 65.0546 60.106
9.53815 20.7444 33.2474
2.79902 6.28253 18.4382
9.29666 9.18741 14.0996
13.299 15.176 17.408
16.8061 26.2635 28.2287
7.01558 9.58169 15.2756
32.727 52.818 60.1
8.37658 20.0229 34.4301
13.5081 38.0695 74.9928
17.7328 24.2676 46.5743
6.67224 1.2007 4.87363
16.099 26.262 41.6063
7.33216 15.688 45.8417
24.8854 31.3768 46.0445
16.1684 17.579 35.6746
29.6424 34.8076 28.2743
11.1858 20.6838 29.9715
7.83887 9.97557 21.3836
42.1161 72.9222 97.4652
21.9218 29.6204 39.6648
10.2215 19.0536 39.7022
26.0799 41.6505 61.1787
6.71668 8.74023 18.2526
5.17096 7.24235 15.2174
8.13672 16.4676 31.387
20.5192 59.7952 152.178
50.8783 44.5567 37.972
16.5851 14.3473 4.4197
17.0578 33.9531 54.6218
22.4261 30.5553 31.0143
10.2343 23.1035 41.6955
7.21878 11.7108 24.9664
9.30169 20.2134 59.6078
30.2201 28.2347 22.77
38.208 71.645 84.1091
4.8811 18.8784 53.9212
25.8717 35.8647 50.9473
8.0705 4.51762 3.77567
12.0771 25.23 45.7208
19.5985 26.663 29.2931
17.4582 31.1279 42.4444
11.9219 20.7494 29.966
5.44223 16.2311 47.4748
23.6239 36.3789 43.0648
5.6163 9.6449 34.1588
52.2921 91.8835 103.395
4.33534 31.1107 86.3743
15.6895 25.4366 59.4142
12.249 6.55666 10.1063
8.30682 16.2713 48.7652
28.8177 29.7845 25.5372
28.5489 65.3594 115.914
10.1109 3.70602 12.7266
19.0478 28.6489 37.0863
10.5751 23.8945 54.5949
23.3562 35.3458 52.2078
15.178 30.444 58.1248
16.1853 13.9347 22.3023
25.0152 40.1747 57.6385
20.5907 33.9006 53.7802
17.4505 25.7847 27.2804
15.921 34.3544 47.818
9.84939 25.6922 57.5449
17.6988 37.2059 80.0492
17.4022 16.8586 22.0389
18.3015 27.4315 29.3849
8.00462 15.2281 14.9151
8.26001 24.9847 46.1852
14.0198 27.7908 43.2258
4.1558 8.55235 25.6079
18.1094 30.5874 46.6966
14.5902 30.2401 53.2625
14.1215 30.1542 50.0304
2.23912 2.50906 12.4938
9.44086 23.1711 50.9788
10.8038 13.2164 13.9761
0.78845 4.51971 19.4178
11.1886 16.1724 22.1924
8.39104 23.5401 47.3191
9.79536 17.6378 31.46
2.30116 1.81008 12.7443
9.58838 22.9411 68.0163
34.3687 47.868 52.2433
3.03218 9.71918 32.7258
10.7424 9.01485 6.86887
9.13463 21.5016 45.6243
22.1844 38.8046 56.8649
21.0207 50.4589 102.964
15.2667 20.8746 40.4622
8.81474 20.0046 43.2129
6.11774 4.44277 14.6055
15.0047 26.3723 49.3909
9.21735 12.889 34.2898
18.9817 29.412 34.447
10.5843 21.3135 30.6685
9.65987 33.8829 84.4672
8.36807 4.16287 11.8215
15.3962 40.6377 102.072
18.8327 12.46 11.7594
21.4079 38.6366 68.8259
37.0443 77.4591 124.899
17.8747 17.8763 8.95738
13.0165 35.9974 63.3241
19.9108 39.5915 62.0324
25.7133 70.234 127.08
9.37771 23.6336 65.2605
9.73784 15.1883 40.9437
11.423 23.6039 61.3558
19.8473 39.0504 69.2985
3.73323 12.6148 60.9542
16.9026 18.2196 30.8408
16.6228 36.1372 73.9476
21.1487 59.6052 163.303
26.8819 19.0731 30.8551
24.1225 39.8316 47.3275
5.84536 8.25489 22.3495
14.8901 26.9585 55.7493
25.367 44.8155 55.2818
7.64337 14.9415 21.2173
3.47535 7.65883 12.7997
9.95762 25.578 50.9517
11.1349 22.6842 39.243
4.7568 10.174 24.6809
8.87732 21.5701 53.7738
16.7552 26.1168 44.9478
9.85134 20.9527 46.2258
13.6859 21.513 24.3135
2.64651 12.1094 44.7274
6.6812 2.26656 22.6351
35.564 79.6499 138.559
23.8748 34.2374 29.8536
2.15617 11.5337 31.5659
12.6382 38.4256 87.2415
13.8554 17.7796 23.8618
4.08144 10.2663 32.0498
9.93917 14.0692 9.77282
5.07674 17.7434 38.1953
11.7727 31.1819 53.9608
3.33816 13.815 46.9441
7.50017 12.7033 42.1178
11.925 18.0679 20.2205
2.43558 9.35887 36.576
10.3089 17.7611 22.6504
3.54332 11.3919 32.8866
8.92147 23.9734 70.569
21.9323 38.6586 53.8844
6.93496 9.67489 12.9209
8.96329 28.181 60.6638
11.3973 23.4347 52.5414
12.8287 23.4611 27.5232
5.08186 17.7417 33.5608
2.34762 6.24126 21.3686
7.79825 24.9339 76.5918
27.4975 57.9303 92.7279
10.2965 33.9545 123.155
31.548 49.2803 60.258
7.12306 22.8627 60.0222
11.4698 17.9296 26.0217
6.77676 18.9135 38.0338
4.56271 15.3845 45.4336
9.91426 19.5865 40.5954
4.09012 9.76508 28.3054
3.97092 11.553 39.3031
6.66422 11.9704 48.9138
14.4225 23.1787 56.962
18.7847 39.3962 59.2765
3.47259 8.87449 39.7759
9.3424 13.0632 35.4594
11.642 17.1711 40.0063
13.6767 18.8854 22.9648
7.464 15.3713 38.4888
17.7187 43.9431 83.6413
12.3235 19.8071 41.3112
10.8687 16.8471 24.2961
12.7166 36.6418 67.9392
7.48486 18.5025 65.1862
24.4767 55.1017 91.3224
7.74534 18.19 59.2441
17.531 36.8798 50.7793
3.65673 15.8225 53.1189
15.2465 34.1968 72.1131
8.56382 14.1421 20.9331
2.64251 8.43048 31.0072
5.57527 8.25386 34.8811
30.6513 89.3917 198.359
28.1367 55.127 88.4515
4.80599 13.2956 51.0309
6.0396 10.2404 30.5577
6.59274 17.9223 77.2859
23.5368 46.5534 64.8147
7.61774 22.585 58.9706
12.6396 35.6067 78.9142
7.84526 16.4931 48.8869
9.96879 19.6145 56.2758
13.0947 22.6813 39.0688
4.95316 14.196 49.4254
16.1077 38.3834 92.5468
14.1385 21.9903 32.8996
9.70411 30.1135 77.1228
10.0485 13.749 18.9956
3.22987 6.48073 17.4121
5.09207 14.7644 60.7029
23.9751 57.2937 100.411
8.29459 25.0425 76.4523
11.037 20.7321 66.8297
14.8956 22.5126 31.2845
12.987 31.4079 52.3775
10.9843 38.2663 104.121
22.7555 55.0315 109.523
13.5168 30.8743 66.2185
8.97465 20.716 35.6659
4.19444 27.0445 92.1288
8.37659 8.63203 34.1442
12.5698 34.1815 81.0243
8.69849 19.4736 50.4383
7.62815 14.1268 33.4826
7.36282 26.7517 86.4211
10.007 13.3435 35.6226
9.57778 30.6184 106.858
22.3848 31.5497 32.0196
13.7453 49.0852 90.9589
2.99205 33.2897 164.841
15.8229 18.0801 105.747
27.1722 34.1983 47.8674
15.9313 23.6513 37.5257
21.9799 58.9528 108.783
17.7147 45.828 78.0114
9.03927 28.9742 59.5255
5.96857 20.4835 67.0091
12.0339 26.9904 66.6834
9.13441 18.1921 36.6912
