# pn-170911/RbIIR-41-USN7-1280-1959.psd
# Power spectrum* (dif=0,1,2) (really just |FT|^2)
# NOTE: only the first half! (symmetric)
# weeks: 1280-1959
# 484 clock-days, 50 excluded
# PSD: 1441
287.024 0.0613767 0.0300904
15616.4 0.356497 0.066319
55012.8 1.06809 0.0666485
14122.9 0.55238 0.0703548
20763.7 1.51105 0.0703036
5196.75 0.515802 0.0750687
3350.98 0.48875 0.0720256
2223.43 0.467112 0.0733137
2341.62 0.612872 0.0717963
1559.38 0.52059 0.0644001
1226.32 0.501155 0.0698046
1039.86 0.513267 0.0710772
990.35 0.612801 0.0675904
763.504 0.517353 0.0686994
833.027 0.692295 0.0703561
611.175 0.571658 0.0696047
609.914 0.648208 0.0785537
575.701 0.699566 0.0707748
572.393 0.781442 0.0735418
457.028 0.717584 0.0704173
532.712 0.905087 0.0706605
384.291 0.722545 0.0732697
424.056 0.894008 0.0668843
371.334 0.88396 0.073411
448.268 1.1423 0.0725006
366.593 1.03109 0.0716755
436.758 1.29439 0.0715151
346.213 1.13238 0.0771898
373.347 1.30405 0.0770772
342.529 1.28259 0.074924
376.809 1.47889 0.0767048
315.614 1.31186 0.0775773
333.69 1.6163 0.0736157
307.59 1.46753 0.0764281
323.405 1.7103 0.080047
314.347 1.76371 0.0836642
338.451 1.99154 0.0789712
302.663 1.86505 0.0784873
319.913 2.13899 0.0836878
267.787 1.85604 0.0857824
322.715 2.40788 0.0901273
303.481 2.26737 0.0840942
322.533 2.50101 0.0907304
294.002 2.5299 0.0911231
308.108 2.67923 0.0946967
286.163 2.60816 0.0917459
301.659 2.97597 0.102699
277.648 2.8269 0.0974318
322.652 3.43397 0.111903
258.072 2.82922 0.100678
277.149 3.18168 0.115218
260.599 3.12582 0.108876
288.723 3.61745 0.111546
276.906 3.63083 0.12184
293.166 4.00799 0.127871
250.475 3.49224 0.12169
249.58 3.67881 0.12504
276.501 4.21107 0.122781
257.265 4.02073 0.124429
249.773 4.01869 0.129414
266.315 4.46101 0.147122
262.247 4.50804 0.158535
253.238 4.50605 0.148596
237.384 4.44404 0.15309
250.319 4.71056 0.167892
247.045 4.82397 0.170792
252.364 5.17875 0.162598
240.891 4.97663 0.169655
233.121 4.994 0.175613
231.414 5.13706 0.165759
262.547 5.97321 0.211907
255.307 6.01582 0.213698
225.331 5.45241 0.204893
255.24 6.27186 0.226525
225.93 5.88192 0.217899
212.528 5.65851 0.209151
233.671 6.22393 0.257366
254.57 7.05623 0.259807
239.915 6.69911 0.275609
201.874 5.95018 0.249519
241.799 7.29034 0.308685
210.068 6.43176 0.267405
213.191 6.72708 0.294465
226.088 7.24855 0.304018
238.126 7.79671 0.331317
198.144 6.6761 0.287999
207.55 7.03501 0.320934
214.875 7.59812 0.33633
204.17 7.30599 0.317193
186.578 6.98164 0.349669
206.634 7.86521 0.371434
218.524 8.57127 0.401385
221.069 8.55635 0.390736
198.997 8.01348 0.396693
177.628 7.19319 0.352566
186.813 7.96942 0.383285
237.954 10.2653 0.505748
200.849 8.87509 0.44816
193.717 8.77652 0.46522
187.863 8.60453 0.46286
197.759 9.15331 0.499833
184.724 8.80717 0.51453
185.038 9.08101 0.518701
185.61 9.1526 0.527019
178.294 9.26975 0.534509
177.637 9.14075 0.512992
169.54 9.07907 0.532847
200.761 10.8444 0.647315
178.462 9.86547 0.617577
183.619 10.0295 0.638389
165.83 9.40461 0.571525
167.071 9.55296 0.619348
169.955 9.84308 0.629282
169.945 10.2736 0.702861
186.34 11.4711 0.744604
174.741 10.997 0.740347
188.385 11.6308 0.787088
155.582 10.0837 0.720695
168.805 10.7548 0.782089
169.899 11.4951 0.826703
183.586 12.4921 0.903965
160.223 10.7784 0.789421
147.568 10.2574 0.782608
146.804 10.3959 0.78283
171.017 12.3746 0.964052
152.828 10.9001 0.839538
165.937 12.2726 1.00036
150.373 11.2877 0.919948
158.725 12.2498 1.00859
160.207 12.1853 0.973754
152.899 11.9319 1.02301
162.09 13.1189 1.12707
139.734 11.4422 1.00201
158.283 13.3073 1.16023
143.824 12.0752 1.07105
142.371 12.3734 1.08691
132.968 11.7022 1.06542
144.55 12.8246 1.17275
133.554 11.8327 1.1011
150.705 13.3788 1.25823
144.434 13.0362 1.23627
136.447 12.7379 1.25247
128.894 12.0328 1.16406
129.028 12.4844 1.25834
159.979 15.8234 1.62935
145.319 13.9063 1.38599
134.369 13.5136 1.37109
132.967 13.2566 1.39029
136.475 14.0656 1.53571
124.363 12.8683 1.39992
137.574 14.5985 1.58726
126.196 13.4783 1.47805
127.787 13.3469 1.46541
129.061 14.7314 1.67194
133.615 14.7295 1.64643
136.122 15.837 1.88412
142.434 15.7603 1.8268
117.81 13.4288 1.61571
123.937 14.2871 1.71723
110.848 13.0484 1.59285
113.245 13.7984 1.70319
127.227 15.6343 1.95586
115.64 13.9703 1.75336
112.321 13.9463 1.73671
123.876 15.7519 2.06685
118.265 14.8418 1.90254
106.099 13.4315 1.74659
116.662 15.488 2.07643
133.422 17.7064 2.37943
114.842 15.0246 2.01009
107.455 14.5268 2.03001
114.061 15.4991 2.12196
120.934 16.7111 2.34694
107.117 14.775 2.06471
104.235 15.0576 2.23879
121.137 17.0765 2.42385
104.475 15.0065 2.20189
97.8133 14.3085 2.15772
113.803 16.6356 2.46006
111.245 16.6989 2.52601
103.287 15.4318 2.34253
109.307 16.8743 2.63426
94.7245 14.4791 2.26291
98.9718 15.0759 2.36659
100.167 16.1708 2.60103
100.202 16.3984 2.71898
106.56 16.8578 2.73385
102.115 16.997 2.81835
105.207 17.4211 2.88154
100.406 16.8883 2.85946
94.9971 15.9229 2.73172
102.75 17.7411 3.11027
131.886 22.6544 3.81107
106.985 18.3529 3.17324
93.6971 16.1911 2.84045
96.1747 17.1419 3.08398
95.2751 16.9456 3.10364
93.5746 17.1529 3.14553
85.0943 15.451 2.89026
94.5457 17.0582 3.11449
88.6209 16.6632 3.17551
90.9715 17.3847 3.34023
92.5894 17.8616 3.46216
92.3887 17.7167 3.38951
92.2974 18.0463 3.56022
101.033 19.3754 3.7774
92.7993 18.2647 3.65845
94.22 18.5346 3.73074
92.493 18.7216 3.87219
88.7331 17.8796 3.61579
82.4552 17.0438 3.49166
92.799 19.4934 3.99272
87.096 18.1935 3.82173
78.3179 16.4442 3.53578
84.7449 17.7795 3.70587
88.2836 19.7936 4.38253
91.0679 19.0332 4.04479
83.635 18.4412 4.15621
85.0902 18.7975 4.19157
79.2791 17.5123 3.8976
88.649 20.3985 4.72536
82.9304 18.5266 4.08901
90.5027 20.8285 4.76563
90.8861 20.772 4.75278
79.7899 19.0203 4.51949
82.5873 19.2668 4.46892
79.6592 19.2747 4.65355
76.2729 18.3121 4.46167
86.1561 20.4992 4.95278
80.9619 19.5984 4.72033
79.0253 19.2459 4.62899
74.3582 18.3974 4.66404
73.4042 18.2784 4.5961
79.2922 19.8749 5.02757
72.6488 18.8197 4.93956
82.1272 20.6341 5.22529
75.0153 19.3208 4.97416
76.0283 20.228 5.39537
80.0124 20.791 5.39848
69.3288 18.5088 5.09891
76.1907 20.2748 5.3545
67.9522 17.9843 4.92653
71.4634 19.4823 5.36002
73.5452 20.4892 5.72655
73.863 20.2975 5.56967
73.0158 19.7663 5.42381
73.8879 21.0908 6.01723
72.4609 20.2714 5.66637
73.1849 20.3875 5.68193
76.175 22.0799 6.38739
72.601 20.8282 6.01789
70.0109 20.1675 5.87644
70.7825 20.9209 6.20418
74.3044 21.7607 6.33491
65.6341 19.5285 5.94623
69.2458 20.7498 6.30514
67.0899 20.442 6.25379
64.154 19.6332 6.11461
72.6503 22.2043 6.76
65.1748 20.3088 6.34147
66.2117 19.8399 6.04465
64.729 19.7675 6.19949
65.6183 20.718 6.69242
65.6187 21.2614 6.89144
73.9136 23.7707 7.67615
71.5796 22.7247 7.23861
56.7532 18.4678 6.05465
58.7083 19.4801 6.56437
56.8519 18.9871 6.5124
61.0834 20.055 6.59262
65.4701 22.1149 7.47497
70.209 23.5528 7.85006
67.6802 23.229 7.89275
63.2961 21.7642 7.63137
62.6155 21.4138 7.34058
57.2069 20.0233 7.12201
64.4768 22.1431 7.65872
63.3348 22.5294 8.17807
59.0988 20.4659 7.1599
60.4412 21.7567 7.76269
58.0475 20.9464 7.59943
56.5896 20.5784 7.37462
57.9875 21.4378 7.98583
59.5909 21.9191 8.04776
58.5601 21.7556 8.19214
59.5398 21.8639 8.1392
60.0115 22.7271 8.66082
57.1241 21.72 8.58548
75.5836 28.3676 10.5621
56.7946 21.2153 8.05109
56.148 21.7297 8.48142
57.2606 21.9839 8.39257
57.4847 22.3868 8.801
55.7177 21.8138 8.59067
59.5245 23.5396 9.17829
54.1125 22.0392 8.96897
50.8403 20.5789 8.42961
58.4004 23.6028 9.50302
54.5257 22.185 9.17046
53.0337 21.8181 8.99352
60.7582 24.2973 9.67097
54.2373 22.818 9.56005
53.7207 22.4447 9.41789
51.7779 21.656 9.27175
52.2557 21.9449 9.2098
50.9222 21.7507 9.33943
53.2084 23.2138 10.2335
48.8194 20.6802 8.97552
51.8129 21.8073 9.19459
50.6566 22.9478 10.2586
48.6904 21.1417 9.34574
49.6075 21.9157 9.80498
56.2112 24.4771 10.738
51.7353 23.0403 10.2925
49.6653 22.6646 10.4211
47.3809 20.9808 9.42868
50.9208 23.0632 10.5958
48.606 22.0263 10.1619
51.7134 23.1382 10.444
49.0062 23.5126 11.1583
48.3624 22.4708 10.6027
49.6414 22.7594 10.6225
53.2264 24.9932 11.9328
50.7102 23.3736 10.8129
46.3976 22.8048 11.1727
48.2928 23.0714 11.1137
45.5648 22.6183 11.115
42.8764 20.5109 9.95396
47.5988 23.58 11.5771
43.1723 20.9681 10.4259
45.6072 22.5238 11.1528
44.7731 22.6594 11.5301
44.5107 21.6472 10.6634
43.1718 21.874 11.0724
42.6371 21.4966 11.0786
49.0736 24.7792 12.4124
44.0011 22.4323 11.4281
43.2629 22.2219 11.4635
44.7606 22.9546 11.6952
44.1569 23.1529 12.274
44.2126 22.4894 11.3658
45.7915 24.4641 12.7946
42.8534 23.2057 12.6211
42.7903 22.5604 11.9589
40.735 22.2312 12.11
46.3846 24.4994 12.9687
40.0031 22.1802 12.154
43.0517 23.4522 12.9262
43.1576 23.6432 13.043
42.2445 22.8838 12.4764
42.835 23.8738 13.2142
37.4868 20.5833 11.3965
40.8551 23.3487 13.4464
40.4036 22.5509 12.8218
38.2801 21.4775 12.0654
39.4959 22.3859 12.5562
37.8699 21.6255 12.2754
39.4305 22.7363 12.9224
39.4707 23.3869 13.8824
41.4453 23.9501 14.0773
42.5354 24.3588 13.9268
36.2957 21.4866 12.7385
36.172 21.6734 13.2711
38.9412 22.0724 12.6252
37.4579 22.3558 13.4286
40.0903 24.5159 14.9808
37.2802 22.6946 14.0887
37.5589 21.7975 12.9792
38.1057 23.3534 14.2009
37.1756 23.1434 14.4439
35.3392 21.4068 13.1688
37.0531 22.4518 13.6935
34.2947 20.8402 12.8557
36.8691 22.9965 14.4152
36.9583 23.734 15.2696
37.5223 23.4592 14.9186
33.8788 21.013 13.1601
32.6671 20.6925 13.1053
35.1646 22.7591 14.8612
38.5983 24.169 15.2618
37.047 24.2033 15.6103
35.1528 23.1826 15.5135
35.5907 23.363 15.7932
38.1732 24.3631 15.8343
41.5408 27.168 17.3493
34.6466 23.5423 16.1169
33.8719 22.366 14.9383
33.9022 22.3787 15.0144
34.58 23.7062 16.2763
33.0728 21.212 14.2529
32.214 21.8922 14.7491
31.7918 21.5511 14.8102
35.1026 23.9443 16.2525
33.1447 22.6064 15.344
31.8853 22.1129 15.5238
32.5149 22.2591 15.2761
33.0908 23.3892 16.3217
33.7834 24.575 17.6027
31.6702 21.7809 15.2431
30.7438 21.6198 15.359
32.5338 22.8528 16.3509
35.4435 25.6071 18.513
34.6924 24.5343 17.4575
32.9544 23.5618 16.9906
30.6989 22.1513 15.8171
30.6342 22.8818 17.086
29.7968 20.9743 15.2668
31.3107 22.9445 17.0494
31.3017 22.6746 16.4984
31.4032 23.6095 17.5956
31.4642 23.3373 17.4198
31.0478 23.0159 17.1236
29.9866 22.4043 16.8426
31.9978 24.1665 18.2065
28.0869 21.747 17.2312
30.0686 22.8271 17.5853
32.1541 23.7983 17.848
28.8054 22.0044 17.3818
31.3102 23.9308 18.2833
28.8777 22.5501 17.7276
29.2048 22.5065 17.5169
30.6652 24.1831 19.0231
27.6562 21.6417 17.2917
28.8804 22.7407 17.9565
28.063 21.8436 17.1864
28.5518 23.255 18.8996
27.4318 21.653 17.6475
32.347 25.3029 19.7484
28.8328 23.1879 18.6063
28.7534 23.7933 19.6499
28.3605 22.8517 18.6146
26.7266 21.8394 17.8375
26.3361 21.1349 17.2208
26.6793 22.0761 18.353
26.0264 21.3549 17.7152
26.2695 21.6398 17.9188
25.2206 21.1981 18.1629
28.1592 22.9955 19.0865
28.4513 24.3505 20.9122
29.2379 24.3974 20.3267
26.0634 22.0842 18.8676
27.6323 23.5239 20.0748
25.4524 22.0185 19.4231
25.6425 21.9259 19.2248
27.6437 23.1194 19.5293
27.239 23.8491 20.6992
25.6737 22.0838 19.3569
27.2845 23.737 20.5263
26.1909 22.8174 20.4348
28.6048 24.8945 21.5712
24.7892 22.4541 20.1565
24.0068 21.5869 19.8213
26.9954 23.3552 20.4532
25.5469 23.1361 20.7691
23.4863 20.8948 19.142
23.7898 21.3411 19.4052
24.6829 22.7772 20.9988
24.7471 22.2902 19.8573
23.5894 21.5609 20.2758
24.9645 22.6187 20.7944
25.2658 23.6168 21.7243
25.3904 23.3817 21.8281
23.8717 21.6477 20.1263
24.4463 22.7719 21.0955
23.9178 23.2673 22.3898
24.3302 22.2714 20.7248
23.8469 22.9526 22.1956
24.3187 22.7837 21.7259
23.4358 22.4242 21.7525
22.924 21.2477 19.7779
21.1865 20.8896 20.9561
22.9677 21.6727 20.8162
24.3421 23.3867 22.4796
23.6091 22.9785 22.5929
24.6087 23.1833 22.1609
23.3142 22.8956 22.5181
23.9023 23.0338 22.396
22.5736 22.3141 21.928
22.5829 22.9748 23.392
23.8903 23.7747 24.843
29.2376 27.6643 25.863
23.9341 23.8067 23.5071
22.7812 22.7372 23.013
21.2638 20.9913 21.0466
21.8468 22.3909 22.4375
21.0532 21.905 23.2123
22.0965 22.2971 22.6597
20.9265 21.6512 22.6098
21.4266 21.7669 22.7354
21.9971 22.5182 23.3442
19.7903 19.8322 20.7328
21.7845 22.6234 23.8612
22.514 22.6985 23.1289
20.6542 21.4456 22.6311
21.2044 22.3417 23.7817
19.9008 19.8454 20.4104
22.1978 23.5748 24.2644
19.7779 21.1225 22.6479
20.5128 22.1496 24.378
20.2404 20.7755 22.0883
19.9561 21.1864 22.8864
21.386 22.7186 23.9252
20.72 23.0838 25.5859
21.8408 23.2438 25.1243
20.2382 21.2666 22.7215
20.5118 23.0873 25.6181
19.4205 20.6443 22.5496
19.3809 21.3775 23.8347
20.5533 22.8449 25.5283
20.2917 21.401 22.7533
19.7878 22.589 24.9262
17.8616 19.8202 22.297
19.6333 22.1567 25.0403
18.1455 20.3438 23.4048
19.8651 22.063 24.5844
19.2109 22.4616 26.3929
19.0659 20.2289 22.2694
18.9629 22.0309 25.151
17.3555 20.1724 23.971
19.6731 21.7192 23.9138
17.8076 20.5422 23.9684
19.5539 21.9955 24.9516
19.4546 22.9727 26.2936
16.8537 20.0948 24.1145
19.3261 22.3166 25.9447
17.7525 20.8321 25.1773
19.0549 21.9705 25.6856
18.7275 22.1732 26.1479
18.0858 21.2712 25.7475
17.4852 20.6657 24.6623
17.6305 20.7667 24.7396
17.0135 20.0305 24.4593
18.1285 20.8064 23.8436
17.299 21.168 25.8007
17.799 21.3068 25.7264
16.9871 20.4622 25.013
17.6583 20.7053 24.7251
17.0952 20.6608 25.1213
17.3022 21.2814 26.32
18.7597 23.1756 28.2999
17.7036 22.3962 28.57
17.9311 21.4055 26.2315
17.3719 21.2265 26.4254
17.394 20.7465 25.2853
16.6012 20.3133 24.815
15.9579 20.2773 25.7036
16.8384 20.631 25.3281
17.092 21.4375 26.3418
16.9933 22.2194 28.3916
14.986 19.011 25.2337
17.9835 22.8051 28.7851
16.5967 20.9796 27.1153
16.5468 21.1148 27.1214
17.3011 21.695 27.0062
16.0107 20.9209 27.8564
16.4687 21.358 28.435
17.2501 21.7336 27.5908
16.0293 20.4595 27.0133
17.8809 23.3875 29.7755
15.9165 20.961 28.2593
16.4833 21.0211 27.5894
15.9798 20.8407 27.8186
16.5369 21.2485 27.642
15.6101 20.9438 28.0481
14.6692 18.598 24.6373
15.2324 21.0213 29.1232
16.4974 21.2356 28.0288
17.0863 22.9269 30.5042
14.9651 19.7537 26.9836
15.9187 21.2941 28.815
15.6985 20.6708 27.6035
15.5082 21.3083 29.0285
15.5435 21.1241 29.4864
15.9629 21.0652 28.8924
15.2758 20.7989 28.4539
16.0087 22.581 32.8644
18.7559 23.8751 29.8781
14.6268 20.4125 28.8636
15.6704 21.1635 28.1559
14.3285 20.5513 29.4772
14.4493 19.3457 26.7344
13.9374 19.9635 28.4192
15.1933 21.2448 29.8729
14.5222 19.9758 27.6759
14.008 19.7261 27.6384
12.7219 18.5276 28.1653
14.7292 19.8077 27.4436
14.8817 20.5543 28.4475
14.5604 21.467 31.2357
14.4998 19.7999 27.6671
14.3883 20.7792 29.812
14.3463 20.3642 28.7614
14.6904 21.4988 30.7407
13.0811 19.2478 28.8708
14.2049 20.1058 28.8043
13.5067 20.3895 30.8662
13.9722 20.3124 30.7005
14.3927 20.4646 29.6944
13.3649 18.4666 26.3565
13.163 19.6153 29.704
14.1494 20.1453 29.2919
13.3258 19.6891 29.1244
13.7032 19.408 27.8538
13.2207 19.5276 28.614
12.6415 19.3455 29.5109
13.0481 19.2357 28.6275
13.2333 20.1635 29.6853
12.1725 19.147 30.3655
13.1574 19.3369 28.9917
12.059 17.9706 27.7769
13.6575 21.6642 33.6336
13.7497 20.603 32.1822
14.1138 20.4843 30.4431
13.3088 20.0683 30.2683
12.5547 18.7798 28.0376
12.0418 19.4767 31.6711
13.0786 19.5487 29.4743
11.9847 18.6142 28.9904
11.8641 18.2743 28.7541
13.0391 20.6708 32.3783
13.1461 20.4742 31.672
12.4383 19.7946 31.4826
11.8999 19.0863 31.9605
12.8624 18.8248 29.0805
12.9239 19.6195 29.7238
12.665 20.4079 32.3036
12.0667 18.9984 30.6079
12.1813 18.9524 29.8419
11.5481 18.3073 29.5021
12.11 19.5596 30.9479
11.748 19.0683 30.5564
11.338 18.8588 32.116
12.1286 18.5508 30.2729
12.2207 18.9653 29.4807
11.6709 19.9565 33.7512
12.6012 19.6779 31.4969
12.0183 19.4254 31.7372
11.5978 18.7808 31.0631
11.4573 17.754 28.6638
11.1317 18.4753 30.8003
11.5187 18.8108 31.1783
12.1218 20.026 33.0707
11.824 19.1483 31.8059
12.3725 20.7082 33.9977
11.7614 19.7403 33.2542
11.5827 18.6811 31.1879
11.5115 19.2622 32.756
11.5506 18.7608 31.2067
11.7017 19.9873 33.7612
11.2091 17.9537 30.392
11.7995 19.9829 33.2922
12.0462 20.4673 34.6649
11.0949 17.9153 30.5022
10.9551 17.9258 29.528
10.2171 17.9235 31.5822
11.084 18.5371 31.1766
10.9404 19.0746 32.7927
10.8569 18.6939 33.4949
12.1045 21.105 35.8523
11.1861 18.7513 32.7226
10.8816 18.7267 33.7723
11.5724 18.8999 31.757
10.987 19.7163 34.7565
10.7597 18.4388 32.5331
11.0489 19.1547 32.8297
9.94824 16.9025 29.8849
10.6779 18.6456 32.7617
10.7722 19.1016 34.3343
10.6148 17.9307 31.1419
10.5033 18.2873 32.0419
10.5461 19.263 35.4976
10.9443 18.9354 36.0155
13.8832 23.4722 36.533
9.80008 18.1761 33.4229
9.68004 17.4797 32.1019
9.85845 17.0757 30.9906
9.88815 17.8134 32.9292
10.347 18.2335 32.0407
10.3092 19.4423 36.3235
10.7357 18.2381 31.6417
9.40952 17.2101 32.2482
10.4558 18.7899 33.2304
10.1558 19.1095 35.3418
9.63873 17.2004 31.7265
10.5102 19.5786 35.6131
9.47787 17.0032 31.6122
9.48561 18.051 34.6981
9.79922 17.1627 30.8147
8.91339 16.6545 31.8756
9.40567 17.7835 34.1714
10.2222 18.3764 33.8126
9.76982 18.3804 35.1512
9.77875 17.7891 33.1697
9.25785 16.5698 30.1663
9.10194 17.5698 33.5759
8.91592 16.2078 31.0963
9.98722 19.1191 35.2651
9.27506 17.5184 33.5761
9.25536 17.5213 33.8751
9.17197 16.7546 32.2936
9.72062 18.4474 33.6713
9.02535 17.8694 35.274
9.46116 17.8358 35.3069
9.51208 17.791 33.7286
9.06896 17.3342 33.5437
8.96239 16.5097 31.4335
8.56713 16.9248 33.3132
9.14711 16.8616 32.5621
9.27528 18.2493 35.5704
9.26077 17.4195 33.0705
9.16514 18.1073 35.1577
8.9585 17.7438 35.0793
8.80313 17.2052 34.2759
8.5395 15.3969 30.3694
9.10086 18.2156 35.3312
9.34645 18.0108 34.4812
8.84664 17.6176 34.5614
8.40834 16.2559 31.9087
8.10247 16.2622 33.2548
8.91363 18.0005 36.2316
8.96127 17.7988 36.3476
8.5196 16.2224 32.5923
8.64351 17.3041 35.4811
8.55822 16.4781 33.6463
9.0162 17.3741 33.8279
8.60045 17.1427 34.5016
8.99995 17.9887 35.9022
8.78527 17.0486 33.3233
8.02357 15.8619 32.2701
8.06212 16.6226 33.988
8.62364 17.9274 37.7118
9.01328 17.5965 35.2807
8.5411 17.4272 34.9641
8.58771 18.4437 37.5665
8.14421 16.4482 34.956
8.70894 17.8786 37.0467
8.56261 17.6174 37.3773
9.02214 18.2368 36.1447
8.06613 16.273 34.4379
8.243 16.9578 36.548
8.83311 17.9968 36.3853
8.12143 16.9621 36.0712
8.35767 16.7035 34.3435
8.06018 16.664 35.1746
7.97432 17.1263 37.6348
8.2913 16.0239 32.4479
7.89232 16.4601 33.5808
7.44889 15.8737 34.7788
7.80573 15.6486 32.3623
7.19775 14.9685 33.0763
8.52989 17.7947 36.5055
7.94891 16.2693 32.4738
7.50506 17.4417 38.6775
7.95576 16.3473 33.4037
7.1207 15.7056 34.4573
7.17655 15.875 36.085
7.66936 16.1814 34.9199
7.62649 15.7488 34.331
7.2831 15.2413 33.4909
7.8019 16.5877 34.649
6.90487 15.0111 33.5562
7.20625 15.3558 33.5356
7.23102 15.558 34.6539
7.71381 16.395 35.0869
7.332 15.8667 35.1443
7.58707 16.9795 38.0242
7.70157 16.4136 35.8251
7.42494 15.7734 38.1398
9.00269 18.0724 35.5712
6.93178 15.1573 33.0484
7.08086 16.1418 35.9959
7.26524 14.5309 30.6822
7.06599 16.9523 37.5117
7.42579 16.6393 37.3254
7.04861 14.9695 34.2909
7.26119 15.3827 32.7264
6.95149 16.0859 34.9879
6.63542 15.8957 38.896
7.35837 15.1944 34.3292
7.18333 16.0112 36.3627
7.14206 15.4768 34.3483
6.98129 15.791 35.0516
6.70166 15.3922 36.075
6.99186 15.6149 36.7936
7.587 15.7693 33.7868
6.88152 15.9071 35.813
7.02216 16.1168 36.7199
7.18778 16.9849 40.0267
7.25022 15.491 34.734
6.74758 15.6571 36.8401
7.11847 16.3092 37.8683
6.97127 15.2511 34.4258
6.44964 14.4078 33.9522
6.85425 15.9885 36.3988
6.82359 15.9108 37.5527
6.93923 15.4172 34.6182
6.79456 16.3186 39.2303
7.05398 15.4887 36.188
6.88175 15.3434 34.7018
6.33987 14.552 35.3339
6.78264 15.2604 35.4946
7.39361 17.3943 38.1478
6.46811 15.5235 38.2551
6.96792 15.7707 35.3079
6.2332 14.9806 36.6049
6.3655 14.6002 34.9351
6.35021 14.6413 34.2111
6.32704 14.9481 36.2971
6.36313 14.3335 32.8607
6.00453 14.661 35.9178
6.21639 13.8875 31.9377
6.04725 14.955 35.0461
6.14514 14.447 34.1259
6.27107 15.9001 39.3291
6.83026 15.8456 37.1916
6.45758 15.5861 39.4153
7.08227 15.8426 35.4415
5.5818 13.3511 32.9791
5.98779 14.7033 36.5792
6.224 14.47 34.5805
5.89977 14.2965 35.8146
6.10763 14.305 34.7989
6.08743 14.3481 34.8675
6.27053 14.9439 35.1058
5.78325 14.3117 35.8681
6.35266 15.9976 39.3032
6.36849 14.8919 35.7522
