# pn-170911/RbIIR-53-USN3-1280-1959.psd
# Power spectrum* (dif=0,1,2) (really just |FT|^2)
# NOTE: only the first half! (symmetric)
# weeks: 1280-1959
# 3085 clock-days, 81 excluded
# PSD: 1441
672.352 0.0738236 0.023362
26265.7 0.585054 0.0130111
102032 2.02839 0.0130189
17418.7 0.576959 0.0129878
46737.6 3.52731 0.0136578
5767.07 0.518239 0.0131796
4878.09 0.649886 0.0136719
3105.41 0.542213 0.0135823
3719.8 0.926845 0.0139047
1917.12 0.558972 0.0134826
1748.48 0.653897 0.0137359
1459.85 0.623219 0.0139868
1374.09 0.733227 0.0136166
1078.84 0.663943 0.0145619
999.177 0.73447 0.0136861
879.036 0.741563 0.014167
870.606 0.878791 0.014287
714.376 0.79735 0.0150772
701.9 0.903131 0.0144907
648.087 0.939612 0.0147224
650.559 1.01877 0.0150445
586.446 1.0436 0.0155351
584.353 1.15967 0.0168305
571.995 1.23557 0.0164751
573.417 1.37145 0.017353
519.868 1.36332 0.0177495
528.008 1.49437 0.0176951
520.513 1.60015 0.0192817
507.99 1.68697 0.0195692
496.639 1.78884 0.020496
504.149 1.95913 0.0214776
491.214 2.06074 0.0227607
492.579 2.21986 0.0248856
493.387 2.36997 0.0252693
458.146 2.3247 0.0263761
465.873 2.51364 0.028225
484.743 2.80173 0.0312815
477.773 2.93176 0.0325498
456.666 2.93091 0.0339385
450.856 3.08402 0.0356388
457.335 3.27408 0.0375524
455.697 3.46537 0.0417162
441.801 3.51311 0.0422249
461.298 3.84223 0.0464369
461.284 4.05779 0.0506119
433.999 3.97987 0.0511324
440.612 4.25559 0.0576632
433.604 4.35115 0.0596795
422.98 4.41355 0.0631371
443.462 4.80445 0.0692661
417.945 4.74668 0.0700815
428.997 5.00282 0.076164
424.933 5.23445 0.0819357
436.002 5.6379 0.0898762
427.063 5.68692 0.092548
417.375 5.7903 0.096485
405.528 5.82325 0.10054
398.074 5.93947 0.107213
386.951 5.99721 0.109586
385.62 6.15761 0.115408
369.545 6.12971 0.119836
382.681 6.56944 0.132163
384.326 6.78592 0.135813
356.213 6.55362 0.138308
354.868 6.68101 0.142625
359.263 7.01037 0.154853
347.34 6.93441 0.156929
353.407 7.34577 0.173123
348.971 7.48861 0.176073
346.714 7.61504 0.189031
346.593 7.80525 0.193655
333.873 7.80795 0.201291
336.796 8.04417 0.21309
327.463 8.06769 0.221089
315.807 7.99398 0.223447
315.076 8.16256 0.231538
323.63 8.64432 0.252959
306.567 8.41899 0.249504
317.523 8.88243 0.271604
302.064 8.75519 0.27696
304.165 9.00603 0.28737
289.295 8.80257 0.288604
301.749 9.38146 0.31367
287.453 9.21843 0.314375
273.334 8.8548 0.309841
277.219 9.32094 0.332997
276.646 9.39574 0.346102
277.933 9.82089 0.365325
265.316 9.50473 0.363839
267.771 9.77561 0.382672
267.185 10.115 0.403849
260.65 10.0044 0.406607
246.925 9.7415 0.408619
242.066 9.68368 0.410177
244.998 9.98805 0.430578
250.831 10.5765 0.461261
286.004 12.2933 0.5521
235.725 10.2489 0.468695
230.173 10.2977 0.483417
222.84 10.1118 0.479735
230.833 10.7342 0.522265
231.084 10.9626 0.539354
237.212 11.4949 0.581282
227.177 11.2154 0.578385
218.733 10.9386 0.573626
221.291 11.3044 0.60402
207.079 10.7952 0.58913
201.197 10.6563 0.591102
209.297 11.291 0.641097
209.408 11.5461 0.665059
206.865 11.6697 0.685699
198.998 11.4232 0.684224
197.165 11.5263 0.700047
196.867 11.5736 0.714211
198.248 12.018 0.757904
194.505 11.8997 0.763931
192.678 12.1333 0.783276
182.737 11.6389 0.771695
190.49 12.3883 0.837604
186.959 12.2712 0.83293
184.089 12.3784 0.85706
173.005 11.7654 0.83322
180.357 12.4977 0.895912
176.818 12.5222 0.910715
183.89 13.034 0.95738
175.728 12.7973 0.961379
168.556 12.4655 0.954758
166.568 12.4152 0.960454
167.755 12.7004 0.998915
161.759 12.5159 0.999746
167.706 13.2366 1.07394
165.164 13.1813 1.08966
162.48 13.1414 1.09606
165.813 13.6142 1.14554
161.26 13.4491 1.15742
157.315 13.351 1.16523
156.808 13.442 1.18574
152.25 13.1715 1.18025
150.497 13.342 1.22617
148.429 13.2763 1.226
154.288 14.1462 1.32246
149.129 13.7173 1.30493
142.378 13.3092 1.28604
143.138 13.5517 1.31771
145.043 13.9604 1.37737
147.432 14.4447 1.45265
141.762 14.1261 1.44168
144.92 14.5489 1.4902
143.758 14.7149 1.53648
141.335 14.4657 1.52228
133.104 14.0617 1.51314
136.561 14.4999 1.58513
134.966 14.4647 1.59727
134.361 14.5517 1.62881
135.67 14.9872 1.69051
132.045 14.6712 1.67186
127.892 14.4749 1.67645
132.9 15.2734 1.7878
133.754 15.4825 1.83617
124.639 14.6894 1.76729
123.9 14.6574 1.77449
124.283 14.9589 1.85019
122.708 14.8284 1.84884
123.325 15.2152 1.92778
124.124 15.3691 1.96276
121.123 15.2292 1.96554
119.87 15.3385 2.01197
127.202 16.3976 2.14749
117.795 15.3341 2.04784
117.641 15.6796 2.12546
117.599 15.8084 2.16619
118.242 15.9396 2.19524
113.639 15.5722 2.18977
112.219 15.5161 2.19945
110.679 15.6184 2.2413
111.416 15.7858 2.28135
111.904 16.128 2.36334
107.586 15.5616 2.30352
112.134 16.502 2.46031
108.196 16.0769 2.43527
103.894 15.5842 2.38017
106.015 16.1443 2.51756
107.255 16.4523 2.56849
110.122 17.0569 2.70667
106.697 16.7141 2.6718
106.465 16.9069 2.74588
103.312 16.5479 2.69317
106.965 17.4035 2.88077
102.103 16.7256 2.79643
97.3555 16.0815 2.70554
98.6153 16.369 2.77936
98.6038 16.764 2.91575
114.807 19.467 3.3488
97.9327 16.8516 2.9452
97.5912 16.9784 3.01444
98.1039 17.3132 3.10369
99.0015 17.677 3.20702
96.7706 17.1832 3.13967
95.8118 17.311 3.18635
96.286 17.7192 3.3041
95.5741 17.7672 3.35125
91.6454 17.0646 3.23539
92.8091 17.5665 3.39326
94.2304 17.9712 3.49687
92.3698 17.6951 3.46148
90.7525 17.7009 3.52641
92.7023 17.9781 3.57026
88.2283 17.5184 3.55481
91.6275 18.2248 3.67352
91.8556 18.636 3.84157
89.1617 18.1864 3.76791
89.0268 18.2773 3.79796
83.8332 17.488 3.70515
86.4201 18.1486 3.87977
84.9407 17.808 3.81531
86.6603 18.5126 3.99471
86.4807 18.6522 4.08147
88.3022 19.1052 4.2073
84.5123 18.5714 4.14367
85.7392 18.9157 4.24019
83.4756 18.6468 4.25111
83.6092 18.8364 4.36235
84.834 19.1105 4.38312
81.0182 18.5693 4.34016
83.3575 19.0735 4.4492
79.6748 18.6211 4.45099
83.8741 19.7928 4.75669
79.9274 18.8743 4.54809
82.557 19.6001 4.71106
81.5369 19.5861 4.80757
79.9109 19.4574 4.78217
77.2835 18.9831 4.7362
74.8006 18.5455 4.68796
79.6044 19.9668 5.08583
78.3139 19.7223 5.03285
75.5633 19.2894 4.98463
76.8682 19.6689 5.06126
73.7759 19.1541 5.05466
76.1532 19.7931 5.22556
76.3812 20.1614 5.41507
76.6077 20.2498 5.44059
75.5148 20.0375 5.39236
73.6401 19.8769 5.4196
73.8652 19.9666 5.4943
71.9576 19.992 5.63394
73.3856 20.1359 5.5871
71.8008 20.0777 5.70692
74.8301 20.7905 5.86433
72.5074 20.5664 5.87344
71.7502 20.523 5.92558
70.992 20.4263 5.94538
69.0724 20.0254 5.88955
68.6457 20.0889 5.95987
68.9644 20.272 6.03892
69.109 20.3229 6.07487
67.1865 20.0746 6.106
68.3474 20.5691 6.23908
65.7467 19.9014 6.11574
68.0084 20.8116 6.45422
66.0477 20.3172 6.35616
66.7465 20.5595 6.47599
66.7549 20.7188 6.53238
65.0539 20.2816 6.46877
68.4863 21.7356 6.95606
65.1626 20.7723 6.67216
66.5094 21.4629 7.01806
65.0399 21.0739 6.95131
62.2775 20.221 6.71163
65.691 21.5491 7.16696
64.4553 21.3387 7.14637
65.747 21.6642 7.25705
63.2908 21.2007 7.22388
64.6275 21.8957 7.50058
61.3973 20.817 7.18878
63.743 21.7294 7.48986
63.8635 21.8794 7.60791
62.0948 21.702 7.70463
59.8867 20.883 7.40635
61.9574 21.8457 7.80545
57.4769 20.422 7.38359
60.8348 21.7286 7.87602
60.619 21.8893 8.04576
61.6086 22.2662 8.13248
58.3241 21.2445 7.88619
59.5214 21.8663 8.13622
57.4699 21.1983 7.96809
59.193 22.205 8.41989
59.5657 22.4803 8.66712
69.9261 26.2473 9.85774
59.1739 22.6816 8.79058
57.2541 21.8081 8.47712
57.4035 22.0526 8.56933
57.0606 22.235 8.77118
59.2148 22.9648 9.02901
54.9566 21.5887 8.62628
55.8285 22.0926 8.88022
54.6034 21.6458 8.75919
54.5579 21.6467 8.73
56.5694 22.9037 9.3833
55.7991 22.5432 9.21817
54.043 22.1978 9.23334
53.9751 22.2551 9.31605
53.6302 22.1984 9.31277
53.5808 22.2146 9.33405
54.1379 22.8644 9.75048
53.0447 22.1111 9.4133
51.3415 21.8186 9.3839
53.0758 22.7491 9.83284
52.4886 22.483 9.77552
52.8575 23.0061 10.1359
51.0686 22.4861 10.0102
52.7254 22.9473 10.1229
52.4586 23.1845 10.3388
48.9441 21.7629 9.80258
49.4021 22.0649 10.0706
52.104 23.1488 10.4349
48.7934 22.2062 10.2479
50.0877 22.7267 10.4302
49.8106 22.7842 10.5667
49.9215 22.7406 10.5612
50.1702 23.4206 11.0204
49.239 22.7473 10.6723
48.5334 22.751 10.8514
50.7392 23.9423 11.4318
49.4868 23.4593 11.2797
48.7262 23.0943 11.1184
46.5866 22.378 10.9243
46.8629 22.521 10.9784
48.6537 23.547 11.4598
47.6292 23.4741 11.6067
47.1956 23.0426 11.3475
46.3321 23.1639 11.6967
47.0233 23.3433 11.7035
47.9017 24.0005 12.1478
46.6015 23.1986 11.7456
46.5113 23.4535 11.9506
45.8476 23.4631 12.0978
47.0822 24.2851 12.6048
45.1861 23.1631 12.1
44.212 22.5973 11.7594
44.133 23.1959 12.3373
46.4303 24.2565 12.8038
44.8597 23.4128 12.409
44.6181 23.6654 12.6121
43.9075 23.4879 12.6486
44.7012 24.0275 13.0041
43.6252 23.5755 12.8593
42.5912 22.8903 12.4688
42.746 23.4232 12.9746
43.6801 23.8726 13.1992
43.03 23.6892 13.2296
42.7361 23.6852 13.3045
42.75 23.6361 13.2241
42.4394 23.9215 13.6038
43.4874 24.2702 13.7695
42.9574 24.1507 13.7781
42.3256 24.2366 14.0118
41.9265 23.6749 13.6245
41.85 23.9246 13.8904
41.1621 23.529 13.6761
42.063 24.5348 14.3885
40.7991 23.6188 13.9265
40.9846 24.1565 14.4042
41.1334 24.0036 14.1637
40.5119 24.0414 14.4406
39.2211 23.4048 14.297
39.387 23.2792 13.9869
40.8961 24.4613 14.7407
39.9412 24.0215 14.5203
39.0925 23.989 14.8166
38.9195 24.0262 14.9774
39.2803 24.0491 14.9521
39.1464 24.2061 15.2159
39.4906 24.3028 15.1999
39.1962 24.1904 15.1168
37.87 23.9402 15.3152
38.8257 24.3918 15.553
38.6703 24.273 15.4618
37.8096 24.059 15.5188
38.612 24.6913 15.8733
36.953 23.7796 15.5563
37.2089 24.0393 15.7473
37.5918 24.1615 15.7776
36.0426 23.4823 15.7811
45.712 29.82 19.1424
35.7786 23.6596 15.7735
37.1407 24.8195 16.6861
35.9595 23.8106 16.0081
36.4401 24.2351 16.2019
34.8929 23.6556 16.2252
35.5407 24.2669 16.7279
36.2347 24.4391 16.7397
35.4789 23.9856 16.4232
35.9529 24.6083 16.9716
35.0112 24.0616 16.703
35.6525 24.6917 17.2602
34.8467 24.2507 17.0128
34.6045 24.1546 17.0845
33.8689 23.6484 16.8043
35.32 24.8498 17.6975
33.6923 23.7407 16.9637
34.1826 24.2062 17.3398
33.9347 24.5673 17.9454
34.2795 24.4257 17.6867
34.7416 24.9199 18.1162
33.3661 24.094 17.656
33.378 24.1024 17.6942
33.7639 24.6013 18.1004
34.0718 25.1129 18.6005
33.2417 24.3329 18.0718
32.434 23.944 17.8286
31.9453 23.9636 18.1016
32.7831 24.5886 18.6507
31.6587 23.6853 18.0655
33.3716 25.3684 19.4354
33.4515 25.1239 19.1176
32.6621 24.6123 18.8235
32.6384 24.8368 18.9772
30.9671 23.988 18.8025
32.653 25.1445 19.4841
30.2981 23.5746 18.5921
31.3305 24.232 19.0151
30.7334 24.1363 19.1596
30.6146 23.817 18.7402
30.8721 24.5326 19.6121
30.1745 23.7645 18.8925
29.6187 23.861 19.5048
30.3635 24.1964 19.5026
29.5133 23.6736 19.2949
30.1778 24.4482 20.0526
29.6968 23.7375 19.4748
30.0569 24.2526 19.7874
29.5853 24.0908 19.7744
29.6855 24.4827 20.2613
28.7633 23.8028 20.0248
29.9709 24.535 20.2598
29.2477 24.4751 20.6444
28.8365 24.0424 20.3814
28.1009 23.2265 19.6068
28.6639 24.0912 20.5492
29.4511 24.789 20.9596
28.8266 24.498 21.0828
28.6538 24.4073 21.0206
28.7602 24.7056 21.3055
27.5833 23.7818 20.8166
27.8954 23.754 20.5628
27.5763 23.8925 20.9819
27.7433 24.1595 21.3281
27.8727 24.1735 21.2443
27.4799 24.0892 21.4536
28.1959 24.6128 21.6319
27.9649 24.7226 22.0677
27.5813 24.2055 21.5187
26.8587 24.1796 21.944
26.3558 23.303 20.8372
26.4291 24.0032 21.8943
27.0861 24.4974 22.3569
27.1674 24.4674 22.2334
26.9155 24.3749 22.2668
26.9984 24.7798 22.9183
25.6586 23.2081 21.397
25.7741 23.8607 22.1527
25.2553 23.4184 22.0357
26.7986 25.073 23.5432
25.7691 23.8287 22.4528
25.8718 24.1967 23.0072
26.4765 24.5474 23.0338
25.5275 24.1189 23.0781
25.5963 24.3082 23.3177
25.9461 24.5297 23.3797
25.2484 23.9686 22.9487
24.9552 23.9156 23.1545
24.3926 23.5892 23.2354
24.8247 23.8921 23.4182
25.4076 24.4784 23.8443
25.2795 24.6889 24.3044
24.5371 23.7928 23.5122
24.9256 24.1409 23.7536
24.6313 24.1569 24.0262
25.3327 25.2661 25.8357
29.6119 28.8607 27.8393
24.6415 24.4559 24.5699
24.1011 24.1422 24.7253
24.9869 24.5661 24.4022
23.5993 23.8724 24.4428
23.7677 24.0188 24.4933
23.5918 23.8286 24.4465
23.6144 23.947 24.8272
24.1159 24.4011 25.0188
23.56 24.0802 24.8992
23.5754 24.0898 24.9154
22.8993 23.6385 24.8525
23.7952 24.5236 25.5135
23.5337 24.5248 25.8273
23.147 24.0533 25.3816
23.6196 24.6659 26.0139
23.1414 24.4814 26.0334
22.3953 23.4547 24.9841
22.4016 23.807 25.6345
22.9899 24.295 25.9133
22.575 24.0041 25.7777
22.622 24.4211 26.4482
21.6717 23.1301 25.1682
22.0973 23.9659 26.3443
22.8156 24.8102 27.1916
22.1499 23.5205 25.54
21.7569 23.5229 25.8024
21.7432 23.6878 26.1402
22.0366 24.0695 26.4537
21.7556 24.1703 27.0738
21.6827 23.9072 26.8551
21.999 24.2838 27.1806
21.0013 23.022 25.8137
21.4002 23.6624 26.5461
21.3395 23.8265 26.8828
21.5429 23.8452 26.5379
20.7721 23.632 26.7282
20.7719 23.7174 27.2951
20.7681 23.4533 26.9432
20.9684 23.6931 26.9301
19.9609 23.0365 26.9196
20.9271 24.2144 28.176
20.1573 23.1923 27.1608
20.6647 23.9562 27.9815
20.2854 23.3416 27.4031
20.103 23.2967 27.3252
20.1899 23.4759 27.5995
20.1516 23.7826 28.2607
19.4952 22.665 27.1096
20.2248 23.9391 28.6267
20.8189 24.1425 28.0593
19.2119 23.2552 28.2449
19.678 23.7147 29.0727
20.0616 23.6891 28.5057
19.6861 23.2025 27.9676
19.8021 23.9221 29.0562
19.2698 22.8957 27.8198
19.0248 23.1129 28.2601
19.0816 23.2897 28.7821
19.376 23.678 29.0998
19.134 23.4873 29.1637
19.3328 23.8514 29.7313
19.7628 24.174 29.9582
18.6094 22.7211 28.218
18.3494 22.8532 28.8108
18.8103 23.1795 29.0744
19.3816 24.1036 29.9727
18.4441 23.1783 29.516
18.6637 23.4094 29.7205
18.567 23.3715 29.6018
18.1429 23.1382 30.0102
18.3456 22.9529 29.4272
18.4204 23.4484 30.2192
18.5667 23.6595 30.7981
18.562 23.1579 29.4016
18.2142 23.332 30.1619
18.3513 23.7823 30.8448
18.0858 23.4228 30.7911
18.1982 23.1752 30.0333
18.274 23.7601 31.0329
17.4493 22.6903 30.2084
17.9104 23.0413 30.1009
17.2505 22.4563 29.7675
17.6087 23.296 30.9054
17.0141 22.6623 30.6356
17.3781 22.9871 31.1643
17.8202 23.2709 30.7664
17.2282 22.9757 30.9024
17.7578 23.761 31.8881
17.6202 23.719 32.2445
17.4492 23.2049 31.4698
17.3061 23.1503 31.3474
16.9237 23.0097 31.7707
17.1931 23.5189 32.3809
17.127 23.0765 32.0043
17.3453 23.711 33.819
21.1728 28.0736 36.3672
17.0652 23.525 32.2835
16.8215 23.3652 32.4671
16.7761 23.3296 32.4261
16.1915 22.2755 31.3017
16.7521 23.5867 32.8679
15.8894 21.8328 30.5709
16.4081 22.9619 31.9709
15.6583 22.3502 32.3095
16.1645 22.8939 32.7393
16.1677 22.9298 33.3118
16.4253 22.7587 31.9259
15.9461 22.7721 32.7691
16.0529 22.8187 33.0095
16.2082 22.6917 32.4646
16.4331 23.3536 32.9908
15.7508 23.0515 33.93
15.5397 22.2235 32.7825
16.0937 23.0689 33.6854
15.751 22.222 31.9022
15.2671 22.1998 32.4973
15.4673 22.4594 33.0284
15.2591 22.3024 32.842
15.1509 22.1475 32.8694
15.7703 23.6213 35.145
15.2939 22.4676 33.806
15.6246 22.8016 33.937
14.9062 21.6895 32.643
15.1144 22.3392 33.7196
15.7 23.3634 35.2822
15.2549 22.3081 33.0853
14.7479 22.0258 33.215
14.7 22.1019 33.6804
14.6652 22.0423 33.7168
14.7361 21.9711 33.527
15.029 22.4719 34.0043
14.8087 22.6698 35.1627
14.9819 22.235 33.3759
14.4595 22.3348 34.7879
14.5743 22.1002 33.8904
14.4517 21.9254 33.2247
13.7852 21.649 34.4297
14.3381 21.9824 34.083
14.0589 21.8097 34.454
14.4621 22.1269 34.012
13.7694 21.6803 34.1638
13.6379 21.2149 34.0438
14.01 21.7723 34.5877
14.1233 22.116 34.872
13.8325 21.6815 34.6549
13.8446 21.7607 34.7628
13.8368 21.4943 33.8993
13.5742 21.5511 34.6406
13.8306 22.107 35.4288
13.5664 21.4704 34.5594
13.5684 21.5933 34.8836
13.3784 21.5871 35.4202
14.1924 22.9549 37.0851
13.4199 21.4175 35.4176
13.5257 21.1697 34.1942
13.3672 21.5723 34.8774
12.9906 21.2278 35.2763
13.361 21.4138 34.7282
13.3079 21.7062 35.3693
12.8624 21.2975 35.8159
13.2512 21.8009 36.2614
13.1634 21.5152 35.628
12.9786 21.5504 36.2226
12.9636 21.1528 35.1586
12.9041 21.5098 36.0375
12.6274 20.8767 35.2619
12.9406 21.245 35.3839
12.5763 20.8965 35.0333
12.4955 20.9213 35.5412
12.6441 21.167 35.4912
12.7673 21.6229 36.5996
12.5186 21.2846 36.6106
12.4354 20.863 35.7001
12.48 21.2126 36.8942
12.9319 21.7663 37.1415
12.7032 21.6838 37.021
12.1668 21.0093 36.6491
12.2239 20.7411 36.3183
12.1811 20.6083 35.708
12.3678 21.3393 36.8527
11.9399 20.5914 36.2586
12.2064 21.1977 37.3021
12.3407 21.123 36.9311
12.2117 20.7113 35.5923
11.699 20.5289 36.0052
11.7124 20.6971 36.5522
11.4579 20.1267 35.945
11.5095 20.2202 36.3858
11.9012 20.9863 37.3985
11.568 20.2196 36.4965
11.7266 21.1166 40.2143
14.587 24.9852 41.0705
11.6309 20.7324 37.2631
11.4094 20.2827 36.6554
11.5333 20.8078 37.7163
11.2229 19.7818 36.0576
11.5775 20.6632 37.3111
11.4988 20.9644 38.4462
11.3867 20.1847 36.9623
11.4704 20.5566 37.1636
10.8706 19.4269 35.5368
11.2033 20.5199 37.799
11.099 19.8384 36.4457
11.2503 20.5548 37.8981
11.5609 21.1623 38.6201
11.2516 20.6552 38.4238
11.2185 20.2978 37.5576
11.1803 20.5966 38.3373
11.2553 20.517 37.8432
11.1055 20.7841 38.998
10.99 20.1849 37.8855
10.9566 20.1887 37.6581
10.9582 20.6187 38.4804
10.24 19.0406 37.2181
11.1581 20.6026 38.5644
10.9598 20.1688 37.6606
10.7442 20.3887 38.7541
10.7385 19.9301 37.5209
10.4352 19.7961 37.9652
10.5423 20.0443 38.3251
10.53 19.8621 37.9133
10.4991 19.9438 38.2998
10.5108 20.0442 38.1264
10.1038 19.2072 37.4676
10.3023 19.5989 37.9724
10.3425 19.763 38.3875
10.3861 19.8697 38.3652
10.1976 19.7163 38.8859
10.4079 19.8722 38.6434
10.188 19.8499 39.3276
10.2862 19.5994 38.4667
10.0445 19.1906 37.745
10.1037 19.5865 38.449
9.98966 19.4344 38.6442
10.2278 19.8223 38.3624
9.76679 19.2094 38.336
9.88806 19.702 39.7414
10.1162 19.9597 40.3818
10.2253 19.8913 39.9626
10.652 20.7897 39.8184
9.56028 19.1228 38.6655
9.7362 19.5416 39.7605
9.75737 19.2126 38.7664
9.81193 19.5101 39.0427
9.66137 19.359 39.1397
9.73316 19.749 40.4122
9.61932 19.1038 39.6776
9.99234 19.4274 38.8534
9.70764 19.4649 39.2264
9.51394 19.1213 39.0109
9.54875 19.2518 39.0058
9.37157 18.7701 37.949
9.09058 18.7023 38.8193
9.27801 18.7999 38.711
9.37908 19.2726 39.5769
9.18004 18.6162 38.7507
9.22294 19.0098 39.356
9.20751 18.8054 39.2842
9.06871 18.3961 37.8882
8.98192 18.8545 39.9707
9.17978 18.6738 38.8272
9.04943 18.9888 39.935
9.14653 19.0444 40.2088
9.06667 18.7003 39.5768
9.10952 19.0883 40.3594
9.04991 18.7586 40.2101
9.38196 19.4481 40.8863
9.06134 18.9876 40.3362
9.06866 19.0496 40.6883
9.07572 18.8663 39.6463
8.60959 17.8466 38.1829
8.92673 19.0754 40.441
8.65065 18.3143 39.3813
8.59534 18.1936 39.1967
8.65465 18.5083 40.1624
8.86955 18.8086 40.1028
8.63382 18.3762 39.3195
8.39783 18.2931 39.9995
8.36406 17.8567 39.4026
8.59473 18.2927 40.0626
8.68232 18.4319 39.8835
8.33708 17.8687 39.7478
8.66865 18.5046 39.8833
8.43321 18.2676 40.1099
8.4805 18.4713 40.8919
8.43825 18.144 40.4186
8.54506 18.945 45.1012
10.5226 21.8115 43.6353
8.34077 18.3741 40.7412
8.24193 17.8943 39.9038
8.40746 18.2026 39.2107
7.98323 18.0304 40.9616
8.38178 18.2265 40.5329
8.38306 18.2058 39.8089
8.13617 18.3031 41.1593
8.08282 17.8452 40.5532
8.10077 17.6081 39.3856
8.0673 17.9815 40.127
8.04791 18.1463 41.2558
8.0314 17.7133 39.784
7.75318 17.656 40.8113
7.83503 17.0126 38.4489
7.83305 17.698 40.4296
7.9794 17.7994 40.4238
7.93192 17.7641 40.4862
8.0094 17.83 39.7628
7.56814 17.627 41.3946
7.84622 17.4607 40.0365
7.87562 17.9366 41.3655
7.97747 18.1228 40.5202
7.30769 16.6328 39.0503
7.6625 17.8099 41.9972
7.85307 17.7073 40.6265
7.55089 17.1644 40.0211
7.53459 17.3741 41.0672
7.70386 17.5384 40.9179
7.63999 17.4655 40.7704
7.59112 17.1657 39.6574
7.36751 17.2079 41.0618
7.64174 17.4298 40.9058
7.56855 17.2893 40.2209
7.55945 17.422 40.4886
7.37374 17.2581 41.5713
7.51409 17.2186 40.5372
7.47985 17.3276 40.5893
7.23756 16.683 39.1553
7.12837 16.719 39.8426
7.28476 17.0071 40.0734
7.12167 16.7381 39.9621
7.08095 16.819 40.8307
7.28011 17.0576 40.9029
7.29244 17.1941 40.9356
7.14724 16.4262 38.9624
6.9846 16.8257 40.5681
6.98632 16.7146 40.6985
7.00993 16.6051 41.1897
7.46409 17.5601 41.4958
7.12825 16.8247 40.5084
6.96715 16.5261 39.7223
6.97274 17.1197 42.3124
7.20151 16.9265 40.6875
7.01456 16.9769 41.7504
7.11302 16.952 41.1322
6.87366 16.4636 39.9444
6.7772 16.5252 40.8595
6.91174 16.7274 41.4379
7.07492 17.2761 42.2399
