# pn-170911/RbIIF-67-RbIIR-1280-1959.psd
# Power spectrum* (dif=0,1,2) (really just |FT|^2)
# NOTE: only the first half! (symmetric)
# weeks: 1280-1959
# 1105 clock-days, 12 excluded
# PSD: 1441
398.081 0.0548973 0.0222104
22464.4 0.45143 0.0130877
118404 2.57248 0.0131526
29213 1.12778 0.0132529
46646.3 3.58953 0.0129983
8028.68 0.760846 0.0130177
7972.25 1.10444 0.0131086
4074.7 0.737608 0.0131203
3963.04 0.982766 0.0129049
2503.54 0.776304 0.0128366
2196.22 0.841476 0.0137285
1617.55 0.767489 0.0125969
1598.24 0.870568 0.0131699
1219.31 0.789797 0.0136213
1125.81 0.845683 0.0130837
955.228 0.836605 0.0135701
859.401 0.834124 0.0131117
791.234 0.884617 0.0147007
691.711 0.887688 0.0140462
582.387 0.84257 0.0146996
563.482 0.90785 0.0149098
544.922 0.934956 0.0147354
478.42 0.939211 0.0147486
454.076 0.962916 0.0164187
436.876 1.01366 0.0155971
416.037 1.02922 0.0162473
362.129 1.00144 0.0160664
374.33 1.11164 0.0156319
356.735 1.15174 0.0171775
314.771 1.07861 0.0176258
332.234 1.24132 0.018419
301.259 1.19309 0.0182926
296.162 1.24064 0.0189808
279.973 1.29592 0.01939
280.688 1.37097 0.0207059
263.911 1.34787 0.0205794
251.372 1.32337 0.0207951
245.08 1.42968 0.0211061
238.309 1.48788 0.023019
235.021 1.49223 0.0242142
225.271 1.4864 0.0239889
224.923 1.61215 0.0266913
211.995 1.61184 0.0266107
209.939 1.66293 0.0270331
224.298 1.87667 0.0305603
205.306 1.73343 0.0304856
198.653 1.80839 0.0316196
198.793 1.896 0.033502
197.308 1.99629 0.0361298
182.625 1.8934 0.0353342
186.321 2.02854 0.0363238
181.674 2.07622 0.0377236
175.272 2.04884 0.0387897
176.901 2.1981 0.0417436
180.836 2.30908 0.0467727
170.317 2.32995 0.0478667
175.516 2.42586 0.0499665
161.798 2.32855 0.0512504
169.164 2.51419 0.0527238
175.113 2.74179 0.0578543
159.776 2.49666 0.0541718
159.948 2.63645 0.0588563
159.959 2.77196 0.0647353
158.652 2.84751 0.0675884
155.03 2.80444 0.0667562
158.491 3.00253 0.0728467
160.884 3.09767 0.0778351
148.895 2.99691 0.0778937
155.653 3.17357 0.0826613
148.339 3.17128 0.0848709
143.963 3.18265 0.0886787
145.497 3.26495 0.0889032
140.047 3.27091 0.095602
142.736 3.40167 0.100857
139.984 3.4623 0.105358
141.969 3.57498 0.107575
141.764 3.70447 0.115027
137.171 3.75201 0.116832
133.947 3.67542 0.119679
131.671 3.75402 0.127792
130.901 3.87769 0.133666
135.963 3.9557 0.135398
135.475 4.16812 0.146919
131.529 4.09945 0.145459
127.568 4.02385 0.148583
129.382 4.23058 0.159237
135.245 4.63103 0.176993
127.961 4.35309 0.168688
121.705 4.27513 0.172414
130.264 4.71472 0.190285
133.316 4.87204 0.20023
126.552 4.7887 0.201364
122.086 4.74867 0.200135
130.305 5.08911 0.220712
122.789 4.95527 0.220777
119.342 4.89824 0.22385
125.733 5.32028 0.247564
130.698 5.60958 0.267877
123.074 5.44278 0.263181
113.67 5.08651 0.252113
123.232 5.61477 0.28078
117.288 5.45088 0.273907
120.264 5.73341 0.299394
119.753 5.84996 0.304533
115.696 5.63882 0.303019
119.472 6.0049 0.327003
117.993 6.03809 0.33875
111.74 5.97608 0.336821
109.326 5.88445 0.342799
110.897 6.05264 0.360191
116.89 6.35372 0.376703
110.144 6.14138 0.373443
108.829 6.36585 0.390845
113.793 6.8025 0.423077
117.9 6.94907 0.435827
111.77 6.77045 0.43806
112.205 6.97601 0.459367
112.971 7.12156 0.476135
106.292 6.76546 0.461085
106.746 6.92958 0.475527
109.101 7.26496 0.508201
108.076 7.40059 0.527852
106.89 7.36633 0.532375
105.773 7.43496 0.544076
107.744 7.69087 0.579154
103.854 7.46152 0.571567
107.868 7.91211 0.609745
102.398 7.55759 0.591777
102.529 7.78476 0.611928
104.623 7.96561 0.637782
102.325 7.95691 0.64934
99.3879 7.87341 0.659536
101.443 8.22035 0.691048
96.3225 7.93616 0.678547
95.845 7.94761 0.689168
102.231 8.70308 0.761542
100.087 8.63478 0.762891
101.581 8.7413 0.795264
96.2447 8.50739 0.782262
96.3246 8.62765 0.801992
100.334 8.97317 0.837501
96.3746 8.92316 0.852651
94.748 8.79903 0.854505
93.8456 8.91285 0.881049
93.4956 8.92351 0.889497
98.2264 9.48152 0.954072
92.1627 9.04771 0.918674
95.1884 9.47328 0.981364
91.615 9.25626 0.989109
101.57 10.4659 1.11646
95.5657 9.81419 1.04335
95.7037 10.1011 1.10748
85.1422 9.10817 0.999934
94.6103 10.2336 1.14526
82.5441 9.05243 1.03274
86.9454 9.84074 1.13814
90.8762 10.1623 1.1746
86.6134 9.80343 1.15048
90.1334 10.3366 1.22508
93.7802 10.9175 1.31351
93.2948 10.9585 1.34702
86.4429 10.3593 1.29208
85.1757 10.3567 1.28763
93.536 11.343 1.41878
86.3075 10.6731 1.35719
91.8012 11.4822 1.47471
84.2401 10.7075 1.40944
84.6078 10.9707 1.45451
83.7456 10.8941 1.45331
84.5793 11.16 1.51469
87.1537 11.7609 1.62006
83.5736 11.1666 1.5384
83.5916 11.4625 1.6094
83.925 11.7324 1.6774
83.2208 11.571 1.65587
79.8335 11.1631 1.62697
80.6172 11.473 1.66456
77.5483 11.2875 1.6753
80.534 11.8708 1.76708
73.3896 10.8748 1.67966
77.5297 11.5718 1.76464
76.8524 11.6702 1.80285
80.2591 12.2959 1.92762
79.1158 12.2699 1.95036
73.4526 11.5829 1.86398
83.9842 13.2272 2.14637
79.5236 12.5459 2.05323
80.1126 12.729 2.07906
73.9563 12.1576 2.04642
79.2105 13.0642 2.19822
73.11 12.2778 2.10675
77.6227 13.2439 2.31791
77.8159 12.9566 2.23001
75.8057 12.9079 2.24153
73.5867 12.8025 2.30129
74.1942 12.9142 2.29434
74.4278 13.1559 2.37486
73.4468 13.265 2.42749
75.259 13.5866 2.52513
74.7405 13.5085 2.53526
72.334 13.2565 2.51072
75.2571 14.0172 2.644
72.79 13.7717 2.64729
74.0423 14.2989 2.8003
72.4959 13.7732 2.65282
73.5591 14.4048 2.85923
73.7281 14.3872 2.87178
67.6681 13.3676 2.71438
72.68 14.4834 2.92959
67.8129 13.7212 2.83889
68.1934 13.7955 2.86071
71.5528 14.5433 3.00216
69.309 14.5418 3.08914
65.66 13.7605 2.9581
66.2889 14.1633 3.07157
68.3447 14.614 3.18413
68.0928 14.6159 3.17718
67.2225 14.4859 3.16939
69.1243 15.1626 3.39855
66.5194 14.7545 3.30747
64.2519 14.4201 3.29121
63.9727 14.521 3.34598
66.6486 15.0753 3.48971
62.9638 14.4808 3.38282
64.0519 14.8533 3.50956
66.2405 15.3706 3.6238
63.4803 14.8891 3.55312
60.361 14.3879 3.50895
64.5948 15.2689 3.71359
63.4422 15.2165 3.71612
61.5236 14.8368 3.6591
60.6914 14.7247 3.65441
63.7413 15.7251 3.93914
62.1673 15.4705 3.92823
62.3125 15.7743 4.07514
60.8257 15.4044 4.00668
59.6553 15.1048 3.89952
61.723 15.991 4.22368
58.6207 15.139 3.99847
61.4952 16.2957 4.36797
62.1087 16.3022 4.36974
59.4309 15.7728 4.26287
61.7733 16.3725 4.4511
59.723 16.3818 4.56572
59.1621 15.9908 4.44557
61.9896 17.1544 4.83939
57.8625 15.9989 4.515
59.9971 16.3965 4.59091
60.9996 17.2226 4.92832
57.2501 16.3888 4.75113
57.8688 16.7951 4.94538
57.1999 16.6856 4.95194
59.6869 17.1911 5.04903
59.6401 17.434 5.1683
56.6379 16.8997 5.12854
55.46 16.5116 4.95857
57.0304 17.0267 5.1843
53.6654 16.1307 4.94314
54.9319 16.7509 5.23441
56.5002 17.4096 5.37983
52.7042 16.0979 5.041
56.6888 17.6498 5.57525
56.9138 17.9617 5.70676
50.5601 16.0292 5.17667
52.896 16.8405 5.41475
54.2503 17.4813 5.67632
51.7825 17.1074 5.65693
53.104 17.2867 5.68735
51.2854 16.8886 5.65044
54.2045 17.5385 5.85238
49.8088 16.5095 5.60611
51.9334 17.4104 5.87085
49.5394 16.9501 5.89661
52.4408 17.8072 6.13688
50.9775 17.539 6.06708
49.9233 17.1712 5.98236
50.1305 17.483 6.18825
50.1907 17.3387 6.09556
47.8919 16.7612 5.98445
51.8111 18.4828 6.65378
48.8356 17.3589 6.28135
50.9003 18.4303 6.71543
49.1399 17.9554 6.61729
49.0713 18.3415 6.92398
49.8986 18.0859 6.68074
48.5187 17.7494 6.62835
51.0849 18.9658 7.19868
51.6201 19.3758 7.34944
52.1348 19.6282 7.42952
46.9663 17.9003 6.96837
48.0677 18.3265 7.128
49.0138 18.7728 7.28388
46.4157 18.1891 7.21429
46.7914 18.3957 7.29715
45.0191 17.8797 7.25885
46.5313 18.1021 7.18175
46.2433 18.3952 7.3397
46.7722 18.8699 7.60921
45.7929 18.7145 7.71633
44.1586 18.0138 7.50864
45.5423 18.3659 7.62333
46.4681 18.8792 7.77106
45.7919 18.934 7.92569
44.9714 18.6905 7.84615
43.3414 18.416 7.81942
42.4891 17.8784 7.60214
44.516 18.8404 8.13199
45.1628 19.1993 8.33892
45.2405 19.5412 8.598
46.9995 20.5535 8.97411
45.4415 19.6827 8.70572
45.2739 19.5728 8.4804
42.3778 18.9054 8.59016
43.7988 19.4277 8.72558
42.5123 18.8895 8.47576
43.1929 19.5169 8.84772
38.5374 17.4006 8.08555
41.9156 19.0566 8.76934
41.9096 19.0107 8.70607
40.2208 18.607 8.64723
39.4048 18.3249 8.62404
43.4823 20.3794 9.57295
42.3006 19.79 9.36237
40.1644 19.0104 9.16577
41.3607 19.3619 9.15845
37.8642 18.3301 8.97999
40.1778 19.1359 9.22617
39.211 18.9756 9.28793
41.3339 20.1075 9.81808
39.4343 19.1128 9.479
39.8662 19.6759 9.76864
39.7656 19.6282 9.80184
38.1639 18.964 9.59205
40.1953 20.063 10.0692
37.758 19.0566 9.79226
39.1588 19.7158 9.99329
37.8945 19.5545 10.2133
37.2471 18.6493 9.53916
39.3642 20.5312 10.7205
38.1081 19.8059 10.4117
38.0217 19.742 10.4608
35.7839 18.3899 9.67379
35.8823 18.8416 9.97301
37.5618 19.9077 10.5769
35.2848 18.8618 10.2538
35.6774 18.8724 10.278
37.0555 19.7676 10.7481
36.6901 19.753 10.7669
36.163 19.9022 11.1449
36.3534 19.6464 10.8929
35.9042 19.7999 11.1184
38.0497 20.7779 11.478
37.4406 20.3122 11.1719
37.1924 21.0247 11.9174
36.3604 20.0161 11.0818
34.8372 19.9338 11.4279
34.2674 19.373 11.06
34.6899 20.2661 12.0402
36.8273 20.6926 11.8187
33.0252 19.1127 11.2168
34.1901 19.886 11.6548
33.8454 19.5036 11.4508
34.9994 20.4203 12.0541
33.7708 19.5877 11.4853
33.3441 20.421 12.5102
34.4309 19.7856 11.634
34.9446 20.8681 12.4677
32.3769 19.4732 11.8206
32.5891 19.8932 12.2851
33.0638 20.2193 12.4589
32.6068 19.5582 11.8601
32.6618 20.2437 12.6046
32.0364 19.7398 12.271
29.9021 18.8957 12.1717
33.0663 20.6796 13.1797
32.6003 19.8857 12.3562
31.0728 19.794 12.9079
32.4486 20.1238 12.6842
31.1819 19.6862 12.5874
29.9585 19.1172 12.4612
30.236 19.225 12.4377
30.044 18.9736 12.2433
28.918 18.8128 12.4972
32.7194 21.3846 14.0942
32.2614 21.2372 14.1574
31.3746 20.5346 13.6116
30.3265 19.8031 13.2005
30.1025 19.9249 13.4279
30.4119 20.277 13.6984
30.2595 20.3765 13.8102
31.1581 21.2141 14.5291
30.5444 20.4584 14.0267
30.674 20.9036 14.4234
29.2288 19.7348 13.4804
29.7144 20.8212 14.8396
31.4905 21.2442 14.3473
29.267 20.5814 14.6004
29.1375 20.3743 14.2354
28.955 20.3764 14.5307
27.7456 19.5313 13.9436
29.0773 20.5848 14.6546
27.2694 19.577 14.2578
28.2892 20.0793 14.559
28.5518 20.6899 15.2247
28.5849 20.4394 14.9725
28.8867 20.3204 14.5393
26.9651 20.1645 15.1797
29.3387 21.1384 15.4793
28.2355 20.6742 15.067
26.5439 19.7482 14.8835
26.6982 19.6715 14.9161
28.361 20.7534 15.3265
26.3567 19.6344 14.8311
27.5226 20.8011 15.8335
26.4272 19.9118 15.2133
26.9475 20.3426 15.4163
26.0611 19.9854 15.5155
26.2391 20.0017 15.5394
26.4369 20.0381 15.4325
26.1903 20.2923 15.929
25.7253 19.8015 15.5037
26.3139 20.5047 16.3503
27.2784 20.9166 16.3048
25.4562 19.8531 15.6074
25.915 20.5219 16.3582
25.924 20.5489 16.5602
26.2574 20.75 16.5445
25.7285 20.6594 16.757
25.8013 20.4617 16.5586
25.1103 20.1194 16.3215
25.5302 20.5814 16.8028
24.6486 19.9634 16.4935
24.8753 20.4338 16.9704
26.6939 21.6993 17.6957
24.1525 20.0294 16.9551
25.6286 20.9506 17.4932
25.8499 21.4814 18.0325
25.3817 20.9517 17.5097
23.6919 19.9266 17.0833
24.8344 20.6363 17.2905
23.9021 20.5979 17.9643
25.1694 21.1517 17.943
23.5643 20.0358 17.4144
25.5769 22.1808 19.0445
24.7338 21.0183 18.0536
23.5411 20.434 17.8385
23.0661 20.1893 17.8463
23.8636 20.7767 18.2693
23.4564 20.7151 18.3925
23.6109 20.803 18.2571
23.4908 20.808 18.5502
23.7474 21.0744 18.9476
24.2465 21.6007 19.3725
24.0126 21.5528 19.7625
23.5786 20.7015 18.3687
22.9352 20.7216 18.9792
22.8732 20.9212 19.4078
23.5016 20.4948 18.3268
22.6899 20.3674 18.3362
22.3767 20.4703 18.989
22.4399 21.0583 19.9398
23.1345 20.3647 18.459
21.6394 19.9947 18.675
21.7251 20.2101 18.8676
21.9638 20.5942 19.799
22.7638 20.7007 19.1433
22.6408 21.2321 19.9308
21.95 21.1315 20.4008
21.9488 20.5292 19.7929
22.6388 21.3547 20.2208
21.9321 20.9034 20.0443
22.0017 21.092 20.2198
21.3252 20.2791 19.5271
20.4182 20.093 20.0924
21.7709 20.8385 20.2596
20.5716 19.585 19.2467
21.2811 20.6265 20.0927
20.4365 20.266 20.4571
20.8592 20.0935 19.7331
19.846 19.4945 19.4004
20.4643 20.1599 20.1281
21.3113 21.3723 21.4895
19.7748 19.4915 19.6051
20.8178 21.3632 21.9905
20.2924 20.3947 20.8269
20.0152 20.1491 20.7107
20.251 20.1066 20.1145
19.5612 19.73 20.0128
19.6458 20.473 21.3449
19.5652 19.7481 20.3897
19.998 20.6959 21.7184
20.6689 21.5753 22.3682
20.5852 21.7973 23.2598
20.9641 21.6358 22.9082
21.9073 22.4962 22.944
20.0284 21.6097 23.6303
21.6307 22.6292 23.9691
20.0626 20.8672 22.2018
19.9633 20.6325 21.5964
19.9227 21.7238 23.6025
19.632 20.9343 22.6788
20.2593 21.3713 22.8129
20.0396 21.802 23.7646
19.6606 20.9931 22.5797
18.687 20.2999 22.4294
19.5469 21.7005 24.459
19.9015 20.9428 22.2289
17.82 20.0543 23.0369
19.8239 21.2087 23.4167
20.6775 22.2981 23.9395
19.9493 22.6629 25.5591
19.6888 21.7352 24.1085
18.6528 20.9921 23.9518
19.0206 20.8258 23.3199
19.2297 21.9413 24.7334
18.2738 20.4958 23.4482
18.2567 20.8425 23.8169
17.8201 19.3049 21.8354
18.5046 21.4393 24.825
18.4193 20.4664 23.2407
17.675 20.5045 24.2328
19.3042 21.9228 24.7813
17.5298 20.1722 23.7448
17.8123 20.8642 24.6087
17.7288 20.5043 24.3697
18.494 20.8501 23.9522
18.1843 21.1546 24.6844
17.4195 20.1792 23.6796
17.4987 20.7736 24.8751
17.8298 20.8618 24.6224
16.5317 19.4974 23.443
16.4229 19.0733 22.994
17.9883 21.3843 25.0819
16.64 19.9861 24.5618
17.9953 21.6667 26.0881
16.8739 20.3902 25.0815
18.0804 21.9848 26.7529
17.1436 20.6831 25.3847
17.4179 21.4429 26.671
17.5479 21.4955 26.8175
16.8745 20.0403 24.5361
16.1998 20.0342 25.0883
16.9252 20.3132 25.0584
17.3763 21.5405 26.3377
16.836 20.9288 26.0197
15.7094 19.479 24.6431
16.3466 20.2153 25.3567
16.416 20.4523 25.74
16.2773 20.5928 26.2779
16.2288 19.9776 24.9067
16.0765 20.4239 26.0602
16.3814 21.1647 27.3721
15.3095 18.7467 23.9104
15.5108 19.988 25.785
16.2199 20.7174 26.1179
15.6719 20.4097 26.4119
14.5668 18.8476 24.9611
15.1022 19.2797 25.457
15.8758 20.2089 25.8461
15.3147 20.3439 27.419
16.302 20.6631 26.1548
14.9323 20.0207 26.988
14.9231 19.1899 25.5718
15.2757 20.1034 26.292
14.9046 20.2088 27.8279
15.6893 20.5375 27.2746
15.439 20.5759 27.4188
14.3934 18.9911 25.8222
14.6127 19.5121 26.3944
14.5364 19.1384 26.2175
16.0638 21.4775 28.4724
15.3548 20.8222 28.4114
14.5533 19.5296 26.6525
15.1149 21.0583 28.9283
14.8244 20.313 28.2541
15.1769 20.9304 29.1163
14.8957 20.194 28.1677
15.5253 21.3223 29.6083
16.2922 22.4165 30.6814
15.1049 20.8308 28.9474
14.7125 20.2449 28.69
14.7133 20.0654 27.8238
13.5672 19.1984 27.7014
14.3221 19.7742 27.7562
13.3851 18.9734 27.9166
14.3343 19.4247 27.3717
15.0594 20.6092 28.1917
13.4217 19.2266 27.8958
13.865 19.736 28.4959
14.2981 20.4726 29.4428
13.96 19.75 28.2062
13.5102 19.4274 28.3601
14.2807 20.3755 29.0346
13.324 18.87 27.2247
13.5308 20.084 29.986
13.9972 20.1691 29.8263
14.1893 20.0775 28.8385
13.8217 20.0256 28.853
13.4693 19.8822 29.2354
12.5111 18.2893 27.923
13.846 19.9469 28.8967
13.1602 19.6491 29.354
13.2683 19.7051 29.8394
13.4815 19.5819 29.1597
13.0021 19.2185 29.2717
13.735 20.7192 31.6873
13.5612 19.6084 29.1239
13.8564 20.83 30.5917
12.9036 19.9454 30.9203
13.1383 19.9479 31.1933
13.5189 19.6026 29.2317
12.684 19.136 29.2246
12.4802 18.4695 28.106
12.8235 19.9109 30.7887
12.259 18.5031 29.2816
12.9201 18.6574 27.1742
12.0295 18.799 28.7455
12.0213 18.8139 29.5918
12.028 18.7523 30.0232
12.6263 19.2348 29.7906
11.6088 18.0392 29.3945
13.3787 20.7973 32.3791
12.9846 19.9764 31.4132
12.5337 19.0891 30.1157
13.1894 20.3255 30.9645
12.015 19.5367 31.6201
12.3568 19.1169 29.8666
11.6895 18.7407 29.912
10.9827 17.1752 28.1533
11.814 18.8369 30.3125
11.8187 18.524 30.0461
12.5178 19.8891 31.8544
11.8221 18.6147 29.6912
11.067 17.891 29.672
11.8818 19.1481 31.1093
12.0985 19.4209 31.2042
12.2356 20.3304 33.928
12.4758 19.2526 30.5229
11.5851 19.0182 30.6857
10.7629 17.9699 30.5418
10.9999 17.7922 30.2757
11.9572 19.764 33.105
12.1206 19.5434 32.5024
12.1147 19.8792 32.0168
11.1955 18.4552 30.9566
11.2747 18.3252 30.1302
10.9046 18.3963 30.695
10.7761 17.8816 30.0545
10.7967 18.4031 31.9051
11.2565 18.6641 31.3989
11.3855 19.5978 33.5294
10.9273 18.0293 31.2715
11.618 19.5277 33.2222
11.5134 19.0338 31.5881
10.4811 17.6708 30.8887
11.4631 19.3311 32.407
11.3956 19.888 34.444
11.2889 18.9808 32.5309
11.4144 19.6608 33.0835
10.5812 19.0589 34.2575
10.6632 18.1224 32.5835
10.9026 17.7201 29.7855
10.6779 18.5785 32.5996
11.212 19.3988 33.2734
10.4314 18.061 31.8245
10.8855 19.2608 32.9734
10.644 19.4608 35.2266
10.8105 19.0377 34.2404
10.2486 17.5121 31.5157
10.4564 18.54 33.377
10.6186 18.1834 32.0495
10.5107 18.7812 33.8828
11.0419 19.4206 34.4195
11.2989 20.221 35.8021
10.4151 18.4634 33.5506
10.7075 19.1823 34.3324
10.0836 17.9691 33.3864
10.6173 18.5293 32.5011
9.89264 18.2787 34.2761
10.7572 19.5181 35.8002
10.6896 19.2828 35.3051
10.7081 19.0545 33.9688
10.0523 18.1656 33.3807
9.81763 17.2146 31.2174
9.61357 17.9659 33.0228
9.45726 17.4413 33.3667
9.70471 17.0268 30.9165
9.91623 18.775 35.0569
9.65331 17.2561 31.8022
9.86669 18.4183 33.9145
9.7493 18.4917 35.222
9.68085 17.2441 32.024
9.37687 17.1019 31.0884
8.81937 17.4154 34.285
9.83599 17.8746 33.0274
9.31529 17.9007 35.3112
9.80072 17.8364 33.8247
9.79478 17.8769 32.8539
9.34932 17.8545 33.602
9.2827 17.8682 34.796
9.38683 17.1844 33.1242
9.4988 17.5274 32.5284
8.99622 17.39 34.2806
9.76941 18.7348 35.7989
9.4254 17.5638 33.2536
9.49754 18.7379 35.2548
8.58041 16.4503 32.6007
8.6268 17.0241 34.7092
9.29477 17.762 35.1906
9.30892 17.4297 34.0599
9.56358 18.1969 34.4453
8.89565 17.55 34.9944
8.86175 16.8941 32.9907
9.1685 18.437 36.8607
9.42638 18.318 36.8148
9.56678 18.0235 35.1511
9.23984 17.8555 34.7491
8.41593 16.6632 33.3479
8.76249 17.1599 34.696
9.04228 17.5264 34.8245
9.02964 17.4988 34.2583
8.75271 17.7458 36.5605
9.11579 17.5269 34.8231
9.09214 17.6388 33.8678
8.35951 17.3536 34.4952
7.7997 16.0385 34.7327
9.03779 17.2694 33.9904
8.77261 17.6842 35.1567
8.58408 17.6724 35.853
8.31502 16.9765 35.5156
8.41877 16.5637 33.5355
8.13471 16.7418 35.6019
8.83271 17.5536 35.3493
8.3101 16.6737 34.3091
8.37856 16.9072 34.9205
8.3057 17.0465 36.0243
8.51477 17.0132 34.8312
8.5536 17.6395 36.3103
8.03007 16.5503 35.5557
8.49903 17.3238 36.2057
8.76168 17.7063 35.8552
8.21716 16.8034 34.9542
8.33311 17.1533 35.562
8.25004 17.1647 36.4773
8.39044 17.0226 34.7159
7.88936 17.0393 37.0991
8.22468 16.6926 35.0683
8.33407 17.3443 35.9005
7.73698 16.4078 35.0411
7.99105 16.8789 35.2825
7.99571 17.1356 36.828
7.92136 16.3027 35.0455
7.7912 16.4706 35.0937
7.56005 16.2696 37.3213
8.60044 17.4228 36.1546
8.12163 17.2905 36.9649
7.62312 15.577 32.8616
7.61579 16.8386 36.1093
7.64367 16.601 36.2621
7.55362 15.714 34.2065
7.87934 17.1964 36.8317
7.61274 16.5465 36.5129
7.73504 16.4223 35.6391
7.64331 16.7254 36.8911
7.81301 16.6788 36.174
7.83064 17.4706 38.2738
7.70591 16.7257 36.9382
7.658 16.3004 35.4757
7.39854 16.6016 36.9386
7.41594 15.8719 35.1095
7.45147 16.5913 37.0982
7.08312 14.8895 34.2163
7.49174 16.4615 36.6113
7.69496 16.5096 35.7255
7.44589 16.4226 34.8354
6.8292 15.5699 35.36
7.06282 15.9829 36.9914
7.54517 16.8896 38.6702
7.56929 16.5597 37.6502
7.356 15.6645 34.7062
7.05496 16.067 37.8865
7.79337 16.8616 36.8067
6.95556 15.3066 34.1288
7.11055 16.5336 37.4389
6.82297 15.0618 34.177
6.89433 15.8499 36.2319
6.96877 15.8049 36.3177
6.74061 14.8608 34.7403
7.34835 17.1308 39.6075
7.68534 17.0612 37.324
6.8347 15.93 37.0236
6.74082 14.9834 35.4247
7.27463 16.8195 37.7714
6.82654 15.246 34.681
6.92276 16.7411 39.6279
7.08552 15.8003 35.8133
6.48094 15.3177 37.317
6.99184 16.4507 40.4334
7.78701 16.7569 35.9278
6.52682 16.1839 39.9533
6.98666 15.6356 37.273
6.75105 15.0013 35.6155
7.10374 16.5442 37.7039
6.85786 15.8001 35.9156
6.37338 15.5535 38.5584
6.81775 15.3405 36.3423
6.76351 15.5949 37.4085
6.82458 15.5696 35.6605
6.23068 14.8676 36.1986
6.64069 15.7447 37.2015
6.23125 14.3531 34.4497
6.40656 15.3547 37.403
6.71098 15.9669 37.377
6.41634 14.7177 35.102
6.46686 15.8679 38.2994
6.51108 15.4344 37.4524
6.55068 15.8629 39.0529
6.81809 15.989 38.1563
6.41357 15.0115 36.6828
6.48344 15.5827 37.5245
6.60543 16.571 42.7284
7.42325 17.1352 39.8446
6.54558 16.2714 41.559
7.13996 16.7403 40.7267
6.93759 16.6418 40.5518
6.69625 15.8202 38.7008
6.89705 16.9326 40.7611
