# pn-170911/RbIIR-51-RbIIF-1280-1959.psd
# Power spectrum* (dif=0,1,2) (really just |FT|^2)
# NOTE: only the first half! (symmetric)
# weeks: 1280-1959
# 2336 clock-days, 205 excluded
# PSD: 1441
624.083 0.235861 0.0269596
28999.8 0.55056 0.0413051
147684 4.07256 0.0434541
24383.5 0.956101 0.0451042
76397.5 6.63556 0.042434
8849.56 0.89258 0.0427427
8803.59 1.73748 0.0419411
4623.05 0.967681 0.042993
4887.76 1.53169 0.0415978
3255.05 1.01708 0.0452761
2938.61 1.33135 0.0415588
2340.98 1.19236 0.0420093
2336.64 1.44511 0.043524
1924.65 1.33301 0.045456
1732.59 1.52454 0.0454892
1647.85 1.5582 0.0434337
1506.58 1.73571 0.0434671
1432.74 1.81266 0.0459161
1463.11 2.05884 0.0438415
1336.5 2.17688 0.0481649
1309.39 2.27973 0.0478722
1302.39 2.6205 0.0497958
1236.51 2.67135 0.0471084
1211.6 2.89103 0.0482252
1238.56 3.23137 0.0519376
1219.43 3.46305 0.0513168
1202.35 3.7123 0.0534763
1167.92 3.87057 0.0554676
1216.3 4.33196 0.0591229
1218.98 4.69874 0.0611107
1163.65 4.89045 0.064538
1139.03 5.05979 0.0645646
1153.97 5.35029 0.0685181
1151.34 5.8296 0.0741784
1141.61 6.14266 0.0757659
1124.7 6.30281 0.078336
1121.5 6.79461 0.0828807
1139.4 7.20998 0.0914118
1126.69 7.5548 0.0916409
1125.94 7.92427 0.103777
1145.13 8.42672 0.107317
1150.52 9.0127 0.112922
1110.78 9.12899 0.117059
1102.37 9.49377 0.127897
1098.43 9.92981 0.133654
1054.32 9.93388 0.139264
1082.85 10.6939 0.147273
1079.6 11.1202 0.160311
1039.32 11.1227 0.162604
1062.69 12.0542 0.181237
1021.86 11.9996 0.18277
976.128 11.814 0.192366
1002.24 12.6349 0.200127
1002.98 13.2274 0.221179
966.435 13.1823 0.226
983.601 13.9407 0.244469
992.106 14.4672 0.257339
958.563 14.5981 0.266037
934.149 14.8024 0.280804
921.785 14.9742 0.28492
903.439 15.0975 0.30032
864.378 14.9184 0.311456
891.114 15.9289 0.330948
860.816 16.0306 0.346152
820.217 15.7964 0.345089
807.023 16.0689 0.363684
821.489 16.6664 0.384236
803.37 16.9717 0.400717
802.106 17.2836 0.4234
785.537 17.541 0.436737
775.365 17.852 0.46096
764.251 18.0083 0.465492
746.54 18.083 0.480791
732.848 18.2569 0.504845
713.443 18.2304 0.519656
705.975 18.5359 0.540417
682.621 18.4587 0.545778
695.059 19.2654 0.581697
661.102 18.9245 0.58878
670.408 19.7246 0.621456
656.678 19.6376 0.638942
664.128 20.5782 0.675448
609.21 19.2937 0.655639
618.298 19.936 0.691929
600.595 19.9633 0.703264
591.221 20.0054 0.709042
586.86 20.3362 0.749757
564.945 20.0739 0.754547
544.378 19.8702 0.767909
557.297 20.7284 0.813584
543.015 20.683 0.838382
515.266 20.0351 0.824784
503.669 19.916 0.838008
503.717 20.5438 0.87674
500.321 20.5343 0.88784
492.512 20.9777 0.939068
482.057 20.6514 0.938519
469.998 20.7149 0.953013
469 21.1616 0.998368
472.507 21.4908 1.03028
446.902 20.8684 1.02279
435.289 20.7111 1.03364
420.428 20.5684 1.04328
422.231 20.8665 1.08299
422.008 21.2974 1.12332
421.708 21.5908 1.15585
407.17 21.2608 1.16879
396.349 21.0903 1.17196
388.048 21.1962 1.19946
384.198 21.3044 1.23758
372.776 21.0263 1.23289
357.604 20.5222 1.22814
348.997 20.4982 1.25774
341.951 20.3805 1.25748
355.78 21.5519 1.35672
346.098 21.4149 1.35572
329.167 20.8348 1.36443
326.928 20.9423 1.38318
329.877 21.5512 1.44645
312.461 20.9171 1.43717
300.118 20.0806 1.38616
312.735 21.3008 1.50451
304.715 21.3233 1.53205
289.724 20.3136 1.49184
290.494 20.8435 1.54887
295.117 21.4501 1.60054
277.164 20.5171 1.56362
266.988 20.1351 1.56009
268.085 20.5944 1.62298
268.123 20.8672 1.67925
258.459 20.4075 1.65916
268.214 21.3849 1.75388
251.238 20.201 1.68551
256.159 20.9811 1.79069
246.201 20.7085 1.7754
245.612 20.945 1.82978
234.783 20.1258 1.78714
244.581 21.2678 1.91691
231.341 20.5393 1.85268
224.684 20.0724 1.86317
231.684 21.2517 1.98191
217.565 20.1472 1.90754
209.757 19.7389 1.8918
205.453 19.5257 1.90827
209.752 20.0706 1.98031
199.992 19.5638 1.96886
203.091 20.0897 2.04368
206.451 20.7702 2.13071
195.33 19.8771 2.0908
192.974 19.901 2.10307
188.255 19.7492 2.1279
189.711 19.9907 2.16534
184.971 19.8233 2.1654
188.708 20.413 2.27034
179.588 19.6751 2.22397
177.49 19.6707 2.22483
173.816 19.6388 2.26456
166.969 19.1715 2.25542
174.945 20.157 2.38193
169.921 19.8055 2.36724
166.913 19.8268 2.3857
161.421 19.4947 2.40921
160.111 19.403 2.40506
158.533 19.5803 2.45077
160.529 20.1008 2.5939
157.037 19.7479 2.5499
153.5 19.476 2.5416
143.457 18.5396 2.4711
154.269 20.2406 2.69596
150.502 19.8775 2.69709
151.474 20.2529 2.76438
142.069 19.2845 2.6808
139.217 19.099 2.67755
139.618 19.4962 2.77643
137.547 19.1296 2.73084
145.607 20.4403 2.95262
137.347 19.5828 2.83789
135.233 19.5278 2.8904
132.965 19.5094 2.91602
129.843 19.0318 2.8893
135.607 20.322 3.11726
132.035 19.8057 3.06558
128.163 19.4497 3.02796
131.461 20.2779 3.20759
124.752 19.4072 3.12983
123.948 19.435 3.1381
125.581 20.0151 3.26234
122.076 19.6903 3.24977
121.046 19.6344 3.30074
120.81 19.4912 3.2622
118.703 19.7643 3.3622
117.88 19.5205 3.34921
122.828 20.9083 3.61992
117.546 19.9494 3.49036
116.753 20.3123 3.58893
112.922 19.6018 3.49903
115.343 20.341 3.65817
114.214 20.1936 3.66455
107.207 19.4777 3.60222
109.195 19.8377 3.695
104.539 19.3457 3.64599
105.462 19.5804 3.69382
105.198 19.9176 3.83622
102.716 19.5587 3.78342
99.8734 19.1429 3.74827
96.441 18.57 3.67868
98.5363 19.2457 3.82736
97.8897 19.3734 3.892
99.2774 19.5679 3.94697
97.3172 19.5381 3.99794
98.9045 20.1861 4.1597
98.785 20.2057 4.23211
96.3959 20.0724 4.23962
91.4563 19.0977 4.05479
93.2982 19.7933 4.27815
94.1303 20.2213 4.37673
93.6642 19.84 4.32787
91.1653 19.8105 4.34919
89.7227 19.5796 4.35652
87.1433 19.2768 4.33263
89.1144 19.9192 4.49152
86.4262 19.2535 4.3603
92.1032 20.8786 4.79791
83.0846 18.9661 4.41258
88.5961 20.2757 4.71801
84.4181 19.7341 4.66023
86.4173 20.3574 4.87576
84.081 19.9095 4.83605
81.6867 19.3793 4.70113
83.9279 20.0903 4.89897
84.014 20.4478 5.0066
83.5167 20.3866 5.05782
81.3891 20.0253 5.01762
81.518 20.2828 5.10779
83.036 20.9791 5.37062
79.3259 20.1202 5.20177
78.8635 19.9909 5.18848
77.7501 20.0184 5.23239
79.9734 20.7224 5.46806
78.7468 20.5612 5.49091
77.7375 20.3413 5.42911
74.7435 20.2145 5.51711
76.3482 20.4133 5.50788
73.3019 19.823 5.45529
76.2204 20.7028 5.75359
74.2993 20.5181 5.75324
71.3978 19.6481 5.54447
75.6476 20.8061 5.84
70.2276 19.9447 5.71857
73.8094 20.8519 5.97679
74.2127 21.0996 6.09393
71.19 20.6749 6.07304
71.239 20.5755 6.07068
69.6672 20.3084 6.04269
68.203 20.423 6.16994
70.8042 20.9373 6.35045
69.7657 20.9224 6.37066
69.5667 20.9398 6.46009
70.4479 21.2532 6.52966
67.6736 20.8009 6.45651
68.4446 21.1873 6.62296
67.4304 20.8267 6.52025
67.4699 21.2827 6.79423
68.3393 21.4796 6.85902
65.4517 20.7234 6.68032
65.3053 20.755 6.7438
66.8579 21.6112 7.11922
62.1128 20.014 6.6203
64.0389 21.0276 6.98354
63.7031 21.0964 7.09202
62.5262 20.9016 7.14003
60.8307 20.0209 6.76905
61.4122 20.9543 7.2454
61.6491 20.9099 7.19599
62.123 21.3889 7.44079
61.607 21.4346 7.5658
62.0195 21.3062 7.48236
60.336 20.8545 7.35174
60.8039 21.283 7.62584
62.503 21.8772 7.8009
60.1909 21.4597 7.76344
59.2374 21.3024 7.77306
61.882 22.3463 8.21004
59.0923 21.7632 8.1006
58.8833 21.3504 7.90038
56.6968 21.1792 8.01147
57.816 21.2969 8.00936
58.8912 22.155 8.39123
59.4507 22.4036 8.54993
56.9391 21.4533 8.24993
57.73 21.9548 8.45245
56.6276 21.6751 8.4753
54.5725 21.172 8.37954
56.3133 21.5955 8.44993
54.1866 21.2093 8.45997
54.1577 21.3312 8.54913
54.9018 21.5433 8.59619
54.9928 22.3007 9.09786
52.0054 20.8143 8.53237
53.298 21.8907 9.12998
53.1532 21.6215 8.90101
53.0611 21.7223 9.11726
52.9618 21.6199 8.92976
52.156 21.5083 9.06295
54.9311 23.045 9.74845
53.0455 22.3925 9.64576
51.5296 21.699 9.36149
51.2586 21.7744 9.40287
52.17 22.2616 9.67877
51.8991 22.2531 9.71626
52.3523 22.4523 9.76165
49.9829 22.0498 9.84542
50.8163 22.3599 9.89504
50.1583 22.2207 10.0097
49.7449 22.2818 10.1041
50.5673 22.7169 10.2692
48.5963 21.8525 10.0164
48.6214 21.9333 10.0666
48.6005 22.4047 10.4245
48.1304 21.9604 10.2345
48.8838 22.3458 10.4344
49.0651 22.7919 10.7103
47.7185 22.5721 10.726
47.008 21.9792 10.4939
46.4547 22.0827 10.6353
48.609 23.0511 11.0517
45.2888 21.5971 10.537
47.5746 22.7712 11.0331
46.3765 22.6596 11.1417
46 22.4888 11.206
44.8375 21.8007 10.9133
45.9752 22.4706 11.1624
45.8867 22.7621 11.3947
44.6549 22.1963 11.2103
47.0229 23.7547 12.0707
44.3988 22.4836 11.5853
44.8139 22.7196 11.6762
44.2103 22.3287 11.5155
44.1718 22.5218 11.6496
44.9189 23.2138 12.1562
43.5052 22.6098 11.8974
43.0598 22.5882 12.0731
44.3222 23.0614 12.1494
43.4345 22.847 12.1478
41.3058 22.1011 11.9991
42.6321 22.7148 12.3424
42.734 22.8532 12.4809
42.9374 22.9177 12.3685
40.6015 21.9575 12.0556
42.7055 23.4384 13.0177
42.8134 23.3606 13.0534
42.2383 22.7638 12.5224
40.518 22.4385 12.5442
40.0116 22.4919 12.8502
41.2108 22.794 12.8372
41.7851 23.6469 13.5139
40.5205 23.0611 13.2212
39.6269 22.7913 13.2891
39.7074 22.7555 13.3033
39.2609 22.2261 12.8606
39.5785 22.8779 13.4806
39.0591 22.5698 13.243
39.5001 23.1971 13.8455
39.8947 23.4444 13.929
39.0691 23.0962 13.8127
38.3629 22.5992 13.5581
39.5684 23.6027 14.4247
39.939 23.8347 14.4732
38.4102 22.9012 14.0027
37.6784 22.476 13.6449
36.8444 22.5742 13.9882
37.0555 22.661 14.1063
37.7335 23.2891 14.6307
38.7884 23.5925 14.56
36.2345 22.5722 14.2078
36.8015 23.2306 14.8709
37.8423 23.678 15.0061
36.8131 23.2457 14.847
35.682 22.4779 14.3463
36.2799 23.4476 15.1241
35.6605 22.8777 14.9304
35.7173 23.1406 15.2841
37.328 23.9903 15.6111
36.6477 23.579 15.5825
37.4628 24.2788 15.8853
35.1166 22.839 15.1958
35.0124 23.1793 15.715
36.2869 23.508 15.5937
35.1172 23.1667 15.5553
35.8456 24.0915 16.385
35.2057 23.665 16.1911
35.0328 23.4648 16.1374
34.9128 23.3587 15.9029
33.0255 22.4022 15.5542
35.0244 24.1271 16.89
34.1895 23.3267 16.2002
32.5863 22.8808 16.3246
33.5742 22.8141 15.8561
33.2093 22.9282 16.2022
33.8326 23.979 17.1026
31.998 22.4308 16.0217
32.465 22.9483 16.5122
32.5567 22.9646 16.55
32.7922 23.602 17.1121
32.5341 23.7313 17.4044
32.0012 23.1369 17.1846
32.4206 22.9509 16.769
32.4151 23.4295 17.1162
31.9863 23.5817 17.7213
31.4777 22.918 16.945
32.0155 24.1072 18.2534
32.3099 23.813 17.8891
30.681 22.6536 17.1838
31.7571 23.7009 17.8739
31.4973 23.6964 18.0431
31.3129 23.6218 18.0972
30.3866 22.7663 17.5115
30.6554 22.9573 17.5621
30.3586 23.2431 17.9698
30.8486 23.6262 18.5096
30.6932 23.6055 18.2641
30.7807 24.0653 18.9888
29.7346 23.1338 18.5705
30.4373 23.4978 18.5065
30.0499 23.4649 18.7627
30.3931 23.6341 18.7585
30.2373 24.1806 19.4154
29.677 23.6646 19.0732
29.9194 24.0865 19.6123
30.1036 24.0114 19.5544
28.6497 23.2565 19.109
27.7512 22.2571 18.1966
27.8802 22.9126 19.1034
29.1172 23.3618 19.1763
28.3557 23.503 19.7468
28.4374 22.9884 19.044
27.763 23.0753 19.4976
28.9531 23.8597 20.2539
29.7987 24.5867 20.5352
27.7665 22.817 19.3225
27.8498 23.3935 20.1107
28.9698 24.01 20.1892
28.1096 23.9574 20.6036
28.2029 23.8042 20.4168
26.7866 22.9042 19.7919
25.9275 22.2765 19.5509
26.8639 23.4139 20.5668
27.0918 23.4431 20.6491
26.7961 22.9474 20.1722
26.5989 23.2554 20.4786
26.0828 23.0763 20.659
26.9093 23.794 21.2809
26.2493 23.0688 20.6994
26.5897 23.503 21.3372
26.8702 23.4772 20.9113
26.9056 23.9102 21.5742
26.5483 23.7238 21.633
26.4495 23.7089 21.389
25.7988 23.5297 21.7523
25.4202 22.932 21.1091
25.7427 23.5982 21.9517
24.5811 22.505 21.05
25.286 23.3459 21.7065
25.3233 23.2757 21.8538
25.2722 23.1898 21.5935
25.2515 23.7823 22.6099
24.7455 22.9562 21.6787
23.7241 22.2619 21.4419
25.143 23.4191 22.3015
24.9334 23.5425 22.6688
24.6222 23.2892 22.4749
24.8187 23.5341 22.7553
24.5085 23.0719 22.2063
24.0278 22.9446 22.3004
23.0679 22.2069 21.7791
22.9735 22.1656 22.0269
24.181 23.1855 22.5934
23.4684 22.6982 22.4684
23.737 23.2739 23.1586
23.7703 23.2133 23.3286
25.9196 25.3988 25.1296
23.977 23.7427 24.1204
23.768 23.2067 23.1809
22.8941 22.5594 22.5883
23.1836 23.5561 24.1151
23.307 23.2957 23.9008
23.6057 23.1478 23.1505
22.0967 22.5605 23.272
22.2494 22.7573 23.7844
22.9865 23.3982 24.4592
23.5165 23.6507 24.1477
22.681 23.1435 24.0469
22.2723 22.7567 23.6618
22.0839 22.6735 23.5573
21.5218 22.7191 24.4869
23.0844 23.8741 25.0544
21.694 22.8548 24.587
21.9365 22.6407 24.1827
22.0312 23.0076 24.4737
21.599 22.716 24.0704
21.5266 22.6343 24.3854
21.9709 23.2821 25.0851
22.2259 23.7984 25.6672
21.2247 22.7673 24.9675
21.5534 23.097 25.1275
20.8719 22.4124 24.661
21.4943 23.3123 25.7542
21.6107 22.8198 24.7984
21.2456 23.3578 25.9083
21.1884 23.3036 26.0635
21.208 22.9853 25.3772
20.6257 22.5299 25.2851
20.7331 23.01 25.8102
19.8885 22.0234 25.1779
20.7522 22.9139 25.8011
20.348 21.9866 24.4713
19.5932 22.3096 25.8465
20.6705 23.0297 26.1188
20.3676 22.8441 25.8045
19.8544 22.8784 26.5688
19.8183 22.7295 26.5689
19.928 22.1533 25.4989
20.0037 23.0252 26.8545
20.2489 22.9491 26.571
20.1668 23.3973 27.2414
19.5447 22.3104 26.0758
18.9399 21.8525 25.7144
18.9903 21.9328 25.8466
18.3698 21.7105 26.3212
19.4238 22.6481 26.7955
18.8541 22.0286 26.3793
18.7692 22.2398 26.6581
18.6354 22.1148 26.8569
18.8611 22.1049 26.4562
18.4431 22.0585 27.1606
19.3192 22.6044 27.2439
18.7086 22.3436 27.427
18.5745 22.0028 26.6463
18.7293 22.6475 28.0127
19.086 22.8655 27.8879
18.9534 23.0439 28.35
18.3745 22.0852 26.8797
18.1065 22.3956 27.9309
17.8994 22.0184 27.5691
17.939 22.1594 27.8677
18.3686 22.3972 27.8404
17.2759 20.9797 26.1281
17.115 22.0322 28.5725
17.806 21.8484 27.3497
17.6349 22.3222 28.7681
18.3541 22.9161 28.9335
17.8858 22.6033 29.0814
17.8021 22.366 28.5089
17.3497 21.9005 28.2792
17.3169 22.0646 28.4807
17.5311 22.2509 28.8716
17.2546 22.0929 28.8153
17.1956 21.8844 28.6693
16.8807 21.4496 27.908
16.7161 21.497 27.9769
16.5351 21.0996 27.6968
16.8854 22.1542 29.5641
17.0057 21.8644 28.8007
17.1327 22.0044 28.8498
16.5673 21.7031 28.807
15.9251 21.0698 28.7809
16.977 22.213 29.6366
16.5666 21.565 28.7488
16.6522 21.8905 29.4575
16.343 21.8635 29.6595
16.685 21.7272 28.9184
15.6835 21.106 28.9814
16.8618 22.5831 31.2982
16.6049 21.9904 30.0105
17.3414 22.9366 31.4198
16.6969 22.4786 31.4389
17.7024 22.8826 30.726
15.8881 21.7237 30.0947
15.7695 21.3708 30.3382
15.8587 21.5007 30.226
16.4293 21.9608 30.3354
15.9055 21.879 30.5902
15.6474 21.652 30.8102
15.8705 21.894 30.849
15.5472 21.3571 30.0111
15.392 21.6664 31.0831
15.6925 21.9889 31.371
15.3629 21.3996 30.6459
15.5353 21.6664 30.8038
15.4513 22.0663 31.6656
14.8384 20.602 29.7508
15.0505 21.4831 31.18
15.0745 21.1929 30.7987
15.1887 21.6726 31.7105
16.1483 22.7088 32.3198
15.0856 21.6583 31.316
14.7829 21.3206 31.3684
14.9658 21.2848 30.957
14.7234 21.4194 31.4582
14.2722 20.9282 31.1493
14.5985 21.1349 31.1624
14.3766 21.2754 31.8609
14.3896 20.8845 31.2245
14.61 21.566 32.6448
14.4365 20.766 30.8488
14.2935 21.2463 31.9718
14.6 21.5235 32.3531
14.3518 21.2268 31.8074
13.7169 20.5235 31.6269
14.0443 20.5089 31.2929
13.9217 20.8606 32.142
14.6857 21.9255 33.1591
14.0411 20.9485 32.2269
14.3477 21.5754 32.8499
13.792 21.1352 33.013
14.2414 21.4662 33.2709
13.5862 20.2673 31.5964
14.179 21.5437 33.2495
13.8722 20.9417 32.4357
14.1477 21.7138 33.4269
13.1102 20.366 32.5914
13.465 20.6465 32.4906
13.0807 19.9516 31.3108
12.7912 19.6662 31.5653
13.2852 20.4086 31.9624
13.5287 21.0379 33.3338
13.5043 21.1809 33.5582
13.1394 20.2203 32.0389
12.6878 19.7618 31.8293
13.3098 20.9869 33.5336
12.7809 20.279 32.8648
12.9427 20.4949 33.2061
13.0986 20.918 33.8599
13.2181 20.9607 33.8418
13.0862 21.0321 34.3595
13.1999 21.0194 34.119
12.4938 19.9706 33.2287
13.1049 20.6084 33.0237
12.4651 20.5214 33.9005
12.5941 20.5811 34.2723
12.6445 20.4081 33.5797
12.6097 20.3613 33.9115
12.3064 20.0737 33.4708
12.9925 21.2455 35.0972
12.6535 20.3822 33.7178
12.4616 20.5421 34.5185
12.3197 20.3203 34.2841
12.2523 20.26 34.2727
12.2642 20.1727 34.5126
12.3658 20.3187 34.4229
12.6534 20.8154 35.1356
12.4293 20.6843 35.0247
11.8741 20.0323 34.7813
12.2894 20.1718 34.0241
11.8701 19.7729 34.1553
12.2009 20.3679 34.7837
12.2955 20.6014 35.2094
12.0791 20.3616 34.8952
11.9375 20.3556 35.3753
11.7745 19.5972 34.0338
11.533 19.1563 33.831
12.4006 20.8254 35.9171
12.1648 20.3243 34.1225
11.2426 19.488 34.2923
11.3173 19.4994 34.72
11.8209 20.1261 35.2331
11.6993 20.3313 35.8097
11.4383 19.8429 35.2746
11.1863 19.4827 35.0031
11.3651 19.8654 36.1324
11.5197 19.5608 34.9943
11.4916 19.6747 35.2357
12.1788 21.2213 36.7804
11.4617 20.2364 36.0335
11.2075 19.9211 35.8327
11.1775 19.3926 34.8171
10.9267 19.7754 35.8983
11.0072 19.2547 34.9221
10.903 19.1483 34.5752
10.6981 19.0466 34.9255
11.058 19.5091 35.4914
10.9409 19.8684 36.2219
11.1766 20.0719 36.843
10.7429 19.4085 36.8015
11.5915 20.5106 37.3077
11.0048 19.4075 35.4542
10.9316 19.7954 36.4481
10.9097 19.9572 37.0809
11.0416 19.777 35.9934
10.5432 19.5752 37.0083
10.6419 19.5787 36.9922
10.636 19.1575 35.8409
10.3164 19.1274 36.3612
10.7149 19.2198 35.1152
10.3743 19.2702 35.8631
10.2875 19.5108 37.7049
10.94 19.7578 36.7712
10.2242 19.2048 37.3199
10.9497 19.9888 37.4821
10.5511 19.9791 38.8188
10.5078 19.129 36.3367
10.3427 19.1002 36.2927
10.3351 19.7692 38.0004
10.3128 19.4664 37.5667
10.143 18.883 36.1877
9.86866 18.4807 35.614
9.76165 18.7139 37.2468
10.267 19.1327 36.6299
10.0369 19.0606 37.0054
10.2057 19.3367 37.6035
9.75436 18.2132 35.588
10.0428 19.175 37.0579
9.5406 18.3205 36.463
9.83524 18.6174 36.5658
10.0306 19.325 37.7967
9.69708 18.8244 37.9461
10.0561 19.0809 37.3554
9.61006 18.2789 35.696
9.37369 18.7724 38.1568
10.05 19.2394 38.4519
9.82583 18.8448 37.751
9.8329 19.0729 37.3572
9.4115 18.3718 36.3172
9.46912 18.7147 37.286
9.24196 18.5667 37.8353
9.18493 17.6853 36.6294
9.53528 18.4902 36.8154
9.46432 18.9523 37.8145
8.99033 18.2224 38.2092
9.50075 18.6906 38.9267
9.61661 18.416 35.6774
9.0235 18.5096 38.1471
9.28917 18.8699 38.6192
9.02362 18.0741 37.5842
9.05996 17.929 36.6654
8.92954 18.2036 38.4439
9.08358 17.7674 37.0078
9.13023 18.2666 37.4758
9.06866 18.4191 38.2397
8.98883 18.1945 37.6294
8.83232 17.9561 37.6811
9.0742 18.2501 37.3825
8.63218 18.2755 39.2578
8.85776 17.5338 36.7853
8.79223 18.0046 37.5498
8.77284 18.258 38.3876
8.85365 18.1332 37.9292
8.64828 18.0124 38.4347
8.69099 17.9933 37.8818
8.72392 18.2493 38.5823
8.5386 17.7737 38.4247
8.73948 17.6971 36.9727
8.51938 18.262 39.5102
8.56014 17.5937 37.2423
8.51381 18.0616 38.6444
8.37553 17.5839 38.1661
8.59956 18.124 38.4712
8.04247 16.9627 37.1061
8.3361 17.9692 39.8985
8.63036 17.8341 38.5121
8.64442 17.9571 38.2162
8.29767 17.9457 39.3412
8.32676 17.6547 39.35
8.54525 18.2555 39.8202
8.3013 17.5337 38.8093
8.34622 17.6225 38.6006
8.39083 17.8184 39.1607
8.1365 17.452 40.0505
9.03188 19.2262 40.8306
8.01322 17.3983 38.8876
8.1229 17.2372 38.3745
8.38093 18.0536 39.1099
7.83251 17.0562 38.6288
8.01036 16.9315 36.9261
7.72544 16.925 38.2284
8.19275 17.8005 38.7632
7.63223 16.9119 37.8861
7.84144 17.1836 38.3239
7.59423 16.967 38.9963
8.00102 17.4795 39.0138
7.71034 16.8975 38.8451
8.06388 17.5158 39.1111
7.71549 16.978 37.9697
7.65891 17.285 39.372
7.59156 16.512 37.9675
7.69646 16.8649 38.5141
7.72211 16.977 38.5568
7.71898 17.2119 39.7981
7.74269 16.9273 38.1547
7.41959 16.6127 38.9021
7.58765 16.5783 37.7669
7.60922 17.01 38.8201
7.62195 17.3737 39.4881
7.35197 16.81 39.375
7.51497 16.833 38.8753
7.391 16.658 38.7829
7.54825 17.1419 40.1372
7.49109 16.848 39.3599
7.31379 16.6924 39.4457
7.61909 17.1129 40.0357
7.60068 17.1297 39.9052
7.46202 17.2338 40.6395
7.3524 16.6133 39.2261
7.31746 16.4794 38.2489
7.00105 16.3985 39.4433
7.24238 16.3686 38.8667
7.27742 16.814 38.9006
7.04805 16.8224 40.7847
7.38481 16.8335 40.1313
7.33814 16.7752 39.4567
6.97404 16.2183 39.3479
7.02098 16.0507 37.9289
6.88628 16.0464 39.1796
7.21566 16.8148 40.4312
7.16686 16.6644 39.5231
7.01665 16.6565 39.9052
7.0776 16.811 41.2171
7.20469 16.7262 40.4845
7.18732 16.7182 39.3258
6.87684 16.4137 40.5462
7.11906 16.7573 40.8978
6.95837 16.367 39.7882
6.71049 16.1 40.2876
7.13433 16.6234 40.5524
6.88754 16.2163 40.456
7.14109 16.6802 40.0991
6.95485 16.4803 40.4575
7.02534 16.6564 40.5507
7.08287 16.7434 40.1376
6.56556 16.0708 40.8334
6.83448 16.2382 40.648
6.8757 16.303 39.4254
6.74287 16.3332 40.2851
