# pn-170911/RbIIA-27-RbIIR-1280-1959.psd
# Power spectrum* (dif=0,1,2) (really just |FT|^2)
# NOTE: only the first half! (symmetric)
# weeks: 1280-1959
# 327 clock-days, 100 excluded
# PSD: 1441
4597.06 0.264201 0.0254797
622014 7.3102 0.0138786
3.78568e+06 81.3368 0.0165189
389391 13.8645 0.0149602
343004 23.2033 0.0143877
156556 15.0082 0.0149511
100594 14.4083 0.0180423
75946.4 13.7512 0.0156691
61329.1 15.6815 0.0171708
39518.7 12.5178 0.0195858
43269.7 16.6633 0.0188831
32022.9 13.9037 0.0235399
26616.4 16.054 0.0238914
21500.2 13.6228 0.023327
15995.8 11.9445 0.0252049
16089.4 14.0988 0.027283
13892 13.3062 0.0305017
13439.5 14.9922 0.0364399
12649.6 16.0732 0.0392903
11296.8 15.3265 0.0407562
8603.27 13.342 0.0395562
8436.38 14.5259 0.0453689
6428.31 12.7125 0.0430249
6355.76 12.0696 0.0441786
6409.51 13.8609 0.0519633
6417.43 15.9892 0.0661635
5854.27 15.237 0.0587866
4509.93 13.5755 0.0585951
4309.73 13.9027 0.0613591
5184.28 17.2227 0.0911795
3976.03 13.1108 0.0728832
3751.6 14.4669 0.0810713
3170.23 13.5352 0.0779306
3929.14 15.9727 0.102424
3503.57 15.9073 0.103598
2947.94 14.2099 0.0923796
3049.17 14.7217 0.102414
2799.9 14.6603 0.11533
2863.81 15.705 0.124367
2291.81 14.4509 0.121729
2599.37 16.3342 0.138992
2088.68 13.2086 0.117374
2002.68 13.7759 0.130666
2183.05 15.3141 0.145571
2149.04 16.3591 0.160234
1881.36 16.2694 0.170321
1861.43 16.1639 0.181133
1757.93 15.4627 0.18114
1828.42 16.7441 0.20627
1516.11 14.9015 0.189806
1439.88 15.6628 0.202388
1710.77 16.7497 0.222602
1458.77 14.4456 0.198391
1317.09 16.0754 0.227128
1465.86 16.6692 0.235659
1332.98 15.2416 0.228865
1151.23 14.9304 0.242868
1267.22 16.068 0.25416
1035.42 13.1394 0.229338
1247.28 17.7105 0.304548
1201.87 15.9573 0.283901
991.443 14.0901 0.263167
1051.39 16.9807 0.317344
1028.04 16.0093 0.31877
973.699 15.3839 0.313754
929.166 15.4894 0.3257
925.376 15.5292 0.340315
934.322 16.5951 0.375409
809.251 15.7857 0.375641
891.437 17.0864 0.415675
987.593 17.6764 0.426507
877.808 18.1159 0.446724
771.107 16.1813 0.406587
837.114 18.1679 0.461237
798.07 17.717 0.479562
790.151 18.7322 0.519412
709.926 17.7913 0.509954
896.959 20.9417 0.605346
671.314 16.1577 0.511194
691.097 16.4568 0.49279
663.642 17.3629 0.545841
611.781 16.9864 0.563333
621.438 18.6484 0.605199
716.531 20.8485 0.681917
669.379 18.9251 0.646766
637.284 17.379 0.627649
601.978 18.9542 0.684273
627.434 18.4579 0.678655
601.204 20.0733 0.737648
586.854 19.3232 0.754608
565.133 18.6956 0.721131
593.335 19.6462 0.780418
603.66 20.4633 0.828914
528.685 18.0249 0.787355
460.704 16.6515 0.721663
518.391 19.8653 0.862511
537.971 20.8738 0.943982
464.92 17.1 0.760556
462.029 17.993 0.826107
538.376 21.7238 1.03118
486.315 19.2906 0.898359
439.231 18.139 0.889046
549.98 22.1848 1.0894
456.361 19.8136 1.00839
512.849 23.2629 1.22057
422.545 17.5201 0.922253
437.854 20.5262 1.10649
428.067 19.8014 1.06286
380.505 18.8071 1.07818
451.389 21.848 1.23608
418.19 20.0082 1.17239
393.394 21.1714 1.23981
358.6 18.7741 1.10063
441.903 22.377 1.35341
373.31 19.9991 1.21112
384.177 21.8197 1.39834
388.65 20.145 1.29118
371.443 20.9033 1.35919
339.497 18.8188 1.27345
390.31 22.1552 1.49431
385.702 22.1354 1.53713
373.254 22.3388 1.57821
350.808 22.6098 1.59023
326.463 22.9795 1.62873
392.028 25.7198 1.8808
305.305 20.5351 1.52688
358.308 23.8693 1.81445
304.747 19.4328 1.49207
312.836 20.7983 1.65976
305.927 21.172 1.69341
322.879 21.6691 1.74575
291.206 20.0261 1.62771
289.685 21.7758 1.81953
307.812 22.3542 1.93671
287.681 20.4935 1.75624
307.985 23.1716 2.01422
308.642 22.9415 1.99952
296.76 22.9869 2.04925
258.415 21.2702 1.93266
293.214 24.2448 2.20921
271.542 22.1471 2.09329
282.44 23.0537 2.17996
264.313 22.5312 2.11971
251.613 21.1413 2.05459
250.983 21.8111 2.14051
261.916 23.2304 2.34646
257.526 22.6792 2.24854
239.236 20.5995 2.13356
234.006 21.1534 2.19461
258.191 23.5522 2.46818
251.342 22.6847 2.42072
216.043 20.2144 2.23024
229.964 21.8413 2.39609
236.626 23.1302 2.53891
218.418 21.6719 2.447
240.714 22.1774 2.52791
241.927 25.2959 2.95859
259.002 25.6844 3.01962
240.144 23.6687 2.74499
248.905 26.2574 3.13651
218.485 22.7069 2.72514
226.68 23.5304 2.83823
206.056 22.5873 2.86158
205.033 22.6955 2.86208
208.962 22.9534 2.91943
210.506 23.3524 3.03254
234.299 28.536 3.75404
227.838 25.2593 3.2565
211.552 24.5988 3.30699
186.095 21.641 2.95129
218.876 26.8209 3.62806
191.566 22.6223 3.14656
208.266 24.0821 3.37612
213.408 25.1933 3.58646
195.941 23.3955 3.36984
168.82 21.0321 3.08606
207.466 24.4958 3.55014
162.806 21.538 3.27162
188.493 25.2265 3.72711
208.205 27.0694 3.97778
188.874 26.2812 4.0438
176.571 23.4148 3.68873
189.173 26.2819 4.146
175.174 23.4328 3.72399
170.924 22.9393 3.68036
180.435 26.0435 4.08187
162.753 22.8931 3.71802
176.36 25.5715 4.19322
144.394 21.7599 3.69188
147.135 22.5497 3.84925
169.265 24.4765 4.15421
151.654 21.2141 3.6497
152.18 24.3236 4.25206
184.186 26.9509 4.7656
153.864 23.7664 4.14468
139.353 22.8427 4.17025
142.69 25.0418 4.50493
153.241 24.4425 4.36432
143.154 24.5787 4.57476
148.442 24.4657 4.53582
168.138 27.4432 5.24731
139.269 24.1479 4.56743
143.984 24.5489 4.70331
158.169 26.2965 5.02349
135.283 23.3198 4.40196
141.647 27.3125 5.5574
134.477 24.714 4.92225
136.867 26.607 5.41999
148.125 26.5991 5.38169
138.019 25.9431 5.2732
142.035 25.4782 5.15404
129.677 23.6892 5.05951
131.73 23.4018 4.76754
117.94 22.0348 4.68359
139.884 27.2142 5.83747
128.88 25.8802 5.52659
111.437 21.2199 4.63431
136.449 26.153 5.71403
115.513 23.0902 5.31473
118.962 24.1929 5.41765
140.646 27.2236 6.06605
129.459 26.1765 6.04522
135.708 25.0489 5.68604
120.995 25.4899 5.84666
123.826 26.489 6.28645
133.227 27.3382 6.37535
105.961 22.4301 5.33548
108.453 21.5335 5.15707
111.573 24.0374 5.92738
117.334 25.3129 6.01707
114.987 26.0699 6.5798
96.7058 21.7294 5.56582
109.617 25.3442 6.22927
108.74 23.8844 6.23148
109.567 25.9723 6.61502
104.808 24.6705 6.42332
114.281 23.2745 5.99872
110.431 25.0452 6.60608
102.787 24.7614 6.6666
109.779 27.0698 7.23278
100.626 24.6109 6.61626
95.7433 21.8059 6.00497
98.6864 23.7244 6.56863
113.265 25.4975 6.89177
103.121 26.3267 7.19984
106.929 28.4706 8.04002
101.233 25.4984 7.25096
110.609 25.7887 7.27143
99.9212 24.2177 6.98562
95.0228 23.8477 6.88053
103.31 25.487 7.39741
94.472 24.4715 7.18364
95.1565 26.8144 7.87889
95.2615 24.178 7.09594
84.4276 21.2736 6.50255
105.58 28.2302 8.40858
84.6356 24.9493 7.64215
87.8059 22.8562 6.7972
89.6709 23.6114 7.3946
99.2413 26.0686 8.25332
96.0354 26.2209 8.24543
96.3803 25.0829 7.82309
83.8048 24.3316 7.71958
76.8591 22.1362 7.2135
84.872 24.5968 8.10498
92.0489 25.769 8.22135
84.8148 24.9356 8.27426
92.9015 25.9002 8.64831
93.695 27.6698 9.0848
87.6059 25.5089 8.42829
85.1826 23.7594 7.95805
69.8668 22.1099 7.48726
83.9033 25.8408 8.82143
82.3451 25.8025 8.86413
82.8708 26.0841 9.29449
91.2371 26.1313 9.08402
80.4172 24.6662 8.81017
75.8092 25.4272 9.00578
75.3277 23.472 8.17062
86.232 26.4062 9.46732
83.6178 26.5147 9.58455
81.6442 25.8687 9.60273
81.0882 26.7166 9.67349
76.9645 24.9764 9.35854
81.6938 25.857 9.64577
73.7446 24.2352 9.1195
82.1853 28.2157 10.9878
80.9237 27.5513 10.2513
84.0821 28.643 10.9622
74.084 24.925 9.54757
75.8065 27.4812 10.3028
69.8161 24.5438 9.75951
81.7206 28.0475 10.9325
62.6412 22.6618 9.15273
71.8164 24.4156 10.0265
69.5219 26.4035 10.5436
70.1291 26.0187 10.5437
65.4015 23.502 9.78389
70.5893 24.987 10.5255
81.61 27.5437 11.0272
59.396 21.0604 8.69646
80.9655 28.8615 11.7923
69.571 25.6196 10.9573
76.242 27.2232 11.3168
77.0501 30.5163 12.9554
66.9191 26.7928 11.7183
66.7161 27.0134 11.9739
64.5691 25.7256 11.2098
77.8159 29.3274 12.2545
57.6821 23.3709 10.7403
69.026 25.8776 11.5279
69.3249 27.179 12.0101
73.8555 28.8302 12.3266
62.7044 24.8549 11.0959
67.989 27.8964 12.8833
69.246 23.7686 10.2692
64.4104 24.8773 11.7276
66.0948 26.0984 11.8719
68.8982 28.0431 12.9234
61.4177 26.34 12.6136
61.2296 26.1149 12.2751
70.1488 27.6254 12.6528
60.5233 25.7092 12.431
63.6868 28.026 12.9649
63.7557 27.0256 13.0561
65.7314 29.3194 14.4266
61.5894 25.6587 12.1604
61.7915 25.9701 12.3827
57.0061 26.8343 13.5093
54.331 24.9229 12.4444
58.4011 24.6228 12.1079
54.4154 25.5768 12.9476
55.9374 23.665 11.5632
51.9824 24.0643 12.2198
51.8466 23.8055 12.5723
59.3027 26.8665 13.3214
69.3788 30.4733 15.7294
55.7276 24.8119 12.4844
59.858 28.4215 15.1155
55.9753 27.0117 13.5401
60.1629 27.6711 14.8792
61.8044 28.127 14.7105
51.6196 25.5636 13.7786
51.7283 24.5482 13.222
45.4184 21.0355 11.5841
44.7113 21.9409 12.0015
47.9301 21.3736 11.4189
53.3703 26.3639 13.9386
53.3826 27.8659 15.3558
49.6504 23.9572 13.7833
50.1021 23.2752 12.8419
54.3418 26.1055 13.9967
44.9287 23.5293 13.6389
53.869 26.7928 14.9617
47.9476 24.5205 13.8777
42.9411 22.8356 13.5094
50.4207 23.7227 13.6397
53.2648 27.4142 15.5834
51.6072 25.0672 14.034
48.5049 24.5959 14.4879
50.9321 27.671 16.6949
52.1547 26.8117 15.7003
49.0298 25.3849 14.8528
41.2371 23.1504 13.9686
46.7487 24.8431 14.4483
43.9642 21.9098 12.9602
44.5888 25.0093 15.4281
47.682 25.9217 15.8288
43.837 23.2002 14.6868
46.4382 24.4312 15.0037
47.4089 25.0798 15.1234
51.8841 27.8371 16.9832
47.8907 27.6114 17.6658
51.252 27.5451 17.0649
46.0196 26.4277 16.9373
48.9028 27.3209 16.9928
46.9602 23.8829 15.369
44.7837 23.7372 15.254
40.2974 22.5575 14.7031
42.7999 23.1759 14.9717
42.1421 22.239 13.9171
45.5311 27.0114 16.6682
38.8832 23.0111 15.3079
41.0297 24.9044 17.0448
39.214 21.4974 14.3194
40.1738 24.4902 15.7629
38.429 22.6855 15.5989
41.3769 23.6954 15.3062
37.7967 21.8465 15.373
42.1376 26.39 17.978
40.3162 24.1998 16.4155
36.7514 20.7773 13.9425
40.3959 23.8084 16.2856
37.347 23.5557 16.8002
40.3565 23.3937 16.5854
37.3448 22.5145 16.1313
38.8073 22.8351 15.4382
42.1885 26.7753 18.4242
36.9031 25.0211 18.6076
38.4231 24.0097 17.255
38.1022 23.713 16.8399
35.8315 21.5665 15.2946
39.9523 24.7309 17.8143
35.556 21.3075 14.9345
33.5038 22.978 17.8019
39.1622 25.6735 17.9614
34.1343 22.39 16.7675
38.9368 24.6544 18.8624
38.9148 25.6911 18.4359
36.031 23.6094 17.796
37.3539 24.7947 18.4063
34.4663 23.0685 17.8929
33.5698 21.8632 16.2948
37.1532 25.2604 18.4706
32.5355 24.1236 18.4997
36.4868 24.865 18.6666
39.0134 26.5359 20.7605
38.2414 24.6295 18.1356
36.4495 25.2559 19.7609
30.4275 21.1079 16.7813
39.9593 26.7482 20.9177
34.0218 23.686 18.8691
34.9536 24.0336 18.7904
33.5314 25.5953 20.9922
35.2481 24.3707 18.8087
34.92 24.1049 19.1413
33.1038 24.6662 20.3758
34.3299 22.5542 17.7679
31.6632 24.1148 19.6058
35.1648 26.0173 21.933
32.3982 24.0103 19.8034
36.1945 23.2958 18.627
35.4201 26.7852 22.1034
31.9539 22.4971 18.3298
34.3441 23.5625 19.2693
28.8847 20.7241 17.7432
31.1312 24.7645 21.3404
30.3866 23.5056 19.4274
36.2222 28.2074 23.5507
31.4854 23.1033 19.9743
33.1177 26.4946 22.3498
29.2756 23.1748 19.993
31.7158 23.4306 20.5319
31.5144 22.6252 19.5076
31.2054 25.2934 21.7332
28.0206 20.4267 17.6097
29.5065 22.0434 19.2926
29.3877 21.5079 18.8612
29.6725 23.8301 21.0834
28.7108 22.5336 20.6736
30.8402 23.5176 20.4991
29.9257 22.3886 20.1903
30.8967 24.5121 21.1948
27.3631 21.648 19.9001
28.7785 21.1628 18.4165
26.8101 21.697 19.2979
26.9301 21.9007 19.6576
30.0764 25.0565 22.1238
25.3585 21.5491 20.9316
29.9632 22.8562 20.1949
27.5397 23.3951 21.6916
29.4352 25.4428 24.0338
29.6726 24.2009 23.1742
29.7749 23.6007 22.7405
28.7053 23.0112 21.0571
25.8859 21.0762 19.8567
27.5469 22.1853 20.2482
29.3179 22.5189 21.0744
25.2292 21.9411 21.4245
25.9859 22.3386 21.4782
24.9889 21.4068 20.8486
23.3851 20.7316 21.1008
27.1196 21.7179 21.1304
26.6883 22.261 21.7329
28.1093 22.828 21.8829
24.2622 20.85 20.1817
28.7668 24.0289 23.2514
23.1467 20.7802 21.4877
25.6414 21.6999 21.1277
25.5514 22.2076 22.9101
27.8709 24.9704 24.2514
25.6876 21.7655 22.1968
27.8926 25.2501 25.5919
28.2263 22.6308 21.8263
25.5901 22.0586 22.4527
28.7196 26.4871 26.0061
25.2906 21.4461 20.9129
25.6019 24.146 24.5249
24.5966 22.0669 23.782
29.4843 27.8393 28.1985
26.1582 25.9539 26.9054
25.3038 21.5248 22.7851
25.9107 24.5491 26.7185
26.1039 20.9354 21.4387
22.7857 21.2253 23.0671
22.9958 20.6493 21.06
22.1701 20.4816 22.1497
22.7528 22.4019 24.6873
22.9741 20.5788 22.1992
22.1185 20.499 22.2178
24.3528 23.6542 24.3638
24.3316 23.6832 26.6148
24.3054 23.1154 24.9045
25.8506 24.0332 26.0013
24.0048 21.4118 23.1893
24.5744 23.9447 25.4523
20.9947 19.0493 21.7235
22.7986 22.0806 24.5239
24.215 20.9081 21.9717
19.0431 20.417 23.0304
24.7152 24.9534 27.0604
20.9084 21.9254 25.2149
23.3526 22.9008 26.0537
22.6692 22.8069 25.9269
20.7698 18.3622 20.6661
25.94 24.3559 25.7612
21.0166 20.4252 23.4489
19.0204 20.6864 23.8548
23.0567 22.6723 26.5643
21.1964 21.079 24.1444
22.0522 22.845 25.6907
22.7898 23.2412 27.722
23.071 21.9186 24.5921
23.7825 24.1658 28.2823
20.1314 21.9749 27.1163
21.1669 19.9484 22.4817
21.2958 21.6784 25.5462
18.4667 19.6541 23.7799
20.2995 21.5174 26.1562
22.1539 21.977 25.1232
20.2556 20.9957 25.3436
18.9439 20.5478 26.7606
21.4985 22.5692 26.548
19.8786 17.7561 19.9896
20.8137 22.1173 26.3002
21.048 21.8305 26.2566
20.8444 22.0608 27.3741
20.1147 21.6016 26.7768
20.5502 21.8436 26.5908
18.3952 20.2782 25.2664
20.6538 19.6735 24.2742
21.6057 23.1127 27.9055
17.9824 20.5036 26.196
20.0557 20.8026 24.9351
19.4893 22.8909 29.4897
20.0577 20.9677 25.2285
18.5966 20.2299 26.5758
19.8123 22.2457 28.0033
20.4938 21.9233 28.2297
19.0352 20.998 27.8714
21.6173 24.3841 29.7715
20.1529 21.733 27.4132
20.7387 23.5956 29.7834
19.1255 20.965 27.6355
19.9533 21.636 27.5542
18.3899 20.7615 26.8704
17.9061 20.6644 27.2207
18.6155 22.214 28.887
19.5523 22.8498 29.985
18.3427 20.0402 27.1344
18.9108 19.6978 24.5403
17.8852 20.986 27.8541
18.4436 20.262 26.7512
18.5211 21.6738 28.5931
18.7395 21.0767 28.9955
20.5068 22.1771 28.4986
18.44 19.3585 26.338
17.1525 19.6833 26.7016
17.5626 21.2845 29.9962
18.0609 18.7146 24.6755
17.8117 21.4785 28.553
19.3306 22.7437 29.9893
17.6255 20.668 28.5359
14.5734 18.0988 25.8841
18.0555 21.2098 27.9698
17.671 21.084 28.998
16.827 20.5257 29.5286
17.7864 20.8108 29.2167
18.1652 20.4547 28.3182
16.2755 19.3492 28.4633
18.1684 20.1194 26.8524
19.3162 23.164 30.4179
15.1691 18.7659 27.3766
15.9592 18.5041 27.6027
16.8765 20.7917 29.7295
17.7978 21.3399 29.5208
16.6381 20.9833 30.6332
17.0607 21.0732 29.063
18.0405 22.3455 31.8368
16.9143 20.6804 28.1209
16.9473 21.8889 33.778
17.12 19.8331 27.836
15.5396 18.1806 26.649
16.0373 18.7347 26.4824
14.5408 19.7968 29.304
15.6579 19.8728 28.4518
14.0561 18.4929 28.4696
15.0167 18.1736 28.3624
15.2859 17.2628 24.0349
14.4137 20.5639 31.9304
15.6492 18.7787 29.3751
17.0494 20.8776 29.3812
15.2214 19.3294 28.4491
15.3706 19.3391 28.3998
15.8063 20.7949 31.0049
15.9445 18.6656 27.6307
13.7614 18.1033 27.2959
13.4614 19.353 30.6648
17.2799 23.2571 35.5936
15.267 19.0271 28.718
15.2527 20.6807 31.277
15.7536 20.7967 30.9815
15.3195 20.4587 30.2146
14.0434 18.6246 29.471
15.2776 21.0648 33.8767
16.2873 20.395 31.6595
15.3138 19.1311 27.7935
13.7269 20.0337 32.6118
14.7852 19.8105 30.8903
13.0622 18.7647 30.7053
14.8801 20.5555 31.6334
15.2063 19.8983 29.8138
14.0119 18.3905 29.2122
14.7993 20.2829 33.4309
13.1635 17.8136 26.0061
13.3773 20.4286 33.2231
15.2316 21.535 35.0834
15.2817 20.4609 32.8274
13.0671 18.5351 31.871
15.1582 20.2112 31.7504
14.1158 18.6984 29.0384
13.9169 20.0381 33.5012
14.7954 18.721 29.4652
14.824 20.3828 31.478
13.3401 18.2561 30.5989
13.7612 18.4323 29.8183
14.0485 19.4388 32.1363
13.887 18.034 29.1365
13.2864 18.4491 30.9005
14.0439 19.4316 32.0399
13.6935 20.373 35.3038
15.2622 20.247 31.9047
13.7598 20.9803 35.3293
14.985 21.9472 37.156
13.6241 20.1055 34.4451
13.332 16.7892 27.3352
13.5256 18.7744 31.2518
13.0029 19.9611 32.0963
12.3891 18.8782 33.1684
12.3218 19.8095 32.3519
12.5161 17.3354 29.8246
12.4784 17.996 30.99
13.9312 19.0722 30.741
11.3083 17.839 32.6103
12.9194 18.8211 31.6754
13.2163 18.5248 29.7867
12.4303 19.0919 32.6733
11.8562 17.545 29.8296
12.9881 19.046 33.2727
13.2125 18.7181 34.5357
14.2813 21.068 35.1526
12.5326 19.3591 32.2834
10.9143 17.6732 33.8025
14.5064 22.1637 39.4865
13.4551 18.7388 31.3918
14.1968 19.8028 31.8897
12.8128 19.8757 36.2436
12.2256 16.854 29.767
11.9119 19.2606 34.4444
12.0972 18.7418 33.7947
12.4565 18.3606 31.2619
10.9451 17.4211 33.1945
13.0085 18.5872 31.5277
11.6319 20.1443 36.0766
12.9261 19.2859 36.3507
10.9609 15.8078 27.2008
10.4759 17.0383 31.6037
11.894 18.3801 32.8119
12.5118 18.7973 33.7468
11.1482 18.3366 32.3012
11.7972 18.8463 33.9506
11.3288 18.4813 36.382
11.8919 18.6626 32.0228
10.7884 16.1635 33.0491
12.1241 19.7611 35.8323
11.9326 18.318 35.0833
13.0465 20.0572 36.3566
12.7317 19.3173 35.5692
11.1512 19.3879 36.2401
11.6936 17.1406 31.4826
11.4253 19.7456 37.0206
11.2261 17.431 32.947
12.2247 19.4749 33.5784
10.7352 17.6004 35.2791
10.936 16.6433 31.3974
10.9846 17.918 34.6309
11.2378 16.0251 30.3398
11.1556 18.2816 34.449
11.272 16.7888 31.312
12.694 20.6685 37.0919
10.2383 18.3795 36.5876
10.3568 15.9406 32.1899
11.5532 18.8751 35.4389
11.2247 18.3186 34.6851
10.7718 19.1213 37.9665
12.2317 19.7415 36.1366
10.6982 17.995 35.2148
11.7255 19.6997 37.8541
10.8314 18.047 36.9809
12.0368 19.6889 37.5968
10.2468 16.8437 33.3672
10.574 19.2274 38.1039
11.9864 19.969 40.2884
12.4101 20.1998 37.6567
11.0661 19.0086 36.7013
10.6633 19.2584 40.1539
10.1482 16.7111 34.3702
10.3644 17.4902 34.4844
10.5942 18.4617 36.8937
10.3901 15.8663 32.2691
10.5247 17.2223 35.1543
10.9274 18.2315 35.1485
10.4902 18.064 36.1598
9.63974 15.5694 32.9936
10.0761 17.5196 35.3782
9.80846 17.2476 35.6896
10.6645 15.999 30.3247
11.0113 18.9147 39.5775
10.3183 17.6732 35.1093
10.2036 17.8709 36.3427
9.40301 17.9103 36.5882
10.1159 17.4454 35.6758
11.1569 17.0548 34.926
9.29022 15.5379 31.8811
9.47841 17.5212 36.822
10.4512 17.1252 33.7109
9.39321 16.0162 33.5469
9.60201 16.7357 35.4448
9.65383 16.3042 33.9197
10.7481 15.9817 32.4051
10.1228 18.4303 38.9268
10.5378 17.4734 34.9687
9.02176 16.5006 35.3765
10.1216 16.3869 34.4336
8.94967 16.7366 38.1518
10.0545 17.5024 34.245
10.0357 19.1721 42.944
9.84276 18.1983 36.7072
10.2597 17.4638 38.095
8.81634 16.4119 36.5509
10.2664 17.5448 34.6017
8.94862 17.8172 39.7843
9.77329 16.0382 34.6359
8.61455 15.1639 31.1018
8.97532 17.754 37.5699
9.16032 16.1692 35.386
9.65647 18.1987 36.5881
9.28613 17.1636 36.5278
9.12229 17.0941 37.1352
9.29356 16.601 37.827
9.09756 15.0353 33.0777
9.23941 16.6068 34.5649
8.57539 17.985 40.8293
9.45933 16.6054 35.4196
8.81887 15.6969 34.3852
9.38892 16.7022 35.8299
9.13866 16.9857 40.1128
10.5097 19.4787 39.8301
8.55227 16.1942 35.7161
8.7202 17.6059 39.5542
8.84341 16.3313 36.4794
8.68435 15.7271 37.3356
10.52 19.1636 39.2981
7.93564 13.372 30.5793
8.31166 16.5367 33.0701
7.48578 16.0684 38.4549
8.00049 14.5662 36.0529
10.6193 17.2678 37.7798
9.22387 15.7475 31.6258
7.13914 14.6962 35.9262
9.0106 16.3624 35.9767
7.66091 15.4495 35.6945
8.22097 16.8034 37.142
7.32127 13.9643 34.7771
8.8867 16.3472 33.4732
8.3029 16.2265 38.2917
8.49469 15.2521 34.9866
9.16017 17.696 41.0937
8.72938 16.1907 37.097
8.35162 14.2554 32.4933
7.8513 14.7974 35.4983
8.47905 15.9456 34.266
7.26729 14.3399 35.6374
8.9491 18.1728 41.3378
8.30779 14.979 34.3443
8.22154 16.2032 37.7981
8.86509 18.4638 42.6964
8.45971 14.9613 35.0667
7.77889 14.2701 32.0761
7.75053 15.7479 39.1283
7.89244 15.4277 36.0466
8.19577 15.2236 37.2904
8.79171 15.5486 36.0605
8.69901 17.0522 38.9757
7.54178 15.051 35.7159
7.52109 16.1967 38.7076
7.56969 14.2564 33.3412
7.43428 14.6668 35.9615
7.87252 15.1726 36.1516
8.3932 17.0329 39.0578
8.35781 16.7475 38.3411
8.19366 15.642 38.0507
7.23713 13.6135 34.8261
8.56426 16.878 37.9728
7.35317 14.372 35.9679
7.22412 15.502 38.5346
8.83393 16.7441 39.2116
8.08157 16.1581 39.2033
7.75825 15.0176 37.1451
8.56309 16.4249 37.0492
7.30507 14.0086 35.0722
7.58308 15.5804 37.2547
6.83382 15.743 38.4779
7.42539 15.8313 42.3702
8.41993 17.8572 42.4094
7.73062 15.2573 37.3315
8.11387 17.3076 42.3871
7.82597 14.689 36.9198
7.92119 15.8822 41.4612
8.33513 16.1305 38.5048
