# pn-170911/RbIIR-41-NIST-1280-1959.psd
# Power spectrum* (dif=0,1,2) (really just |FT|^2)
# NOTE: only the first half! (symmetric)
# weeks: 1280-1959
# 5 clock-days, 1 excluded
# PSD: 1441
23.5479 0.116514 0.028046
11892.4 0.469641 0.185507
19205.7 1.08065 0.114196
18901.3 0.387772 0.168761
15312.7 1.13594 0.103133
13366 1.00049 0.165303
2870.68 0.734456 0.0688754
3279.93 0.995929 0.190809
2437.46 0.424177 0.0828721
3193.11 0.834508 0.172243
1896.6 0.997248 0.117111
863.296 0.649912 0.196009
2342.4 1.49343 0.0745888
1762.05 1.90261 0.150674
1723.11 1.27655 0.135706
792.43 1.31422 0.142453
708.779 1.13684 0.102468
452.626 0.879071 0.142027
668.099 1.37636 0.0892656
694.241 1.15329 0.182034
1155.56 1.95241 0.110104
455.384 0.433616 0.112078
402.258 0.733463 0.193127
464.368 0.714489 0.166504
609.19 1.46077 0.0971195
184.421 0.9676 0.122408
256.337 1.07156 0.136124
444.73 1.25214 0.188274
582.914 1.98514 0.121662
272.77 1.53875 0.0885366
450.28 1.53795 0.157159
233.295 1.31335 0.15904
270.143 0.973859 0.133614
239.199 1.52577 0.0836168
295.561 2.23487 0.205937
85.7623 1.23738 0.146631
305.003 2.86936 0.0918212
145.512 2.0371 0.0948114
451.911 3.5007 0.139699
64.6453 1.19084 0.140442
105.085 1.1872 0.217738
367.62 2.61234 0.116759
518.008 3.6759 0.127515
648.957 4.40823 0.117291
158.576 2.13535 0.178493
323.876 4.40392 0.136481
228.756 2.44686 0.206029
303.771 3.701 0.235259
301.333 3.42522 0.187571
440.135 4.34646 0.137577
354.379 4.36515 0.145886
108.489 3.07119 0.163547
178.073 2.53087 0.130758
475.914 8.00976 0.18747
398.155 4.47099 0.260192
217.398 2.22027 0.162518
222.82 5.5699 0.185923
228.622 3.81865 0.153035
188.813 2.38061 0.145057
376.522 6.51992 0.280793
471.983 8.56992 0.382722
200.389 4.76362 0.138109
332.604 6.41689 0.118732
266.892 4.34905 0.202276
413.188 8.87332 0.202505
151.649 3.05558 0.154788
99.3285 1.58388 0.132363
419.176 7.48137 0.42091
288.777 6.81305 0.334027
509.625 9.4448 0.371882
262.301 6.11558 0.10986
155.51 5.42193 0.260384
191 3.6019 0.18359
139.08 5.83335 0.365783
223.352 6.79452 0.170081
314.026 6.33395 0.558327
238.241 7.06157 0.323532
255.915 7.15244 0.318714
195.499 5.21963 0.210318
135.804 2.28416 0.0922395
450.782 12.3843 0.470548
318.135 10.7046 0.235816
274.509 6.62689 0.370092
155.55 3.78648 0.120829
143.639 6.37875 0.289599
269.783 10.0139 0.34372
190.497 5.56488 0.161216
165.443 4.8189 0.289673
214.501 6.73225 0.508335
203.06 8.76485 0.505591
280.563 7.42717 0.450708
191.039 5.17602 0.218283
120.658 4.55304 0.362418
198.7 7.30923 0.448793
172.625 6.62872 0.349494
46.2574 2.16715 0.207146
174.133 6.66843 0.548745
137.665 4.5962 0.265074
245.61 11.7331 0.631886
214.414 8.73587 0.393994
191.835 8.95107 0.7569
90.8688 5.77772 0.377382
183.391 10.0903 0.266323
198.433 10.2388 0.741647
87.9268 3.25855 0.281757
107.065 6.17419 0.555321
123.544 7.89828 0.493337
210.891 11.5866 0.661899
181.44 10.3379 0.858983
251.818 15.606 0.636099
126.063 9.93958 0.550519
184.704 10.2225 0.703789
215.464 13.2849 0.73365
92.0734 4.23078 0.206447
185.456 12.381 0.744225
312.885 14.9892 1.26812
162.509 8.86004 0.559911
193.23 12.1567 0.722512
136.715 8.64954 0.923506
264.063 16.0017 1.19283
222.868 14.4355 1.25121
144.382 10.517 0.791059
155.329 12.1028 1.0658
133.823 11.8387 0.737952
135.522 8.79401 1.0359
190.19 16.6328 0.920242
227.754 18.0904 0.887669
138.475 13.2564 1.12629
239.875 16.6966 1.16709
193.565 19.2809 2.01393
198.244 13.8796 1.18564
215.394 16.4103 1.33656
116.277 9.90411 1.06107
152.206 14.175 0.947202
251.694 21.6804 1.40318
130.673 12.0089 0.945186
206.599 16.4058 1.50033
70.4262 7.57584 0.590624
111.198 8.98269 0.592066
198.097 21.1562 2.03119
74.8927 5.94141 0.632393
201.305 17.437 2.36834
178.208 20.8275 1.91763
192.958 20.0831 2.1201
172.131 14.5384 1.63755
105.174 11.5564 1.30222
186.351 17.7477 1.49382
117.801 14.2005 1.58233
119.143 12.192 1.34968
160.882 14.4292 1.66973
55.1178 6.8235 0.400797
101.331 13.9123 1.31556
161.644 17.0206 1.8182
53.9602 6.35393 0.41865
194.385 17.6704 1.91844
233.083 25.5983 2.93352
108.027 11.2981 1.44023
144.83 15.0653 1.64406
206.355 23.4959 2.94854
173.008 19.2461 2.7349
47.443 5.50914 1.05129
147.969 18.3746 2.04543
66.7048 9.66558 1.9417
109.256 13.9539 1.56099
174.726 21.0199 2.6274
82.7729 10.468 1.23902
82.9722 9.03925 1.16503
96.2907 11.9629 1.90337
94.8678 14.3566 1.52294
166.098 22.0202 3.14285
171.4 22.7122 3.22776
69.0416 12.1061 1.79567
97.1838 11.5093 1.70037
83.5219 11.3521 1.60752
99.4722 12.0144 1.97227
80.8773 11.8888 1.49022
82.943 11.8887 1.53879
32.1279 3.71115 0.634388
58.8255 8.84796 1.51672
129.713 23.6836 3.33168
71.3718 12.5542 2.21977
127.177 21.8029 2.96282
116.855 13.76 2.24649
97.2059 16.2365 3.13899
126.811 19.7286 3.10548
117.277 19.7191 3.36311
128.476 18.0736 2.39714
121.907 18.7925 3.62629
113.581 16.476 2.57978
138.028 23.7221 4.42421
64.8306 11.2221 2.23593
70.5879 10.4228 1.49749
70.7592 12.2703 1.53348
113.227 16.0516 2.62797
22.1259 6.44018 1.41504
184.12 28.0475 4.02108
85.923 15.0794 3.17058
108.212 19.8135 3.58534
60.61 11.5714 2.14514
50.7444 12.5648 1.60981
85.6836 12.8887 2.16854
96.1101 16.1209 3.24881
136.181 24.1919 5.40108
35.4359 6.58682 1.50189
38.1136 9.01058 1.65919
100.719 22.3714 4.47432
35.753 6.03811 1.34728
123.99 21.9911 3.92856
203.919 43.3158 8.50208
52.0981 12.7046 2.66889
95.2925 18.4139 3.13726
108.966 26.4912 5.16481
122.208 24.647 4.5465
111.942 26.7108 5.7338
82.8225 14.8608 3.53215
64.7656 12.4431 2.53931
144.172 23.7448 4.18019
96.2129 21.811 4.43082
56.6536 12.6758 2.51026
72.3492 17.4318 4.11924
35.4441 6.99399 1.08356
55.5135 17.5772 4.09482
39.5811 9.93177 2.18319
53.9898 11.3569 2.39789
101.744 20.4262 4.43108
115.744 31.109 7.50229
89.497 17.1443 4.10036
119.76 26.1367 5.98078
63.2894 15.4471 4.02788
79.2039 18.983 4.75047
49.9685 11.6433 3.24977
147.238 34.2075 8.38937
68.1719 16.2757 3.88667
47.3279 14.1388 4.3522
63.9141 14.5544 3.06189
63.3249 16.0123 4.22718
111.644 30.978 7.8759
70.0309 17.2489 3.54252
37.3739 11.573 3.18051
44.341 11.898 3.84618
70.2771 15.4044 4.16795
54.8304 14.0302 4.37369
38.8591 13.2423 3.54936
80.4976 17.144 4.52638
118.471 31.895 8.64403
71.9364 15.7827 4.00094
71.2718 19.5082 4.6019
64.3545 21.6662 6.67073
52.4057 17.7755 5.15964
87.3607 25.8475 7.18606
85.186 24.3205 5.85483
50.6292 14.967 3.39003
40.2253 11.2697 3.07152
103.563 33.7936 13.0905
89.6098 24.6101 7.03381
100.406 29.4195 8.36195
60.9431 16.4671 4.40155
118.956 33.232 10.743
103.153 29.6253 7.83906
66.7298 21.0393 6.9566
72.9628 25.8815 9.23214
69.9037 17.6822 4.00814
57.2481 17.1163 5.08265
40.6771 11.4526 4.42151
110.305 37.0484 12.3427
123.518 37.3913 9.6373
62.2194 21.2189 7.26179
52.5121 13.4691 3.99821
60.0863 21.3862 7.22768
45.1143 10.6154 3.13956
36.2993 13.9551 4.25423
56.9798 19.1623 7.15133
44.1319 16.0132 6.27736
39.1593 14.033 5.29711
36.5355 14.8907 5.72341
37.7752 11.5632 3.13239
57.971 20.927 7.34592
68.7626 25.3833 8.47259
97.0374 31.5826 10.5005
20.9795 6.42685 1.95007
49.6977 15.9313 5.65284
24.9376 10.1348 5.05113
69.1869 24.7809 7.97418
38.0183 17.3024 7.58475
55.1285 16.6982 5.21737
41.1946 15.9099 5.57836
58.1767 21.9266 9.25638
87.1903 31.9335 12.6283
41.6769 11.706 4.46365
19.9777 9.29493 4.05007
55.729 23.6891 9.37053
65.5044 22.7556 8.54964
35.8147 12.4345 4.36972
60.1733 30.2786 14.7636
81.8201 30.2098 12.2128
90.136 33.5201 12.1444
19.1007 5.54203 2.44996
111.374 45.3645 18.5994
38.4625 14.1623 7.45525
54.6846 21.2385 6.79016
85.4472 32.3042 12.7949
32.2367 13.9901 8.32137
63.1395 22.8108 8.37326
91.0552 36.8178 13.7933
43.8004 20.1836 7.93836
25.0639 13.5916 7.49863
31.4344 11.0768 5.18022
29.2289 11.2158 4.28657
57.5456 22.9528 9.77155
78.6848 45.6816 22.0087
27.2875 9.5878 4.50304
28.6677 10.6653 5.36236
15.2304 5.78687 2.48456
28.6712 17.5385 7.88432
70.3874 26.6614 11.7455
18.2592 8.44469 4.10958
21.0662 12.5291 6.84416
56.4464 23.8826 9.14397
46.2402 26.0413 12.799
47.4506 20.2572 10.6538
71.9196 27.1104 10.7638
26.2942 13.8456 8.47854
61.1624 24.6525 9.41606
40.9699 20.3345 10.9343
56.0166 30.2676 14.4599
16.5158 5.19726 2.33528
39.8681 18.1451 6.68999
15.0311 7.56344 3.15927
35.9295 18.0042 8.40661
42.679 23.5275 9.90447
25.2695 15.6304 7.97147
31.5619 22.0456 13.5479
52.2473 31.1987 17.7302
34.4802 14.737 7.30786
95.4933 41.4973 19.878
34.5856 18.9271 11.1311
70.5013 41.3992 19.5851
33.2588 14.6715 7.20962
23.5501 13.1544 7.49495
35.0093 20.1715 11.7325
48.0859 27.9542 16.3036
40.6644 16.1 9.73828
54.8488 23.7152 9.66601
71.6402 35.4079 17.1039
42.5287 24.2692 16.4209
57.165 30.201 18.8474
56.8424 25.5546 11.1763
47.322 31.432 18.5886
50.6709 25.2188 14.7541
22.4264 13.3082 7.65997
27.6507 15.6619 7.91398
42.1699 27.0299 18.0381
37.917 19.8865 10.1532
24.549 9.67331 5.71512
35.1609 18.2331 13.0141
28.9826 17.7328 10.6303
26.5519 11.4101 5.80632
64.9994 35.5737 19.662
40.294 20.5657 10.7306
36.6132 23.5103 13.8047
37.6646 16.9422 9.5318
44.3774 25.1224 15.1492
47.5398 27.4037 14.3614
14.104 7.65839 4.56658
31.6231 22.3313 12.9238
38.7362 25.3759 15.7646
38.9856 25.9778 17.6262
35.6816 13.3658 6.17988
76.7363 46.7133 28.7543
15.956 12.7816 9.30129
33.8414 23.0153 16.9614
22.8623 12.0295 9.83387
35.6982 13.5944 6.05728
25.5608 16.7409 10.7195
16.6604 10.8625 7.47996
58.3475 35.3991 21.6459
46.4393 25.3637 13.944
39.6162 27.356 18.7346
41.1378 29.2549 20.663
34.1072 15.0343 7.49058
38.5527 23.6707 16.9398
64.6924 40.9339 25.3591
70.8492 45.7349 25.0638
16.3645 13.6277 10.3825
37.0237 23.4008 16.0573
27.9857 20.196 12.3655
21.8029 17.1552 14.1594
22.314 19.5132 14.6572
38.3552 27.6837 19.4704
35.4833 26.9706 21.5448
32.7454 18.8566 14.2255
32.8205 20.2987 12.9864
33.4319 18.6005 9.06904
14.7784 12.6966 10.6563
53.0722 37.0585 25.2593
48.1228 27.9767 19.1254
58.443 41.6608 27.9517
55.6457 34.1233 19.9149
22.3173 23.3513 21.9199
30.1088 16.3166 10.2425
19.6998 15.6312 12.1329
38.0126 20.7147 12.2726
35.6313 23.0693 16.2999
35.7114 28.5955 23.0769
31.7521 18.7477 11.3659
17.1305 15.6678 11.6806
36.7342 25.4479 15.4874
20.6793 18.1652 15.0622
32.3549 19.6975 15.4772
62.1011 52.4521 37.8029
26.1701 16.5327 12.9428
16.7466 16.0392 13.1771
25.8909 19.4966 14.6333
29.291 16.8872 11.3951
46.1273 43.1597 36.2633
63.7715 50.8289 43.5456
86.5752 58.3289 38.3673
45.3279 35.802 32.1509
40.1948 28.4344 24.1085
30.3283 23.1581 22.7346
60.7668 38.0219 22.775
52.2411 40.9785 29.8139
18.3542 18.0869 17.0378
16.1967 8.60523 8.70099
40.9173 29.6953 21.7276
41.8001 26.9755 17.3175
37.8549 30.9681 29.3177
34.151 29.3825 27.7217
52.0835 35.1356 23.39
22.2382 19.9586 19.8921
49.2537 37.548 24.8092
14.102 18.9172 21.708
25.8225 13.0045 8.24686
21.5284 10.789 4.84197
19.472 14.9272 13.2877
34.1925 26.6231 20.2021
39.51 22.8598 13.6107
26.3577 26.871 25.3257
15.9045 10.8406 9.5009
20.1092 17.6569 17.0752
13.4322 12.3255 9.17007
5.41855 7.00001 9.7447
14.7794 11.5444 9.54015
12.3826 11.2804 10.3305
14.3065 12.7033 13.19
14.0631 13.7174 13.754
15.3464 7.99988 4.30813
28.4979 29.4864 24.533
19.2447 18.1306 19.3492
31.1687 21.5774 15.4606
14.1856 18.6302 19.9586
25.7148 28.1748 28.1226
45.3115 29.1876 15.9492
29.7554 33.42 30.7552
16.18 21.8404 27.8328
43.8858 28.9338 18.9063
46.6193 46.4824 45.4837
16.8223 16.0345 16.416
31.8065 22.3464 19.6788
24.7774 24.3926 16.9842
26.4972 26.6212 23.6919
9.6874 12.9164 15.7699
17.1719 21.2855 25.3557
14.3068 7.28957 5.09372
38.6762 35.377 29.6141
17.6601 13.4602 14.8196
27.4359 21.9713 17.849
22.512 23.7396 20.3925
35.1363 43.5721 49.5146
38.6236 26.2829 17.319
12.2653 12.431 12.5924
15.9304 20.4456 21.5502
42.4292 32.912 22.8465
22.6369 28.4071 32.3163
23.36 20.0091 14.9101
22.3932 31.1374 35.1383
18.8241 20.4861 28.2497
19.3105 18.6039 18.6278
14.1298 19.3669 29.6221
29.927 19.8042 12.7859
32.5508 28.8677 28.0873
29.7404 29.2069 24.803
20.6074 15.7042 13.2648
23.2865 31.6247 36.0492
17.5729 16.9489 20.7016
22.0222 22.6917 27.7641
34.6676 33.4305 38.1344
62.3233 51.6495 38.8193
17.8465 21.0678 23.1459
7.48974 5.55857 8.87784
28.9461 34.6371 30.5938
43.3704 50.4155 45.4796
26.0744 33.0135 38.2699
16.0047 17.9932 26.4004
24.0071 21.7641 30.4864
42.4439 33.8034 28.5198
34.0602 35.7932 31.6696
12.983 17.028 24.0672
29.1721 28.5168 30.7422
15.6303 19.1644 28.2648
35.6975 34.8882 35.7518
33.3108 29.8383 32.2407
23.2313 21.3001 19.192
11.765 19.0876 27.6327
30.9077 31.7544 37.5247
15.2262 8.55054 5.56794
10.3107 13.931 20.0981
38.6 34.8568 31.9329
7.43895 10.622 21.2864
17.4581 13.9462 10.0513
14.7018 17.3852 19.1146
15.7093 14.5752 14.4075
16.9862 20.204 22.8302
26.7997 19.1439 14.6265
21.0147 28.0561 31.6518
17.4164 20.658 28.3079
18.2178 18.4362 20.1279
15.0316 20.2892 22.1037
11.3047 16.6453 21.3015
11.6475 14.3667 18.93
18.6604 18.5781 21.4788
22.3676 16.9161 15.1499
31.5734 37.9119 42.7212
18.639 21.3951 24.5782
22.8934 25.9144 26.4381
17.0344 19.5815 25.8558
18.2466 20.1134 19.9357
19.4465 26.343 34.3889
21.864 23.0206 30.0948
24.5488 29.7377 38.2325
14.9837 11.765 10.086
9.14927 15.3312 18.4074
20.7414 19.3303 16.7936
21.1594 32.4222 44.4441
28.6068 28.5446 30.4566
17.0285 21.6986 26.6289
12.0693 12.7154 17.5906
14.7233 21.34 28.5881
7.93421 11.337 17.7674
25.9078 40.5 54.2884
28.7631 29.6196 26.6146
33.2943 50.1421 59.8767
8.96031 13.7811 33.4454
33.0116 33.0421 30.9532
13.3702 22.4884 39.7051
29.3761 25.5681 19.7882
19.7137 26.3643 32.1759
13.8159 13.1352 13.3293
13.4556 19.8432 26.5858
16.2574 16.108 19.004
20.4015 21.6808 24.4055
19.85 18.4657 18.0098
29.8859 39.0779 41.4029
14.5599 30.7006 46.8926
19.1024 21.9949 27.775
4.98722 8.88626 15.5552
10.5509 17.449 24.3928
9.51553 18.1564 35.1841
22.5743 22.4687 21.2588
12.8906 18.0805 28.1751
20.919 21.1379 20.2973
7.74876 13.8548 26.2527
22.0256 23.3726 27.3313
24.5997 31.1778 36.997
6.49585 6.49103 8.05336
10.8425 14.2279 17.9398
7.32576 11.3228 17.273
9.46109 13.3583 18.0142
5.74437 14.9783 26.7864
25.8858 33.489 48.2591
13.7771 12.0903 9.4195
10.62 15.906 25.2343
14.1792 19.5402 26.2272
17.7151 28.2537 37.6245
17.4962 25.8958 37.8684
10.1153 11.2683 18.8594
8.56385 8.74565 10.7142
15.6998 22.3451 29.7494
15.5463 23.2664 30.3089
23.6879 45.2019 76.843
38.6131 36.679 31.7507
18.179 24.4078 30.157
18.1997 29.3046 47.538
13.0287 14.4945 28.1227
29.2165 27.0275 24.4344
12.5745 16.3246 20.7342
5.629 7.18444 10.2256
8.45113 17.7431 36.0554
15.9542 21.2599 35.213
30.9441 39.5016 41.3406
3.34644 8.21938 22.965
19.4499 21.9185 22.6233
9.41572 13.3168 15.8488
6.1393 12.7158 21.3979
9.40647 19.1805 40.3553
17.3295 22.5214 23.9531
6.23531 22.9278 49.9138
15.9608 12.5465 15.9757
12.7932 15.9459 27.9543
13.721 10.2486 6.85168
11.5587 23.0427 48.0418
19.5883 13.287 9.07457
18.2356 28.4234 39.2986
13.9599 22.3009 22.1106
13.4402 25.9614 36.9553
10.0023 11.0693 12.0516
11.2004 23.8741 36.7707
8.09307 9.70652 14.0578
15.9212 35.8373 62.6018
18.8707 23.4184 34.889
10.9719 12.6968 22.1737
25.3452 36.6935 51.3538
21.7116 26.2544 36.9113
19.8728 25.4277 30.8163
10.7969 12.297 17.3658
11.5172 22.9794 38.9972
14.1889 21.596 32.3449
7.37575 11.4602 18.9726
9.52507 10.94 20.4309
14.2149 14.4052 19.6671
12.6365 16.6863 25.3457
20.909 28.1756 29.1121
12.259 27.7815 55.2777
11.5729 11.9103 17.7467
16.8602 20.8587 29.1955
14.3575 19.996 33.5078
15.5431 21.8437 26.567
4.97763 6.54748 10.4018
13.1313 17.8165 23.7536
8.05828 16.9416 27.3732
10.9992 13.5542 18.897
7.23494 16.4043 38.3718
18.3044 27.681 44.4511
19.4343 25.9609 41.2368
10.7437 16.4572 37.444
19.0085 29.098 43.7478
19.3908 34.1171 51.8884
16.6733 29.527 42.52
10.3812 12.5626 21.4776
12.411 21.062 31.923
15.8209 24.5387 35.9068
12.0976 17.6053 26.8331
16.3238 33.093 49.2094
11.1898 13.0553 18.6088
7.64919 20.4786 36.3994
10.3295 12.5145 19.3751
14.695 29.0674 51.6765
10.2697 9.66265 19.1968
16.356 18.6886 22.2728
14.7842 28.0418 38.6231
6.89366 17.0756 35.1223
9.90242 8.79317 20.2285
8.55357 12.8151 20.0679
9.90741 21.8439 35.4631
8.83995 21.3885 47.1392
12.3444 15.033 24.8143
14.6617 21.4304 44.1701
19.3752 22.7346 33.591
16.9418 34.3092 72.6501
33.3009 52.8361 79.1655
9.49116 9.77081 10.6607
3.59765 7.79801 15.2298
6.81553 19.1546 47.9678
22.4397 25.4236 33.8247
18.4528 29.3796 41.6812
2.98392 3.276 9.93305
6.37909 16.8788 30.1816
7.17547 19.7548 50.7227
16.9906 20.1275 30.7182
12.3484 14.9856 16.9427
4.77547 8.3662 18.0278
7.94798 19.7154 50.666
30.6626 52.8296 77.0982
10.7279 13.5601 25.6856
5.55899 9.69517 28.3396
19.4794 41.9138 67.3173
8.99408 4.57135 18.0021
15.5102 24.6873 40.3714
14.7639 26.4221 35.3863
6.06805 11.2144 17.9085
10.1062 32.6154 84.4006
34.9407 43.4882 47.0021
15.0514 37.4105 66.8229
7.08796 4.44324 11.4924
5.66006 9.44955 29.3528
11.0376 15.7307 25.9339
25.7999 47.0201 71.8312
13.8697 19.5808 36.1911
8.01335 13.8347 22.5659
16.409 35.0366 77.5459
8.07644 4.54441 12.6438
12.1125 17.6937 30.463
14.856 27.4307 37.6399
10.7762 20.6161 48.3345
16.5062 19.095 25.8902
16.8584 31.8324 30.1298
19.8076 64.4672 114.261
4.18606 4.25173 23.2696
10.7827 13.0612 23.4279
6.74558 16.7979 33.742
16.6349 35.3061 65.5136
16.6214 28.4607 55.3098
16.886 38.1811 70.5866
7.48986 12.5156 35.3202
12.9762 23.9205 53.1689
21.686 41.0372 64.18
13.7697 39.3905 98.0871
21.919 23.453 34.2569
7.66438 11.2093 17.9778
8.66477 20.3057 50.4091
12.3544 25.8055 49.602
6.82271 20.3086 48.5115
3.7181 7.05026 32.857
15.5231 21.1159 31.4458
11.658 23.5304 49.9841
16.3364 24.1528 38.341
9.62062 19.2567 37.353
7.39118 11.3709 28.2261
11.9238 15.5387 26.6238
14.8889 28.8231 47.4744
10.5301 22.0419 35.989
4.66195 13.955 35.8274
8.09843 10.2289 19.4948
5.82968 10.8824 13.747
3.3738 9.40739 21.6796
1.6695 6.10932 40.1532
18.1624 33.5716 42.0897
9.79848 22.8263 62.4846
13.942 14.329 11.9068
6.15198 23.7162 53.5844
9.52178 11.3345 27.6547
7.98534 13.7681 16.3754
4.30146 9.8596 25.4048
9.22177 16.8526 29.3132
10.2415 19.7539 37.3918
9.76086 20.663 41.1105
9.22663 16.2814 31.3151
4.29522 11.3777 26.8685
7.52884 15.4723 41.2762
12.3345 19.6378 27.5932
5.05558 13.5894 37.866
7.00003 13.229 35.6474
11.0342 21.7872 39.846
5.80831 10.0778 23.8883
5.52488 7.21867 16.3218
5.79855 7.75164 7.73106
3.41854 10.7286 20.947
5.87897 10.9201 24.362
9.63523 28.2153 68.7026
11.2521 13.3855 17.437
4.69019 13.2054 33.7727
11.6859 23.6318 54.8166
8.76882 16.4703 31.1387
6.25521 9.5956 29.8622
10.9595 20.0991 28.401
3.72951 9.12298 17.0969
2.31328 4.78766 17.8527
7.03696 18.6525 39.733
10.5345 16.5766 26.4812
4.4656 11.3543 30.8046
9.86916 18.3847 36.5981
6.54161 15.0195 39.5182
9.64553 10.3029 15.1035
5.08577 10.9297 15.3271
4.63961 12.2791 29.7855
3.70493 10.2582 29.5485
10.9825 25.3624 51.9061
4.84561 6.90991 14.1736
3.24009 11.3248 47.9746
14.0554 22.6361 42.7939
13.2275 20.4058 33.8787
6.88034 11.3102 20.5591
5.35892 12.0562 31.2946
9.5672 17.7574 30.6958
5.10839 13.4967 45.3692
11.1337 20.4195 29.9491
6.07054 12.5603 20.2882
7.62055 23.3206 55.9605
5.03909 7.44043 13.5644
6.68895 26.2582 64.4669
10.7229 21.2347 37.4457
5.15469 16.8208 51.639
9.89069 22.5508 54.837
11.6382 15.6139 25.3437
11.1757 30.45 66.5656
9.12099 12.6287 18.3175
6.18427 19.6553 57.3677
10.8398 24.0483 60.1263
13.1614 23.8511 39.1711
6.95942 17.3353 41.7244
7.33059 18.1516 29.0958
3.65528 9.11094 30.3504
4.99302 11.473 32.7126
8.20261 15.8336 27.3922
5.27473 18.7573 65.3893
12.6005 24.1585 37.9635
4.06428 6.87055 16.4543
7.42819 24.1226 66.5186
9.99775 20.9183 35.2239
3.51466 15.1195 28.9067
6.79759 26.0234 74.7026
8.49302 19.6346 61.7961
10.0119 14.2867 32.7035
7.98853 12.409 24.9921
4.39519 16.1334 59.4988
13.7455 19.4607 31.4202
8.11094 25.3002 64.2689
9.03651 16.0492 38.7129
9.02196 17.1795 39.2366
8.41003 19.5453 49.9095
10.1773 14.6595 15.7903
8.14726 26.4497 63.4199
5.68787 18.1869 59.0001
8.8014 13.8606 31.0673
6.72947 19.9712 45.0241
8.08481 22.2801 44.361
3.47974 13.521 46.7451
10.5467 17.4009 44.9018
9.87244 22.1905 49.7331
11.1904 22.3428 44.8943
5.33067 9.55735 15.9821
7.86599 25.0406 58.8965
4.58371 11.3303 41.9138
9.16952 17.815 32.8318
2.8699 6.00113 21.6418
8.78508 24.7724 69.9446
9.64366 30.5811 107.896
15.2865 23.5934 29.5255
5.18981 16.3588 35.7845
5.49004 21.1848 50.2886
5.48435 15.1576 39.2451
