# pn-170911/RbIIA-34-RbIIA-1280-1959.psd
# Power spectrum* (dif=0,1,2) (really just |FT|^2)
# NOTE: only the first half! (symmetric)
# weeks: 1280-1959
# 2574 clock-days, 723 excluded
# PSD: 1441
8203.15 0.257279 0.0160803
808032 16.2712 0.00835369
2.88522e+06 54.6342 0.00934864
527389 17.3508 0.00900427
317579 18.2184 0.00956129
157791 12.6407 0.00958831
111285 13.2294 0.0102675
78895.4 12.5635 0.0109568
59747.2 11.8687 0.0118801
45611.7 11.9134 0.0124785
37816.9 11.1769 0.0129574
30492.6 11.2705 0.0151303
24819.5 11.051 0.0151138
21703.1 10.9667 0.0172231
18593.5 10.9757 0.0179231
16492.2 11.2615 0.0200454
14195.1 10.7361 0.0212851
12426.4 10.7054 0.0224192
10853.2 10.4683 0.024435
9588.85 10.484 0.0261179
9151.32 10.826 0.027857
8351.59 11.0597 0.0313864
7409.71 10.7384 0.0331504
6540.87 10.2316 0.0340958
6072.47 10.4725 0.0365318
5405 10.2719 0.0382547
5093.78 10.0673 0.0404723
4827.47 10.2788 0.0440276
4344.85 10.3935 0.047246
4170.13 10.371 0.0495851
3886.1 10.2655 0.0524399
3736.35 10.4852 0.056481
3256.92 9.82189 0.0556981
3298.49 10.7994 0.0637208
3055.52 10.3018 0.0639047
2911.94 10.5903 0.0696864
2624.21 10.2298 0.0716575
2622.22 10.9088 0.0790532
2468.43 10.6048 0.0799605
2241.46 9.86718 0.0797934
2184.72 10.3295 0.0869791
1989.7 9.96132 0.0880819
1967.34 10.2938 0.0939293
1966.72 10.4061 0.0990424
1769 10.1075 0.100701
1679.87 10.1576 0.104825
1623.89 10.217 0.110432
1533.21 10.2137 0.115629
1524.63 10.1266 0.118808
1451.71 10.2543 0.125827
1376.82 10.067 0.128871
1346.77 10.2146 0.133196
1298.29 10.409 0.141348
1229.42 10.1418 0.143012
1142.25 9.97691 0.144555
1152.17 10.4063 0.157196
1134.36 10.575 0.164665
1087.85 10.3197 0.166788
994.474 9.70895 0.162408
972.064 10.0864 0.174884
942.062 9.97427 0.177358
939.928 10.1174 0.187772
890.475 10.3204 0.196446
852.242 9.94577 0.196777
839.729 10.3334 0.210341
812.384 10.1886 0.21125
809.726 10.3656 0.221986
774.859 10.2121 0.22754
733.495 9.98321 0.226397
717.267 10.2945 0.242368
727.019 10.1533 0.245455
708.559 10.4327 0.257116
684.16 10.1688 0.261099
645.852 10.1916 0.26762
628.424 9.93897 0.265903
638.694 10.5094 0.288627
613.378 10.2924 0.291024
585.348 10.5293 0.302383
573.779 10.4267 0.308787
554.511 10.1823 0.306645
547.783 10.3288 0.324271
540.734 10.3865 0.331342
524.57 10.303 0.33682
499.494 9.91811 0.335246
487.215 10.0253 0.343071
490.363 10.5302 0.372047
458.896 9.79536 0.354062
453.32 10.0475 0.36813
440.697 10.0896 0.376927
430.442 10.061 0.385311
428.244 9.82523 0.385496
432.615 10.4409 0.417889
405.915 9.84146 0.403704
392.482 9.98075 0.420274
383.175 9.8172 0.420544
393.888 10.4631 0.456939
371.275 10.0734 0.448244
369.242 10.1822 0.461069
356.872 9.91441 0.457524
347.96 10.1442 0.480854
336.199 10.0191 0.483639
346.637 10.4961 0.517152
325.456 9.97209 0.496328
336.187 10.555 0.542839
318.768 10.0928 0.527925
303.869 9.90676 0.524368
307.856 9.8776 0.534772
308.18 10.1686 0.55859
298.215 10.2664 0.578436
299.519 10.5365 0.597827
287.804 10.3182 0.598006
272.677 9.83148 0.580442
277.58 10.3102 0.619305
272.685 10.1803 0.621519
263.353 10.1469 0.636308
267.659 10.3865 0.66045
252.891 10.3313 0.665463
249.89 10.1398 0.658281
249.014 9.99386 0.667664
253.153 10.456 0.707992
243.422 10.3514 0.717386
243.401 10.574 0.736013
233.285 10.1367 0.724231
227.409 10.1905 0.735051
227.669 10.1875 0.75327
220.302 10.2187 0.768974
220.845 10.0226 0.76013
218.931 10.1716 0.784671
217.22 10.2655 0.79526
212.371 10.1411 0.808996
198.86 9.80689 0.792539
206.782 10.6874 0.876927
198.785 10.2391 0.851381
200.263 9.97704 0.838783
190.022 10.0316 0.856647
190.903 10.0894 0.87426
192.639 10.5027 0.931168
191.45 10.5866 0.949841
180.39 10.3829 0.93815
181.675 10.2871 0.944905
172.426 10.107 0.945075
174.374 10.4333 0.989698
171.81 10.1394 0.967859
167.411 10.0654 0.988047
162.721 9.79995 0.961136
162.226 10.0734 1.01567
165.715 10.5405 1.07188
163.041 10.0944 1.0339
155.869 10.1728 1.05855
156.388 10.215 1.08291
160.69 10.4629 1.11354
153.787 9.95834 1.07619
152.978 10.4187 1.14768
152.071 10.2892 1.14605
146.361 10.2355 1.15429
145.399 10.1695 1.15542
142.774 10.3009 1.18391
142.765 10.1132 1.19002
141.484 10.5321 1.25251
137.421 10.2931 1.24024
138.623 10.3991 1.26603
140.418 10.428 1.27989
133.32 10.3746 1.29521
135.028 10.3366 1.2981
132.447 10.3242 1.3117
129.522 10.2228 1.31897
125.292 10.2717 1.34076
120.685 10.0611 1.34219
124.167 10.2931 1.37158
123.578 10.1994 1.38869
124.772 10.5037 1.42989
120.911 10.33 1.41516
115.708 10.0475 1.40784
115.74 10.2185 1.45009
114.828 10.1687 1.46794
113.795 10.2711 1.48162
112.979 10.2764 1.49885
111.17 10.2118 1.5106
111.603 10.6516 1.58931
109.606 10.1495 1.54595
106.124 9.82789 1.50372
109.922 10.5218 1.63295
106.537 10.3429 1.61029
105.438 10.3765 1.64467
100.657 9.86467 1.58217
102.182 10.0391 1.62196
100.318 10.3203 1.6824
100.846 10.4917 1.72515
99.0003 10.4268 1.73386
97.4137 10.1779 1.72015
96.6748 9.87818 1.67466
97.2122 10.3737 1.77908
92.3231 9.8672 1.72838
92.8148 9.93026 1.72202
94.241 10.5292 1.86752
94.0578 10.7102 1.91718
90.3832 9.9645 1.80061
89.262 10.25 1.88137
90.2384 10.1494 1.86873
91.4565 10.3197 1.91022
89.2897 10.3285 1.94677
86.1997 10.3016 1.96512
85.1583 9.96369 1.90572
86.2116 10.4687 2.03283
84.1179 10.224 2.00248
83.9462 10.1873 2.013
82.9371 10.0816 2.00772
82.0331 10.1688 2.04303
80.2017 10.1003 2.05094
80.5818 10.1233 2.08293
78.6328 10.1028 2.09564
77.7341 10.1509 2.12217
75.2387 9.73746 2.0545
78.1436 10.1683 2.16785
77.1972 10.1435 2.18724
79.6563 10.7211 2.32592
76.5836 10.5421 2.3147
75.145 10.2896 2.28104
75.1985 10.4882 2.33918
73.3857 10.1569 2.26927
72.3108 10.2754 2.35195
72.0892 10.2901 2.36781
73.0805 10.649 2.44511
70.3397 10.2103 2.37369
69.0318 10.0381 2.34725
69.1981 10.1045 2.41784
68.6961 10.14 2.42294
68.3915 10.3791 2.51398
69.2942 10.3086 2.49479
68.4644 10.4903 2.54741
67.4699 10.3025 2.57007
64.4939 10.0934 2.51449
67.8554 10.2301 2.56997
64.7849 10.2503 2.61193
64.8072 10.1927 2.6063
66.4549 10.3875 2.67421
64.3574 10.2441 2.64592
62.4062 10.1589 2.68472
62.4991 10.2687 2.71845
60.0367 9.95641 2.65031
58.9907 9.86211 2.68093
60.676 10.0566 2.72592
62.7009 10.5089 2.85293
59.7502 9.99621 2.76901
58.4629 10.305 2.85287
59.9264 10.4848 2.93295
57.4177 9.95845 2.81351
57.7012 10.1843 2.90371
58.553 10.5046 2.98539
57.2946 10.4274 3.00533
56.021 10.2677 3.01482
54.5564 10.0191 2.91934
56.7414 10.3168 3.06466
56.651 10.4551 3.1061
56.0864 10.7665 3.22468
54.7463 10.2419 3.08303
52.588 9.8148 3.01691
53.6257 10.6016 3.24671
54.2391 10.327 3.18676
52.8123 10.4449 3.26178
53.2015 10.4277 3.28599
54.1469 10.7668 3.3775
51.0164 10.0569 3.25768
51.6966 10.2071 3.27378
50.9786 10.2713 3.34009
50.4639 9.98937 3.24222
49.9887 10.3288 3.38787
50.5558 10.4801 3.45892
49.2101 10.3658 3.43381
50.0974 10.2495 3.44812
49.3757 10.5791 3.57227
49.3451 10.333 3.51668
47.7795 10.1174 3.46681
48.6535 10.2658 3.57712
47.238 10.3246 3.59709
48.9024 10.7498 3.74137
47.726 10.8058 3.80005
46.7512 10.069 3.58028
46.9218 10.5038 3.76764
47.8001 10.6359 3.83004
45.9454 10.2488 3.70654
45.9971 10.9621 4.03664
45.7111 10.0751 3.68047
45.6538 10.4357 3.83915
43.5566 10.0136 3.73044
44.845 10.4895 3.94664
43.9741 10.5383 3.99581
44.9155 10.5641 4.01154
44.4671 10.5307 4.02605
43.6518 10.491 4.07198
42.5478 10.3329 4.01628
43.7398 10.4184 4.06907
42.2355 10.2321 3.99796
42.9067 10.6524 4.22955
41.8007 10.662 4.22368
41.291 10.386 4.15887
42.0337 10.633 4.2916
39.5767 9.92834 4.06564
40.1891 10.5713 4.31672
40.1097 10.3552 4.26276
40.1736 10.2235 4.24802
39.7205 10.1044 4.16824
38.6257 10.2862 4.33211
39.7813 10.8359 4.60793
38.903 10.467 4.41144
38.1152 10.0494 4.3215
39.5682 10.912 4.64211
38.1623 10.198 4.4359
37.3033 10.0578 4.40498
38.9986 10.4667 4.58737
37.805 10.294 4.5392
36.6811 10.0479 4.38516
36.7636 10.1727 4.54718
37.6472 10.5221 4.76431
36.8841 10.3214 4.66699
36.7674 10.1648 4.62915
36.1182 10.1479 4.67961
36.0348 10.5866 4.85266
35.6013 10.2195 4.77412
35.9898 10.7386 5.02171
35.6696 10.3113 4.81647
35.5359 10.4311 4.89723
35.0077 10.2872 4.88082
35.5112 10.3282 4.90026
34.3856 10.1475 4.88802
35.0911 10.2833 4.96722
35.7433 10.687 5.19285
33.9239 10.1622 4.96304
35.0993 10.4739 5.13335
34.0148 10.4894 5.16793
33.9229 10.7139 5.32914
33.6364 10.2166 5.16805
33.1087 10.4166 5.22681
34.1949 10.4757 5.31093
32.2672 10.0487 5.13846
33.4837 10.7912 5.46613
31.9435 10.4134 5.34717
31.2783 10.2339 5.3088
31.7488 10.6322 5.51906
32.1089 10.5407 5.56843
32.4617 10.629 5.59899
31.5855 10.3837 5.48278
31.137 10.4649 5.56626
31.4456 10.2918 5.46318
30.6939 10.2499 5.56982
31.5601 10.7011 5.78381
31.2349 10.7892 5.86639
30.7062 10.2965 5.63341
29.4483 9.93902 5.47491
31.0553 10.6437 5.85296
30.6947 10.5544 5.86371
29.4476 10.5719 5.96877
30.5672 10.6496 5.94977
30.1229 10.4323 5.84991
30.1657 10.7839 6.14859
29.1615 10.5798 6.0558
28.1877 10.4624 6.04653
28.7529 10.4914 6.08548
29.0551 10.3337 5.93896
28.4293 10.2161 5.97865
28.5754 10.3913 6.10674
29.044 10.6195 6.2273
27.802 10.3574 6.14594
28.7552 10.7264 6.38412
28.5626 10.5419 6.33171
27.6398 10.6081 6.39168
27.5502 10.4817 6.38619
27.7086 10.5968 6.39987
27.0924 10.2357 6.31089
27.3466 10.4193 6.3797
26.8334 10.5843 6.58851
26.5864 10.6509 6.63197
27.0989 10.4766 6.57152
26.8869 10.4558 6.53422
26.2272 10.672 6.7774
26.6596 10.4788 6.58525
26.6588 10.6506 6.78138
25.84 10.7604 6.88448
26.294 10.3936 6.53978
25.3938 10.4005 6.80443
26.1236 10.6414 6.91559
25.4538 10.2204 6.7145
25.57 10.362 6.84331
25.6465 10.4095 6.79372
24.3921 10.1884 6.85385
26.3901 10.955 7.32994
25.3006 10.2518 6.79491
25.0929 10.4757 6.98552
25.4952 10.7752 7.18297
24.8613 10.8104 7.36141
24.2142 10.619 7.3023
24.996 10.5298 7.22986
24.1568 10.4896 7.19015
23.7306 10.2294 7.04767
23.6379 10.3635 7.25982
23.474 10.2558 7.16997
24.5301 10.919 7.54715
23.9894 10.5617 7.48376
23.3844 10.102 7.15978
23.1751 10.3304 7.35788
22.6762 9.89276 7.10465
23.4469 10.8243 7.76604
23.2381 10.5407 7.62136
23.1609 10.3756 7.5699
22.8199 10.6868 7.83024
23.8272 11.3643 8.2691
23.2498 10.4457 7.64711
22.4734 10.4725 7.80973
22.4439 10.2867 7.6353
22.8479 10.7957 8.06024
22.3621 10.8219 8.16775
23.0876 10.7223 8.08474
23.0493 11.0013 8.2269
22.3117 10.5749 8.07426
21.7469 10.3458 7.89747
22.2766 10.6526 8.1413
22.2993 10.9061 8.59803
21.9748 10.46 8.01261
21.5482 10.6925 8.26165
21.3417 10.3893 8.18734
21.6697 10.386 8.21941
21.6987 10.7312 8.37269
21.5507 10.7178 8.37478
21.5168 10.3505 8.24714
21.5215 10.6378 8.46376
21.608 10.9849 8.74541
21.0577 10.4928 8.53136
20.7785 10.9832 8.84391
20.3359 10.3012 8.39476
20.2279 10.3197 8.41422
20.7769 10.8164 8.8091
20.8246 10.8766 8.86752
20.0525 10.4745 8.77903
20.824 10.8968 9.14117
20.6191 10.6675 8.90821
20.1971 10.7739 8.98349
20.499 10.7666 8.99203
20.0878 10.4714 8.91149
20.5697 10.7026 9.00901
19.6392 10.665 9.14804
20.438 11.0665 9.3848
19.7742 10.4157 8.8246
19.8373 10.7198 9.1623
19.8813 10.6891 9.30223
19.5433 11.0013 9.50493
19.6034 10.6132 9.18459
19.1551 10.7233 9.50844
19.9163 11.0665 9.53555
18.6196 10.6336 9.42597
19.6458 11.2715 9.98208
19.3203 10.9341 9.74839
18.9742 10.4138 9.29731
18.9471 10.5413 9.53954
18.5978 10.7866 9.73028
18.1789 10.4724 9.45529
18.4876 10.358 9.44664
18.7652 10.9185 9.98868
18.8781 10.702 9.66661
18.9756 11.2389 10.3289
18.0774 10.817 9.95273
18.4922 10.6517 9.83185
17.6084 10.4704 9.83836
18.397 10.5715 9.79939
18.0705 10.8905 10.2152
18.2391 10.7557 10.244
18.2659 10.7422 10.1612
18.1608 10.9265 10.346
18.3064 10.7183 10.1835
17.2095 10.7128 10.3447
17.8626 10.4485 9.99348
17.7583 10.8297 10.4014
18.1665 11.0558 10.6266
17.2731 10.9257 10.7438
17.7775 10.6716 10.3456
17.4789 10.9742 10.6693
17.5721 10.6435 10.6123
17.1874 10.7647 10.6376
17.108 10.5716 10.4168
17.2582 10.6597 10.5772
17.1633 10.6127 10.6125
16.7765 10.5784 10.5192
16.6903 10.723 10.8463
17.22 10.8246 10.7457
16.7902 10.654 10.7309
16.537 10.4208 10.6621
16.7021 10.7528 10.8755
16.401 10.5933 10.9353
16.2553 10.7401 11.0506
16.9242 10.6936 11.0357
16.3247 10.7006 11.0115
17.1623 11.2972 11.7244
16.6743 10.8682 11.3416
16.4255 10.7467 11.3062
16.242 10.903 11.415
16.8759 11.018 11.513
16.085 11.0853 11.7423
16.1253 11.3278 12.1292
16.4432 10.8056 11.436
15.4927 10.564 11.3088
16.3038 10.9035 11.6312
16.0257 10.966 11.8278
15.7949 10.7331 11.6538
15.6991 10.7195 11.5415
15.8596 11.2083 12.2156
15.3957 10.6142 11.7063
15.4775 10.9726 12.1163
15.6749 10.8008 11.7497
15.7093 10.9083 12.0722
15.9043 11.1543 12.3705
15.5463 11.1699 12.4361
15.0914 10.8799 12.0105
15.2587 10.809 12.2457
15.0358 10.6874 12.2261
15.0733 10.817 12.0682
14.9534 10.8887 12.2817
14.927 10.8687 12.4638
14.9306 10.7663 12.3369
15.43 11.2449 12.8477
15.2491 10.719 12.3307
14.835 10.8193 12.4005
14.8256 11.127 13.0461
15.1918 10.8816 12.5647
14.5511 10.8618 12.5615
14.8945 11.0541 12.8214
14.6659 10.5712 12.4397
14.5414 10.6965 12.3983
15.0913 11.4922 13.6711
14.326 10.5436 12.5107
14.2688 11.1164 13.1795
14.5213 11.0138 13.3212
14.5808 10.9261 12.8467
14.4589 10.8974 12.9608
14.4603 11.3173 13.6418
14.0642 10.7851 13.1052
14.1084 11.0324 13.4746
14.4655 11.1028 13.3482
13.8126 10.559 12.971
13.7333 10.7924 13.1136
13.8232 10.6807 13.2686
13.3893 10.4381 12.9386
14.1207 11.249 13.9361
14.1177 10.7999 13.2103
13.3344 10.5264 13.0117
13.9003 11.2281 14.0029
14.2357 11.1758 14.0182
13.3523 10.7765 13.4714
13.1949 10.7265 13.7454
13.9424 11.3638 14.1321
13.5619 11.1093 13.912
13.2833 11.4883 14.617
13.5798 10.8523 14.0372
13.7678 11.4415 14.5885
13.8068 11.0596 13.9548
13.1953 10.9226 14.1856
13.3889 11.4561 14.8151
13.634 10.8811 14.3698
13.5588 10.9867 14.207
13.214 11.0709 14.3317
13.3177 11.0522 14.5706
13.3117 11.0907 14.468
13.0706 11.2382 14.5931
12.9603 10.7757 14.4695
13.5019 11.3013 14.8328
13.0612 10.9093 14.7516
13.2276 11.3927 15.2886
13.1842 11.3199 15.1366
12.6979 10.9293 14.8453
13.2465 11.388 15.4079
12.9496 11.1795 14.8681
12.7101 11.2135 15.0767
12.9664 11.3311 15.5606
12.692 10.8867 14.9015
13.2863 11.2348 15.2639
12.8352 11.5032 15.7082
12.8542 11.6067 15.9725
13.1311 11.7763 16.067
12.7579 11.0558 15.4224
12.4019 10.901 15.2576
12.811 11.4161 15.7732
12.6344 11.5404 16.1665
12.4551 11.0251 15.4827
12.6243 11.3921 15.9783
12.3066 11.3381 15.6503
12.2386 10.6783 15.424
12.4827 10.9144 15.3525
12.2437 10.9848 15.4674
12.2963 10.9946 15.6637
12.0399 11.3057 16.0165
12.0638 10.9893 15.5437
12.0007 11.2352 16.398
12.5218 11.6307 16.7008
12.0441 10.9472 15.7121
12.0827 11.1027 16.0456
12.1402 11.3271 16.2914
11.5505 11.0821 16.3534
11.856 11.0129 16.243
11.7531 10.9765 15.9843
11.7121 11.0472 16.4395
12.1297 11.2412 16.3221
11.6633 11.0862 16.5674
11.8608 10.9146 16.2394
11.9558 11.3732 16.9072
11.5849 10.7996 16.214
12.3015 11.3108 16.641
11.1978 11.0615 16.6907
11.8293 11.1561 16.598
11.245 11.1284 17.1021
11.4508 10.8387 16.4307
11.522 11.1343 16.8157
11.6814 11.5689 17.5905
11.2434 10.7501 16.4588
11.3491 10.7902 16.2313
11.0583 11.1038 17.3376
11.4502 10.8255 16.7601
11.6717 11.7308 18.064
11.403 11.5828 18.1229
11.6976 11.5417 18.1466
11.5685 11.2667 17.1124
11.3259 11.1287 17.381
11.2832 11.331 17.7771
11.3337 11.4495 17.8153
11.3272 11.1051 17.3533
10.7653 11.0568 17.4325
11.0089 10.978 17.3161
11.3466 11.2836 17.9611
11.1341 11.043 17.1263
10.7538 11.1801 18.0118
10.7411 11.3456 18.3319
10.6876 10.9819 17.6195
11.2608 11.1985 17.6414
10.6577 11.0133 17.6813
10.6377 11.3031 18.7371
10.6559 11.2899 18.1918
10.729 11.1594 18.6155
10.7888 11.3251 18.262
10.4737 11.2601 18.4235
10.7852 11.1353 17.4939
10.3255 11.0145 18.2489
10.6414 11.1154 18.4074
10.7595 11.1751 18.6693
10.7077 10.911 17.8826
10.8601 11.2296 18.4527
10.4111 11.2887 19.2413
10.5944 11.1052 18.6364
10.4137 11.3496 19.0988
10.7104 11.617 19.1232
10.5955 11.4775 19.2495
10.8139 11.5416 19.1897
10.5321 11.5994 19.3055
10.1387 11.1761 18.9429
10.1271 10.949 18.9157
10.271 11.4611 19.371
10.3738 11.1112 19.1308
10.4617 11.2466 19.1287
10.2916 11.4494 19.3504
9.8685 10.8921 18.793
9.75143 11.0422 19.2299
10.1206 11.163 19.216
10.0937 11.0752 19.184
10.1167 11.0786 19.3514
10.1293 11.2035 19.4264
10.0316 11.0776 19.0235
9.92567 11.3032 20.2436
10.2265 11.571 20.0393
10.2325 11.5898 20.2659
9.99912 11.3454 19.9234
10.0789 11.262 19.8223
9.89929 11.5978 20.4201
9.80058 11.2421 20.0268
9.93747 11.2452 20.0508
9.83124 11.1482 19.7064
9.74577 11.2518 20.5757
10.0199 11.292 20.1489
9.71276 11.1727 20.3564
9.90696 11.2907 20.0044
9.51763 11.0169 19.8116
9.40458 11.2939 20.7815
9.84622 11.4197 20.724
9.79167 11.216 20.2469
9.58544 11.4029 20.3596
9.26043 11.1533 20.691
9.58685 11.0523 20.5331
9.68914 11.2931 20.7325
9.49708 11.5573 21.3053
9.8169 11.8789 21.5994
9.39148 11.1843 20.7585
9.36668 11.5634 21.2884
9.39591 11.2078 21.0275
9.4182 11.0135 20.2621
9.32076 11.2605 20.97
9.37517 11.2416 20.8104
9.16621 11.2254 21.3831
9.21818 11.3417 21.4471
9.37113 11.3879 21.7126
9.30554 11.2687 21.0517
9.08363 10.8302 20.3494
9.27286 11.7027 22.2946
9.44541 11.2516 21.5127
9.1068 11.6727 21.7782
9.19262 11.3464 21.6882
8.94425 11.0195 21.8297
9.45158 11.42 21.442
9.09516 11.3159 21.9038
9.13688 11.2818 21.6766
9.37352 11.9888 22.8162
9.25132 11.7254 22.7265
9.22686 11.4487 22.0461
8.67198 10.9216 21.6906
9.09637 11.6766 22.8215
9.02139 11.1183 21.6897
8.89279 11.0796 21.409
9.0202 11.9143 23.8997
9.15947 11.4442 22.2828
9.03437 11.5439 22.4374
8.8411 11.435 22.639
8.90055 11.498 23.0869
8.9508 11.344 22.3995
9.12185 11.5037 22.4369
9.06143 11.6321 23.0511
8.98725 11.704 23.0708
8.88752 11.4408 22.5362
8.57154 11.3109 22.9316
8.72709 10.9914 21.9804
8.85053 11.5369 23.2671
8.72977 11.4277 23.1096
8.64853 11.2988 23.3564
8.7554 11.4669 23.1119
8.78019 11.57 23.6989
8.64969 11.3889 23.0962
8.76984 11.6811 23.5154
8.69559 11.8553 23.9438
8.57484 11.5537 24.1531
8.80551 11.8885 23.9069
8.43494 11.3356 23.3422
8.33772 11.3227 23.7922
8.57159 11.1985 23.2952
8.66452 11.6598 24.0241
8.67331 11.9183 24.7662
8.52155 11.3503 23.3551
8.41637 11.0755 23.279
8.27064 11.4735 24.2424
8.6697 11.9336 24.3538
8.30653 11.0411 23.3352
8.22737 11.3051 24.2733
8.61439 11.6803 24.643
8.5303 11.5423 24.2219
8.50773 11.4528 24.0155
8.57247 11.8122 25.2968
8.66602 11.7279 25.1641
8.44595 11.3529 24.0929
8.08683 11.2154 24.3164
8.34045 11.6203 24.6351
8.10743 11.569 25.0755
8.47643 11.8393 25.3002
8.46835 11.8797 24.8913
8.08843 11.2951 24.5294
8.40792 11.8369 25.3736
8.19162 11.4003 24.9706
8.24847 11.7206 25.4036
8.28035 11.729 25.4085
8.14334 11.4361 25.0245
8.22201 11.4882 25.1581
8.20261 11.5717 25.176
7.94439 11.1994 24.063
7.88637 11.3949 25.3017
8.00629 11.3405 24.9437
8.27857 11.911 25.8653
8.084 11.2947 25.2298
8.13124 11.7942 25.8285
8.17999 11.4967 25.1178
8.00594 11.8107 26.225
8.28306 11.8808 26.4815
8.04929 11.3642 25.222
7.84071 11.417 25.786
7.90965 11.4735 25.7396
7.87891 11.5439 25.4145
7.80331 11.453 25.966
7.83 11.4238 25.8432
7.9209 11.7175 26.2132
7.69821 11.3075 25.566
7.9752 11.5733 26.4593
7.87175 11.4782 26.3669
7.85402 11.5366 26.4581
8.04814 11.7728 26.3498
8.00119 12.3609 27.7278
7.94694 11.6765 26.7355
7.6147 11.3662 26.3623
7.94321 11.8572 26.9725
7.64436 11.3731 25.9946
7.85345 12.0612 27.2877
7.6568 11.5486 26.81
7.93691 11.5801 26.3389
7.61651 11.3189 25.9898
7.63368 11.55 26.5611
7.48505 11.5717 27.3173
7.76923 11.4793 26.8806
7.69906 11.6384 27.0755
7.55152 11.8285 27.8122
7.66567 11.5959 27.1706
7.60283 11.8579 27.3383
7.53845 11.3118 26.4463
7.40391 11.5614 27.3868
7.45593 11.6237 27.5693
7.61766 11.586 27.6949
7.81198 12.0114 28.2323
7.66687 11.6203 27.319
7.44262 11.6549 27.7582
7.29038 11.2191 26.6811
7.47875 11.6273 27.7539
7.38671 11.5859 27.7548
7.20984 11.308 27.4928
7.58213 11.747 27.6911
7.46391 12.0805 28.6269
7.35958 11.7587 28.1442
7.49552 11.9221 28.9847
7.4677 11.824 28.5452
7.64353 11.7622 28.4975
7.49526 12.4317 29.6688
7.39176 11.5614 28.7277
7.51197 11.6472 28.2934
7.20458 11.818 28.7514
7.44668 11.8065 28.9862
7.4957 11.7942 29.0687
7.27128 11.6001 28.2407
7.50611 11.8217 28.4568
7.20968 11.6838 28.8825
7.46981 11.8635 29.3504
7.47125 11.6158 28.6951
7.35926 11.8884 29.0714
