# pn-170911/RbIIR-56-NIST-1280-1959.psd
# Power spectrum* (dif=0,1,2) (really just |FT|^2)
# NOTE: only the first half! (symmetric)
# weeks: 1280-1959
# 1 clock-days, 5 excluded
# PSD: 1441
542.073 0.0676143 0.00772141
48398.6 0.136568 0.782744
309988 6.98295 0.219208
6687.1 0.0748851 0.669385
75306.3 6.60538 0.240915
4948.19 0.452248 0.526794
43.6026 0.0741356 0.187701
1092.92 0.0684222 0.412588
1644.68 0.154499 0.11611
107.583 0.0700676 0.352248
855.603 0.140457 0.0381211
1277.72 1.34233 0.308715
399.812 0.0565467 0.00508841
1040.78 0.81209 0.198608
440.331 0.18735 0.0239344
585.079 0.389975 0.0882506
270.109 0.224248 0.0472034
156.204 0.3792 0.0519812
174.778 0.190964 0.0820753
29.1352 0.0471696 0.0940365
179.337 0.621069 0.153531
704.414 1.47907 0.129215
333.426 0.535417 0.252656
64.5733 0.19692 0.21375
489.329 0.741013 0.407928
899.579 2.92279 0.163469
42.075 0.024616 0.541444
105.349 0.22735 0.245559
37.1215 0.0113459 0.579761
85.4182 0.720636 0.404363
54.2618 0.688737 0.467698
31.1869 0.287424 0.444191
54.8679 0.154456 0.535223
113.185 0.589758 0.463021
68.4692 0.15524 0.447469
133.876 0.955984 0.385754
12.4588 0.226807 0.532709
120.5 1.00785 0.243383
25.8279 0.404577 0.421324
570.345 2.85435 0.0832085
197.703 1.08042 0.348245
61.6234 0.614672 0.0997589
279.318 2.29066 0.252799
34.0385 0.231623 0.0557094
211.274 3.16652 0.182652
452.695 2.82983 0.0291293
44.7064 0.510795 0.151427
41.0808 0.420119 0.00765189
13.6024 0.0152355 0.176989
138.114 2.39701 0.120392
308.941 3.11188 0.392405
557.591 5.50725 0.0556186
97.9495 1.53253 0.132548
122.481 1.34792 0.276521
57.9683 0.57312 0.254121
547.715 8.20147 0.0393964
53.2781 0.394012 0.390192
110.862 1.80175 0.120629
21.5194 0.61513 0.708425
99.8689 1.37192 0.325886
462.335 7.80205 1.35779
11.1912 0.326601 0.383905
41.4879 0.615482 0.654985
39.7944 1.28781 0.38899
525.448 7.79087 0.853593
34.3349 0.17995 0.273312
64.4891 2.02979 0.299518
131.29 1.64025 0.231662
161.75 4.34576 0.837312
184.322 4.58524 0.0589715
20.4554 0.135132 0.294949
132.423 3.44821 0.18323
155.225 4.56219 0.364889
102.847 1.7688 0.0150408
108.988 2.76946 0.146155
89.0155 2.64923 0.00118598
242.761 8.82783 0.306162
186.091 4.50892 0.202295
285.738 6.03215 0.0926304
9.7436 0.680118 0.138747
72.6195 3.57213 0.133118
632.836 16.3547 0.507726
15.9426 0.609863 0.0383551
122.488 2.74457 0.0994055
141.482 3.4916 0.20136
410.959 15.748 2.11939
5.13342 0.0551908 0.150905
56.1155 2.7037 1.02934
74.8653 1.74427 0.0566669
120.709 4.9049 1.50985
148.676 7.66149 1.09843
7.63467 0.449759 0.561032
89.6301 3.10411 0.322909
158.013 7.00306 1.14508
25.9277 0.6633 0.119218
120.2 6.30539 1.34106
27.2334 1.43586 0.0508384
251.44 9.41102 0.160155
27.8531 2.14322 0.257134
35.9442 2.35429 0.216404
111.297 8.78445 0.791686
61.5327 2.9785 0.450243
30.2653 2.52839 0.316669
93.872 6.69319 0.628092
177.82 6.2596 0.346048
12.1386 0.85124 0.322099
24.4428 1.47692 0.0552869
37.4302 2.91357 0.538629
85.8257 4.53144 0.222389
45.8074 2.35717 0.393096
44.5797 2.49828 0.454197
130.88 7.19036 0.141051
359.18 24.0566 1.47231
70.5939 6.81996 0.945511
140.16 6.86735 1.23643
10.8271 1.82471 0.630619
153.796 11.4171 1.49003
41.9509 2.83163 0.857895
124.293 10.5757 1.29412
161.274 13.6678 0.901938
41.0462 0.79438 0.446092
218.041 16.0258 1.86609
165.932 8.04181 0.838874
230.914 16.878 1.80196
55.2006 2.12438 0.11829
42.7419 1.55441 0.2193
195.357 14.6169 0.24621
678.284 45.0037 1.64285
134.031 9.81267 1.94596
45.3649 2.80789 0.506196
154.658 13.8398 2.16045
23.7549 1.35106 0.276608
154.363 14.5176 0.940586
232.202 17.2822 1.7397
28.6918 4.03168 0.545227
28.897 3.74988 0.293403
54.5736 8.87278 0.442984
101.124 4.32039 0.280553
109.812 7.96037 1.16018
89.7652 10.007 0.766308
167.203 11.7845 1.63547
40.8633 3.16105 0.329195
4.91061 0.348309 0.178866
95.5362 9.69885 1.19716
46.9703 3.37975 0.201662
13.0113 1.52549 0.372185
117.283 11.6676 0.28766
63.1625 7.09242 1.00535
123.434 10.5563 2.36445
148.306 13.1245 0.475007
13.942 0.225832 0.391894
27.5836 3.26013 1.30041
44.0143 8.4754 2.92633
178.858 22.2752 2.13425
224.919 16.2351 0.379691
42.9691 7.06308 1.70799
72.2702 7.17615 1.85769
113.695 17.3494 2.8787
38.3653 2.73569 0.067147
171.46 17.4535 1.69313
32.1229 2.87695 0.811516
24.6002 2.18414 0.526808
39.5345 6.13829 0.300353
14.5578 0.323204 0.0817771
6.03361 1.0672 0.734755
78.8503 9.28168 1.33907
45.8771 6.64015 0.953781
133.034 16.4055 1.50247
27.5923 3.49733 0.24235
35.5695 7.79694 1.6272
47.6209 3.56312 0.510476
46.2114 5.20799 0.425343
32.4953 6.85128 1.09835
24.1575 1.17539 0.550309
3.66786 2.52782 0.92022
204.689 27.6618 2.89573
138.047 30.6644 6.40721
501.313 51.9994 6.77188
322.757 43.0788 6.64809
656.635 94.7266 9.86109
433.244 89.1519 16.981
739.184 88.8431 7.06209
132.15 29.5996 6.82166
347.938 42.3132 2.66089
70.8763 15.6515 3.75988
152.316 27.0575 4.71743
102.829 26.8871 6.9189
190.847 22.2064 2.18942
65.5606 16.8387 4.73162
114.975 15.7708 1.34974
98.6181 12.7081 0.995923
12.5758 1.86716 1.30441
232.134 36.364 6.63123
167.866 23.8533 2.2825
258.766 55.0233 12.2462
20.1831 4.72156 0.769651
101.6 16.3687 3.0957
255.553 43.082 5.79238
63.4699 12.908 1.77883
65.974 16.7212 2.73193
138.442 23.542 5.3971
136.136 26.0215 3.8746
93.663 15.6439 2.55491
20.3297 4.07681 1.23673
38.7955 10.5039 4.1181
121.549 22.7374 6.11859
34.3227 6.79804 1.28333
40.955 5.33202 1.59397
30.7766 2.95696 0.51267
4.96962 0.155452 0.336914
24.5139 7.23635 2.46625
241.209 32.2653 3.76303
21.8462 6.56142 2.18118
98.049 11.4512 0.762845
19.0746 4.06655 0.374568
217.404 40.8678 6.96189
229.73 50.9291 8.30864
72.3981 10.2664 1.78637
62.6489 16.1876 2.91476
221.806 37.8579 5.20615
14.2268 8.0487 4.28735
39.0328 8.95308 2.69582
22.197 7.95912 4.12782
17.676 3.91736 0.980405
40.3026 8.30353 1.34805
155.617 32.9355 6.38279
5.80917 1.06083 0.362115
18.6653 4.17283 0.67879
83.1226 20.5604 5.92484
82.6308 21.8594 6.08031
8.70772 7.53374 3.7837
208.4 39.2874 8.03551
50.5831 14.9247 6.20866
25.0343 3.05273 0.558959
5.59574 1.23189 0.0685992
24.6198 2.3312 0.174747
56.1025 12.3554 3.43868
79.0572 23.0255 8.30175
12.1315 1.79254 0.881983
29.9877 4.14377 0.235973
58.0689 16.1315 4.35239
134.848 41.5738 11.4899
124.953 23.1478 2.07538
8.40491 5.41127 2.69346
64.8455 16.1341 5.55098
19.0253 2.3684 0.145605
12.7276 4.04197 3.19804
44.6942 16.7205 4.90784
25.1449 9.16081 3.20604
59.7944 16.0364 2.8241
35.5373 19.3578 10.4598
27.3832 7.61315 2.67717
39.7687 14.8177 5.4709
34.0959 10.8596 3.0185
21.8861 6.32024 2.26986
124.323 35.2449 9.84953
110.276 27.744 7.00658
13.9032 3.86456 1.25859
24.3047 9.46279 4.28827
7.27302 5.8172 4.75529
165.8 41.9116 9.89146
176.179 62.8768 19.4636
9.90668 2.29479 1.05394
20.6214 9.37601 4.67784
23.1572 9.17743 3.69861
5.37726 6.92477 5.33726
31.072 7.12293 2.59667
32.9757 12.0747 2.72631
73.6084 45.3827 19.4935
5.14208 7.01819 4.37923
317.694 65.7761 11.3985
143.939 61.514 19.9708
30.8562 7.4014 3.67318
5.49443 1.65922 1.92132
164.135 39.2641 7.88564
167.667 52.0756 10.0569
101.029 54.2345 22.4344
128.717 57.975 20.5813
83.4113 21.5358 7.67047
6.30932 6.96056 7.34184
40.3177 19.0756 10.6402
207.161 52.1704 8.92324
118.833 40.3572 14.8184
19.3473 3.15728 0.0535587
28.1187 11.6332 3.85316
48.6857 18.3918 4.57351
1.04369 0.535694 0.580806
27.677 16.8574 9.16003
51.1191 22.1614 8.58762
9.92751 8.48687 5.67631
22.0485 15.7774 8.76819
83.082 46.889 25.1411
115.578 22.9499 2.95795
111.237 40.7311 16.0876
18.4219 11.9943 8.5887
20.8507 6.14078 1.8933
8.44715 0.198919 0.819013
79.3678 19.8144 3.8865
28.825 13.3083 6.32662
69.193 19.313 3.62356
11.7261 6.02707 2.62956
32.5056 8.59556 0.945318
120.179 45.0471 15.2885
143.905 53.3173 17.0252
24.7407 14.0757 4.1925
88.766 55.6377 32.3159
30.2275 13.9165 9.58813
8.9487 5.06151 4.76003
66.8415 17.256 2.0954
32.9572 20.7768 9.38103
98.59 36.739 15.362
4.02571 0.764509 2.55265
33.7795 18.2867 7.69423
43.5653 19.2653 8.23009
43.5897 11.6017 4.57533
42.9708 15.5904 4.90446
12.2166 8.96183 3.59401
17.6087 14.7093 7.53125
31.8879 18.039 8.66517
69.8101 33.4787 17.7749
18.9686 8.31775 7.21365
74.5127 29.7168 15.4331
65.7251 25.9054 7.47971
12.8545 8.05148 6.99628
72.0688 39.9422 24.0067
247.567 113.408 45.4137
10.8348 2.34875 1.22155
4.7463 1.87958 0.52822
36.2163 25.6294 14.5074
29.0971 29.1935 22.5169
39.8561 10.7091 3.87552
239.036 109.674 52.6849
73.0436 27.4369 11.9301
35.4925 13.7856 5.95285
6.99899 4.93945 2.62082
0.175638 1.83065 2.48661
2.34805 0.785029 0.0544278
17.3664 7.57232 4.21908
16.5154 12.2717 12.3557
12.2271 8.48454 3.42917
22.7932 5.58638 1.5062
34.1809 9.87738 2.88627
27.3405 12.8722 5.74698
202.387 83.5779 41.0824
28.4197 14.5074 10.2658
69.9033 34.3789 22.7418
2.55704 8.22895 14.0717
70.6919 43.5428 19.0404
1.79951 0.265456 0.584289
8.56357 2.19616 2.91001
31.5897 10.1416 3.04545
12.7152 4.54725 1.81388
13.5941 8.53601 4.42236
13.9005 5.23316 3.5497
1.70282 1.07183 0.148236
29.2787 21.3308 14.7413
65.3447 44.5376 23.5567
41.0744 33.1611 19.2861
1.09265 5.98076 11.8171
49.5877 19.5025 12.9695
73.5893 36.9242 15.4467
56.4623 36.3411 22.213
18.4871 5.03903 1.14011
103.046 52.0858 26.8647
33.8261 14.8725 6.37107
45.1256 29.8366 23.8486
14.1735 10.401 7.39045
10.9927 13.1912 19.4069
34.4383 26.8377 17.5812
37.3994 8.9111 2.96966
65.0086 23.2616 9.81856
20.2871 13.6802 6.76173
85.0841 48.1755 23.8257
34.3046 18.9374 8.09543
24.2757 28.3301 22.5652
11.9112 13.8897 10.271
29.9807 11.4243 3.95451
77.1906 45.7831 32.7029
61.0157 47.1938 26.548
38.5686 36.1665 31.7841
17.9929 16.1897 11.7245
14.5181 6.42162 0.53051
7.80904 6.23625 4.20253
0.234419 0.831227 4.69308
113.8 75.871 38.7829
6.12279 11.4184 11.7035
15.7849 6.11849 3.59033
8.63521 5.25011 2.09066
33.7533 30.3566 24.0652
49.5498 17.7778 8.0762
38.5909 23.9809 9.79823
15.504 22.4153 20.7458
18.6702 17.1577 13.2369
49.0885 24.8984 12.9498
3.0586 4.99027 6.4014
28.5249 26.104 18.2554
13.4063 14.6798 13.8376
7.47382 3.30907 2.87009
9.33561 15.0925 17.2911
4.55191 3.4335 2.02148
8.66603 16.6591 17.2959
4.70938 0.274152 3.63399
48.5192 31.3855 16.0968
39.9762 27.8724 16.1623
2.86909 2.02609 3.01253
39.691 46.8696 50.3534
58.2986 43.3761 23.118
12.2807 4.07892 2.21509
15.8408 21.4225 36.4299
138.466 68.1267 22.6541
106.751 93.0396 63.635
8.0499 2.96635 2.22775
61.1409 39.9665 27.5826
46.797 52.4189 55.9224
119.093 94.1842 62.2979
19.759 9.65891 4.50366
36.4989 31.6386 30.0188
2.66702 5.74536 13.564
56.1063 40.9918 34.7412
22.7469 9.81358 0.798824
78.1346 71.9865 49.6338
34.3767 14.6149 11.4814
21.6622 19.5299 13.065
2.80217 0.0304246 0.233451
9.65376 14.6239 14.3727
4.61307 4.49361 4.70622
3.1717 2.22212 6.72232
3.44854 4.10641 1.85711
46.3998 47.6146 46.1604
12.596 4.40431 0.937234
0.173374 5.31561 15.4808
7.46842 3.23436 3.44432
172.967 105.374 54.2669
14.3896 28.5311 24.4202
59.2764 83.3899 94.6615
48.9421 30.2578 31.8711
80.7886 37.7839 21.3472
55.0765 52.168 53.2644
135.061 75.8161 43.3332
25.689 35.8404 29.5444
1.30416 0.686725 3.07499
21.112 19.1352 17.5094
16.3842 12.3273 9.42844
24.6597 13.3239 11.091
17.2552 13.3403 13.4267
13.1422 5.82843 5.7719
14.3619 24.7866 34.6744
108.628 81.3715 59.0618
23.6749 5.4167 0.246127
149.902 157.043 139.39
7.12205 26.7674 44.3279
40.8717 9.72182 1.31533
95.8843 56.9535 33.6098
4.48482 13.7874 13.3123
27.1691 39.1167 50.9747
31.3231 9.89281 3.94567
1.56902 4.93121 4.04285
42.5834 60.0835 76.1026
138.081 75.3612 47.6357
11.6173 7.83063 3.24353
99.2574 82.9124 76.6648
40.343 35.9673 32.2883
21.0245 22.947 31.434
32.8147 22.5801 16.4676
14.0447 15.5491 19.8451
32.7645 67.3443 87.0673
40.4625 7.25272 5.93145
78.6547 77.6919 62.4656
6.84901 7.43049 8.30653
3.9034 1.58909 0.10708
33.769 27.2386 23.5837
45.6919 35.641 29.5354
0.86606 6.05023 13.6204
3.76295 4.21258 8.54607
25.4153 18.7257 14.6516
14.5171 27.2929 33.2027
20.002 6.50798 9.51978
28.5142 21.9596 17.8964
18.3106 4.11176 0.415135
11.0634 5.7036 2.18812
6.3315 11.1095 19.5818
45.653 21.9881 5.04701
70.9792 87.9242 90.6102
3.30641 4.54671 7.00918
24.2909 17.587 19.5614
3.36349 3.89925 3.22622
2.16491 2.14619 7.97918
10.2016 5.73489 4.13651
30.1129 11.8407 5.26727
2.18516 4.38715 12.5852
73.3347 68.1917 59.1977
11.1191 15.8378 23.7604
10.3451 0.194401 2.52636
7.54839 8.14099 8.02095
3.58702 11.5717 12.4992
0.289262 11.1288 29.1816
36.5983 30.1399 17.3522
50.8918 86.9322 128.865
72.4799 65.4011 52.8643
53.9378 39.3866 32.3084
15.0684 12.5943 5.36967
17.6645 34.2381 60.827
55.7032 40.9274 21.0052
108.581 145.39 155.645
6.61632 0.507843 5.11408
6.10177 4.82446 8.722
4.80111 1.57063 0.33335
6.26851 6.69213 6.52505
1.99908 1.75337 5.02117
2.54277 4.06493 5.19606
16.5531 15.6504 18.4883
43.6487 51.1814 62.6623
24.0677 5.83257 0.533749
31.6509 17.4978 13.5238
7.258 14.9072 17.86
19.1365 11.8729 14.8306
27.9456 31.1525 29.0859
10.7175 8.15469 10.3557
5.15649 6.12791 4.38137
10.013 7.3847 13.0395
18.9937 14.5095 11.8063
37.0434 43.6913 48.5389
0.515952 6.10597 19.2671
64.0279 40.0383 37.9123
23.4166 21.9042 27.6815
61.9614 28.5162 14.1488
9.87636 17.5141 17.9624
10.2388 9.57376 26.6665
36.523 31.6077 19.5902
9.94 12.8537 14.5262
19.8867 21.0639 17.3396
7.59689 8.31749 10.0377
5.37054 6.18136 6.96625
8.38342 28.2047 52.6319
43.9487 38.2116 30.4384
3.14826 6.9745 12.398
0.902813 0.867276 5.52103
1.99813 1.57898 10.7321
60.5697 75.6708 77.1079
14.0146 10.7837 19.6523
25.74 30.4998 24.1303
18.7708 39.4071 62.9987
53.398 63.4797 76.5441
4.90971 1.41355 1.04171
16.1105 16.8809 12.1965
26.133 43.2718 76.2478
11.8631 0.0961185 19.094
51.232 47.1224 18.9977
22.6578 47.5351 54.2149
35.7961 58.68 101.517
36.6289 19.0247 21.3991
75.2349 82.8625 85.1666
24.5775 13.0669 26.8574
62.1221 85.5721 90.5642
34.485 14.6664 10.7031
10.9682 7.06686 14.4949
3.45766 9.21178 5.20784
45.5254 75.0471 119.945
41.661 18.7264 8.15082
7.3661 7.55326 6.16762
9.9366 13.3426 27.6822
16.7206 14.8981 10.7591
4.40352 7.59202 12.2157
19.5527 20.8925 27.9806
7.84755 4.02316 1.75504
1.76246 6.21388 12.051
31.8841 36.0652 43.8832
0.599127 1.04244 5.44783
1.24658 2.30826 8.34347
11.1791 8.58849 4.91857
0.00548392 0.229781 0.819292
0.81598 1.33017 3.72043
21.6393 23.9599 29.9508
38.7408 58.9936 61.3188
5.75913 48.3869 123.393
37.7996 55.4682 89.3217
56.314 33.1271 30.2976
4.61715 19.5118 46.9558
28.943 8.10072 7.82764
24.3122 40.5033 78.6993
36.2803 6.07027 12.9398
61.8809 55.7632 25.3787
0.553061 14.9923 37.0006
55.3784 51.1777 27.2072
31.9483 69.6657 96.2925
77.0385 91.0742 71.6114
8.07992 37.7821 67.2335
12.9488 11.1162 15.8717
48.857 62.5511 89.3078
66.3292 103.205 150.915
26.6693 10.9376 5.1549
5.20984 16.3981 43.0606
16.1056 0.587057 9.15833
41.2926 53.4174 62.6277
39.5383 90.7637 132.232
20.5036 15.838 48.3925
61.6788 52.3372 28.2718
8.54427 17.2699 17.5268
20.3667 52.0526 78.0792
17.1227 13.4363 33.0938
25.5201 29.6162 27.7317
14.7868 37.8411 54.2092
35.6784 45.1092 43.944
12.7851 35.085 33.6371
8.05529 37.4116 69.7494
2.31783 7.80975 25.2683
7.83664 20.5349 50.1815
7.61929 21.129 57.0337
26.6481 36.5566 34.972
0.663181 0.246741 0.0645428
15.9638 51.1363 87.7746
21.7447 9.57475 16.2221
1.98579 14.7359 30.3245
33.8909 36.222 66.4514
36.4717 34.5663 51.6443
34.6772 28.9995 41.542
12.7459 12.0767 6.06527
7.1954 11.4963 33.8293
34.4616 28.0305 30.1859
11.995 7.03525 7.80043
5.16268 5.14618 11.1149
10.6047 35.9938 81.9259
28.8564 15.812 9.8741
8.49695 7.87101 22.8216
10.3177 12.8185 22.5542
10.3734 5.12645 22.3115
31.2607 27.9068 18.9252
2.32514 8.42098 24.849
7.66775 0.319183 24.3706
95.3236 139.944 181.32
6.54857 6.24295 5.10181
1.13653 4.9679 32.8832
42.5732 85.7629 94.2167
5.9 37.9823 122.803
65.7139 93.2878 139.818
26.5077 24.6313 24.0349
1.73507 1.72459 14.2933
19.0192 20.4733 30.5075
8.85213 17.8284 10.3921
16.6065 36.9295 70.7182
4.42678 9.42354 16.0818
1.05902 10.334 41.6113
7.48645 30.3132 63.6078
30.6984 17.6645 21.3823
4.82746 26.772 58.8297
16.845 3.17599 1.26783
3.69421 17.6909 71.5561
63.5275 65.5949 101.658
27.4745 18.6089 29.5866
46.6289 46.6857 34.6729
7.2053 17.1832 30.3169
18.5821 22.8761 63.1612
34.5611 42.8866 41.6652
5.6219 7.41327 11.2609
6.29814 15.0188 42.3355
30.872 28.8918 32.5544
19.8403 40.2118 78.3907
3.8777 5.43171 57.2922
81.3193 109.438 130.659
23.4899 41.1674 45.4658
4.04966 12.1497 44.5157
21.4311 15.9213 1.78916
28.7713 64.5417 104.274
1.77786 0.665327 3.71459
10.4499 13.1214 18.6441
17.9345 56.2364 112.088
17.402 18.3286 32.2043
3.77832 30.3981 90.0709
12.1622 31.5301 62.7149
15.0402 5.41583 24.9236
5.9975 7.5716 16.567
39.2314 44.922 50.4094
11.7109 7.32376 16.6272
3.16489 0.732441 15.94
28.7552 33.9646 26.0446
0.399122 17.0217 44.2137
3.72028 6.97727 4.58925
1.15368 2.58219 21.5001
32.6014 67.331 115.275
17.3886 8.60223 9.30462
9.26906 11.712 18.846
10.4736 14.8797 31.9167
2.4543 2.2863 18.0756
12.2949 20.0194 54.8309
6.12493 5.24093 17.5931
15.153 15.1567 7.00582
7.32436 5.53616 1.18443
23.3048 55.08 90.8996
3.36712 1.63773 0.387753
7.17781 14.5683 26.7432
12.9495 67.7254 173.039
30.0111 12.1041 15.4743
12.4589 4.84544 29.5352
93.1943 164.947 272.593
40.446 95.044 191.808
64.5612 57.1504 61.0537
4.20675 20.0007 66.4043
50.4162 47.9939 71.5133
15.3127 30.9747 57.9945
23.1195 12.1549 34.1283
24.6227 41.1323 47.5684
7.96869 0.957126 5.87017
19.6349 63.123 149.822
10.0818 3.93998 11.7963
32.5765 51.4759 75.6637
3.31636 24.118 137.829
68.9888 81.7509 113.856
23.1209 30.8579 38.6519
2.83514 4.12603 8.29736
10.0743 27.0712 15.5428
28.8679 99.4616 254.505
46.1097 45.1632 116.226
26.5645 38.4254 23.7294
1.88665 11.999 52.8764
18.4219 16.6833 0.537968
17.4531 53.2102 99.1572
10.3379 21.427 14.6253
6.69989 28.9819 50.6685
0.24289 5.75035 25.9634
5.97633 0.944908 5.54836
18.7098 48.5184 128.717
10.6219 10.8026 0.425569
4.90037 17.3989 25.0862
5.9021 31.1999 120.587
49.432 86.8977 98.4198
5.75168 13.8996 36.6261
2.26 26.814 107.685
13.5713 24.5244 14.0253
2.88917 5.12735 17.1368
10.4615 4.34508 8.93277
14.383 43.2913 111.617
10.1676 3.36145 26.1847
6.08925 6.5531 7.46803
27.2693 19.9597 13.442
9.31527 19.4485 42.4593
31.9402 41.1702 52.2028
10.4957 7.95113 17.0886
7.38389 35.4868 66.2794
13.5705 25.65 37.9621
0.178738 7.09164 27.4855
1.85862 9.10822 53.6366
18.17 30.9549 80.107
14.3546 34.5912 41.2762
7.35009 4.40628 2.2032
2.67885 7.19712 14.1931
3.85114 2.37667 8.92386
15.6496 46.3617 143.673
29.7092 20.242 4.82433
19.5133 45.4848 41.6331
5.35178 38.3717 79.0857
0.838584 4.14632 29.1698
6.31094 7.06635 16.9648
7.55226 26.1915 50.2256
4.98168 23.4441 57.243
10.7724 12.4927 28.4176
8.69991 9.15364 9.68415
3.6528 10.3689 52.2998
29.8143 86.4885 186.628
7.66522 17.5429 42.7826
18.3827 49.1719 88.6416
3.29122 22.2163 108.16
34.2215 64.2811 72.544
3.66329 12.6504 74.711
18.3407 63.3832 190.766
48.5692 53.9476 49.9157
4.65534 10.9078 23.6102
3.80471 9.89359 70.8458
22.1412 38.2615 48.4407
21.8087 8.32206 11.5386
8.67384 30.8733 65.1045
16.2141 22.8054 19.2333
11.0037 45.887 136.49
17.9336 6.34487 3.56592
7.04719 28.0952 43.3344
2.37553 1.06169 5.66578
0.947839 11.868 35.5395
2.27244 5.30127 3.64512
0.425945 5.15047 11.3346
2.90494 8.45957 22.9244
9.45529 30.7142 92.2816
16.5505 17.9334 17.281
2.43081 7.08352 15.2354
4.13334 18.8248 103.225
35.0784 52.7148 39.2806
0.321985 6.43657 14.716
6.82637 14.7612 25.0759
3.41574 18.8137 22.4677
3.95837 18.2403 58.6634
13.0489 6.96956 7.98089
4.32526 11.7071 13.9685
9.65976 19.9478 43.6774
4.00621 11.6631 51.8209
2.73726 2.78865 1.56955
4.79744 10.3271 39.7723
2.24186 4.9407 23.3471
1.46398 20.135 46.1855
5.7855 20.4729 49.9581
10.3534 3.92356 14.923
6.32419 0.796969 1.30894
7.4792 3.05381 6.45008
5.72551 11.7966 39.2164
7.16599 21.0853 90.6744
10.6846 19.9887 21.4397
7.44013 2.57415 36.3144
12.5348 28.5299 26.6091
1.93329 21.137 35.2991
0.385399 0.89595 31.3197
7.29947 14.2323 8.4456
17.1083 69.3378 132.411
4.57701 4.64691 70.1963
19.1431 22.6209 6.59939
18.9939 108.655 239.55
12.0241 22.5985 127.376
16.2337 7.21745 14.3526
13.2724 21.8556 26.1269
0.384929 2.48154 20.2946
7.28994 12.7174 11.7913
6.65034 23.2474 85.9919
14.8909 19.9934 26.9808
2.40958 0.970329 3.25184
0.724194 1.42182 22.3947
11.8107 40.7191 107.047
14.5121 42.265 72.3263
