# pn-170911/RbIIR-55-WTZR-1280-1959.psd
# Power spectrum* (dif=0,1,2) (really just |FT|^2)
# NOTE: only the first half! (symmetric)
# weeks: 1280-1959
# 19 clock-days, 0 excluded
# PSD: 1441
420.235 0.124185 0.045651
17465.2 0.172816 0.0533026
157009 3.5197 0.0504451
7651.08 0.279137 0.0536525
36660 3.13008 0.0663352
3147.42 0.275807 0.0544296
3472.58 0.429362 0.0668557
1753.11 0.360352 0.063748
2445.64 0.840073 0.065096
955.201 0.337261 0.0767383
1071.09 0.33217 0.0647044
692.897 0.348652 0.0718576
824.063 0.445334 0.0663622
692.827 0.322866 0.0562959
551.526 0.403104 0.0621019
568.306 0.485831 0.0556813
468.655 0.420248 0.0608766
486.647 0.573318 0.0615983
422.517 0.49685 0.0518846
316.942 0.500256 0.0699064
224.491 0.344704 0.0549718
345.225 0.740032 0.0666121
266.522 0.659916 0.0731922
166.612 0.523404 0.0643646
414.152 1.11607 0.0876417
286.366 0.871485 0.0706397
194.223 0.737088 0.0771777
374.605 1.35709 0.0839318
202.834 0.581633 0.0544708
355.878 1.22123 0.062425
232.266 0.942253 0.0572882
227.874 1.02147 0.0493725
324.702 1.33282 0.0465758
262.055 1.34678 0.0426793
210.177 1.32606 0.0634914
276.958 1.49194 0.0591671
226.89 1.44048 0.0604082
163.903 1.04112 0.0866745
233.898 1.4625 0.0622041
320.531 2.07188 0.0914479
293.743 2.32839 0.0786183
337.394 2.72514 0.0715403
259.073 2.12739 0.085921
221.95 1.73788 0.0829351
283.763 2.32973 0.0944638
237.616 2.47979 0.0628298
281.007 2.6499 0.0720273
276.744 3.13587 0.0975054
330.708 3.62174 0.0733825
325.666 3.81193 0.0778808
364.038 4.32074 0.133429
224.577 2.73683 0.0911599
291.102 3.70602 0.119764
236.313 3.10631 0.114094
326.784 4.41937 0.12495
402.332 5.16364 0.14015
220.745 3.11041 0.121939
278.081 3.8402 0.142442
398.205 6.14542 0.149017
243.882 3.81914 0.102035
383.377 6.57978 0.224315
213.296 3.5908 0.126066
133.49 2.48817 0.115417
225.93 4.63005 0.169036
216.081 3.60226 0.11282
209.976 3.95445 0.14009
181.496 3.93038 0.143244
230.336 4.77461 0.17471
184.202 4.07664 0.1758
147.432 3.49111 0.15259
221.138 4.91415 0.194859
261.215 6.15056 0.183138
180.099 4.43819 0.17626
309.793 8.16637 0.209058
214.065 6.30038 0.244857
135.546 3.73914 0.160691
116.872 3.02981 0.150363
193.016 5.82416 0.274582
237.874 7.51327 0.250144
226.313 6.62198 0.254475
228.584 6.62769 0.259819
393.186 11.5484 0.43485
197.812 6.39611 0.255375
259.915 7.9805 0.361915
207.792 6.84714 0.338917
153.789 5.34596 0.279815
199.713 7.06202 0.248245
216.752 8.0765 0.324052
289.587 10.7137 0.461405
178.075 6.51831 0.323932
157.55 6.33037 0.314866
225.91 8.59445 0.494048
287.756 11.4892 0.53081
156.609 6.10376 0.237287
303.178 12.659 0.681152
169.604 8.00864 0.394144
202.294 8.16344 0.366054
173.06 7.77928 0.450668
128.902 6.1557 0.355056
159.136 6.94149 0.398618
148.696 7.13791 0.377119
206.387 9.71549 0.463675
187.253 9.35678 0.453854
141.443 6.85612 0.386107
275.69 14.3672 0.857476
141.214 7.09542 0.480208
170.692 8.68525 0.629471
151.491 8.07245 0.429852
151.324 8.2688 0.508896
195.575 11.4109 0.746005
250.907 13.8665 0.757362
185.061 10.9642 0.644992
199.219 11.5391 0.657518
216.087 12.855 0.817001
198.034 11.8587 0.779537
186.335 11.4092 0.791512
106.306 6.93014 0.420013
185.471 11.8827 0.745668
137.439 9.60158 0.703014
123.966 8.6412 0.638488
142.916 9.08076 0.573511
133.888 9.50037 0.568284
175.388 11.1272 0.899673
113.661 8.56299 0.643146
177.262 13.1933 0.866642
106.46 8.29794 0.663458
129.271 9.49565 0.740558
149.165 10.9948 0.860515
148.746 11.7457 0.971342
127.468 10.3994 1.03433
111.63 8.80573 0.66964
168.761 13.7694 1.09076
166.394 14.1777 1.15701
100.771 7.93856 0.83351
150.384 12.1051 1.04808
130.293 11.4312 1.05017
171.816 14.7109 1.32974
106.219 9.6124 0.942596
163.839 15.0888 1.34632
132.558 11.9458 1.10198
131.811 11.9679 1.21256
148.47 14.5333 1.29095
83.265 7.77003 0.819329
127.739 12.1588 1.2095
125.934 13.3206 1.30217
146.943 14.4855 1.47652
104.039 9.83425 0.898258
131.311 13.7205 1.42857
118.755 11.5706 1.12316
104.913 11.4992 1.24001
93.6885 9.51029 1.19315
130.908 14.034 1.38608
109.654 11.7241 1.51453
103.439 10.9822 1.10214
149.872 16.7693 1.98835
95.4989 11.5493 1.37048
168.319 19.8042 2.11951
138.983 15.8269 1.87479
200.886 22.2419 2.49023
124.688 15.1599 1.65814
128.641 15.9191 2.02105
116.429 13.5396 1.67978
117.08 14.0817 1.64077
171.035 21.7408 2.80878
81.5802 11.1329 1.58691
98.6926 11.6403 1.47454
134.815 16.7161 2.01766
138.8 18.1544 2.34114
98.4511 13.6854 1.95135
217.711 30.4635 3.75595
107.226 14.6445 2.09531
131.126 18.2578 2.80431
113.238 14.9043 2.18698
150.07 22.4957 3.27485
112.59 15.1494 1.98372
87.3943 13.2964 2.09773
83.9775 11.7335 1.6401
101.5 14.3633 2.02119
62.6493 9.28213 1.4159
90.646 14.2882 2.20434
109.235 16.3721 2.64191
81.8753 12.1998 1.57547
134.174 20.7776 3.24096
97.4177 14.6388 2.17712
115.329 18.2926 3.0284
83.3476 12.441 1.82823
107.175 18.0592 3.19717
91.1357 15.4316 2.43549
113.901 20.8925 3.56735
96.0501 14.0633 2.2405
105.593 17.5512 3.0743
105.55 17.7072 3.1052
120.761 19.9842 3.40783
112.616 18.8092 3.37614
67.1802 13.4794 2.57441
96.762 17.5055 3.28922
97.963 17.3795 3.15301
91.6591 15.0878 2.89313
71.5617 12.7697 2.24588
86.0123 16.1146 3.20142
94.3231 18.3145 3.64568
106.036 18.3709 3.34707
64.9496 12.871 2.4395
85.3961 17.8907 3.51434
101.73 20.0059 3.98507
72.5273 14.4131 3.02619
94.3725 17.7798 3.62446
105.726 21.6254 4.52492
112.16 24.3537 5.04182
94.0695 17.9666 3.72845
99.3546 19.3247 3.82336
94.9804 20.2422 4.29826
77.7089 15.5314 3.38143
103.089 22.8249 4.88597
75.2638 14.1466 2.8008
82.5088 18.3875 3.85475
98.0291 22.0117 4.41344
117.09 24.7599 5.97658
76.8178 16.4526 3.89568
101.148 20.6349 4.38741
92.0831 21.5663 4.93266
51.7246 12.3465 2.91582
108.818 26.5531 6.05282
70.6373 16.6565 3.86054
76.0328 17.3728 4.29324
110.13 26.4049 5.90793
78.3697 18.9167 4.32841
80.6014 19.2785 4.41168
34.1477 9.79418 2.98202
47.2957 9.39502 2.19853
65.5934 16.8801 4.29016
93.41 23.9314 5.57456
92.5719 23.602 6.08691
68.5828 17.9258 4.53923
67.3249 16.2441 4.20049
85.3493 22.0125 5.54515
83.2543 22.443 6.25438
124.47 31.6532 8.04187
100.443 25.2006 6.67303
68.9006 16.772 4.06349
78.5183 20.1781 5.75826
91.7129 24.2286 6.30924
82.8568 21.9247 5.94423
69.1122 20.2831 6.11412
73.9856 18.3196 5.03969
77.8407 20.2713 5.13839
84.3896 24.6135 7.0718
63.2513 16.8697 4.63076
73.3611 22.7382 7.43291
78.2866 20.4869 5.25996
55.2472 17.2271 5.39052
64.7579 17.9584 5.34314
50.5462 14.921 4.66946
67.3515 19.7133 6.08041
75.5 22.4337 6.50528
72.9861 20.593 5.82421
72.8245 23.56 7.02116
52.6842 17.9406 6.35484
64.2133 19.1711 6.12952
56.4753 18.526 6.42415
94.8845 28.5206 8.43708
74.791 24.2019 7.51532
61.2613 18.8602 5.85552
90.9601 27.0414 8.3548
50.6836 16.2646 5.30505
63.9281 21.3334 6.95079
81.6076 27.8639 9.71071
61.6991 21.172 7.05735
66.9774 20.238 6.14362
64.3078 19.382 6.20411
63.9613 22.127 7.8103
87.6309 28.1646 8.99247
54.1881 18.1843 5.99994
69.115 23.2453 7.93995
41.422 13.7851 4.86429
73.4471 26.5497 9.32823
65.2567 24.5564 8.68629
83.9764 30.2898 10.8842
60.5662 20.4218 6.95052
37.3913 14.775 5.51242
76.4563 26.4053 9.14276
47.7628 19.2493 7.28575
72.5817 25.6511 9.90043
60.4573 22.9129 8.10233
76.2489 27.9022 10.1095
59.2621 21.967 8.47734
45.1711 16.9879 6.65653
51.6553 19.3499 7.38185
86.2073 37.8912 15.2599
44.9006 14.1024 5.32497
49.0346 15.9388 5.37894
51.5048 21.2745 9.04351
75.5772 28.4044 10.261
52.9561 20.7522 7.67945
72.8701 28.9505 10.6458
51.0658 20.8534 8.74674
64.2262 26.4752 10.7326
39.887 14.7932 5.86917
64.6624 27.4228 11.1094
67.0139 29.6825 13.1537
73.3787 29.704 12.473
49.3999 19.1282 7.39437
90.9547 36.7459 14.9922
41.5088 17.7659 7.79557
65.8212 28.0512 11.8366
53.1798 22.3994 9.65728
55.3621 25.8424 11.4362
58.4501 25.4055 11.0842
42.7196 16.671 6.58882
53.0203 25.9236 11.2163
38.8002 15.2775 6.87061
69.3931 30.4945 13.6195
45.1065 20.8484 9.34661
65.0743 29.8522 13.9134
84.8131 39.4741 18.0693
59.6771 26.37 11.9968
61.3017 29.967 15.6338
55.7833 22.9596 10.8846
55.4131 23.3943 10.3517
55.3684 24.5881 12.1348
71.9686 36.3434 17.7342
64.3218 27.1724 12.1895
80.2255 36.6282 15.6528
51.5474 28.2212 14.9777
87.3776 40.6964 18.4706
43.5269 20.3625 9.53836
48.9051 22.4734 10.7392
46.6409 21.7817 10.623
56.0236 29.9249 15.0299
48.9669 23.506 11.3789
50.7487 26.8394 13.64
52.3021 24.4251 11.2531
52.0186 25.5117 11.9477
29.0595 15.0614 7.8757
42.5452 21.647 10.7393
52.9243 28.0537 15.616
44.3074 21.2641 9.90439
38.5152 19.7873 10.0721
55.7081 30.8956 16.8868
50.3112 23.9421 11.2901
51.8563 26.9407 13.9325
32.2 15.4471 8.04728
48.8462 26.9214 14.3104
46.5289 25.6751 14.4207
49.7728 29.8196 17.5685
47.1244 24.2808 12.6444
69.9491 41.4001 23.7897
34.69 15.7721 8.72368
46.3225 26.9291 15.6197
50.0799 24.0556 12.6166
46.6796 25.6027 14.3972
41.6935 23.3253 13.2465
52.1559 29.7067 17.0577
61.8555 34.1999 18.7562
36.2502 22.5228 13.5929
42.5103 24.1512 14.4642
49.8571 26.2536 14.3639
38.9203 21.4724 12.1205
59.0383 35.3716 20.5313
46.1006 27.7585 16.0766
57.5935 33.5794 19.1823
47.3802 29.8545 17.5982
28.1966 18.0977 12.66
31.2987 17.567 11.1929
41.4233 22.1226 11.6556
35.6911 21.9165 14.0261
43.6981 24.8532 14.4803
50.2218 31.6025 20.1393
54.238 33.3977 20.1407
67.0207 38.9216 23.153
26.1428 14.4057 8.5212
41.7927 25.4537 15.3423
24.5631 18.411 14.615
35.7138 18.6393 12.1702
56.5252 35.0528 21.0912
42.4879 25.6783 14.973
44.212 30.5316 19.6049
39.0104 25.6802 17.4343
53.5117 33.9937 21.2934
46.8783 28.9986 17.9388
17.8266 10.256 6.92176
28.2429 19.2887 13.4996
31.0133 20.6005 13.5531
26.5847 14.4271 8.87505
48.0021 31.7996 19.6838
28.6813 21.6259 15.1785
29.9837 18.9105 11.328
39.4299 29.0664 19.05
30.3981 21.3012 14.7941
34.2712 23.9881 15.8052
29.7021 21.6705 15.5488
36.3833 27.4682 20.5672
39.9351 24.5028 15.7485
41.5879 28.536 18.7133
21.9617 17.1698 14.751
52.6721 32.6095 21.5746
44.4607 29.8515 19.7758
31.3581 25.251 19.995
39.6517 24.9756 16.5605
26.2376 19.8247 14.482
48.7678 36.3943 26.0221
33.8081 25.8512 19.0704
32.2614 22.3161 16.6089
44.5118 30.975 21.034
49.6658 38.9483 29.2162
50.9947 36.8345 25.1137
24.6134 19.7217 16.6098
31.0917 21.4902 16.0118
42.3603 29.2872 20.8027
36.6917 26.6958 19.2559
41.7914 31.8875 23.1937
38.4233 30.2763 23.72
28.6108 19.2054 13.7064
24.8972 18.6107 15.3591
46.3494 32.2975 21.4346
29.3372 26.7009 21.0836
32.8705 26.6095 20.8635
28.0391 20.2442 15.825
37.1181 28.269 21.0571
30.0972 25.1218 20.2404
26.5347 19.8467 15.8418
23.8813 16.231 10.4129
40.0936 36.0938 30.0714
35.4699 25.9178 19.8517
40.0496 31.8252 24.9305
27.6771 20.055 13.9944
32.0309 28.7871 23.2172
30.503 27.308 23.6212
24.5036 22.3942 20.8118
26.6596 20.5571 17.4427
33.932 21.4167 14.5727
24.6328 18.0227 13.0426
36.1252 30.7649 23.8534
18.2245 15.1008 13.7244
30.1516 24.2164 20.7144
25.071 19.9456 16.2631
34.1156 29.1182 22.9471
28.8722 24.4889 20.8384
28.0543 24.1664 20.2994
33.6655 26.9428 21.7579
25.033 24.9652 24.831
32.0542 25.807 21.8469
29.203 21.518 16.6911
29.4737 27.1627 24.0491
34.308 30.0706 26.5071
30.0487 29.2839 30.1216
31.5101 23.8131 18.6657
43.2529 38.3555 32.5352
27.0469 21.1492 15.3968
27.1954 29.311 28.1939
25.4783 23.62 21.6533
26.9361 27.22 26.218
28.6394 27.7513 28.4394
24.3805 17.9673 15.402
22.7911 20.2 18.3299
20.1366 15.2631 14.807
34.4368 29.1241 23.5357
33.0079 31.3849 29.8652
40.681 37.6416 30.7097
27.3638 27.3244 27.7722
29.1074 23.1404 18.7442
33.3768 29.7446 25.2031
28.8597 26.9836 25.1815
28.2445 30.6208 32.8274
30.1932 25.5446 23.3006
30.2042 32.0528 34.3959
36.2287 30.9048 26.1335
19.5513 19.1621 19.0149
37.0594 36.865 33.4597
31.9801 30.0453 27.9624
24.3384 21.8321 19.3112
16.461 18.2178 20.7957
28.9696 23.3933 18.8409
21.9579 25.7481 27.8323
16.9723 15.4802 17.1057
29.4437 30.0237 30.1285
40.7083 42.2002 40.5777
25.3884 24.7894 24.9525
16.5793 14.4151 18.2393
37.2688 28.9264 24.1822
43.6363 43.6598 37.083
21.4628 23.066 25.6595
24.9908 24.3973 24.3574
26.1505 24.7405 23.7495
28.1428 33.8103 36.9187
22.1917 22.0224 22.243
17.7856 21.9255 25.6901
28.7941 26.9442 26.0994
24.4315 22.6827 21.4041
21.8042 25.1416 28.6488
30.0676 28.393 26.9873
24.1863 25.0061 24.6443
18.1663 17.424 17.0199
27.5735 35.4254 41.2101
25.134 23.8984 24.5936
16.9707 17.4154 20.6662
22.6298 19.8613 17.5578
27.1411 26.0797 25.1953
17.2649 18.9862 20.149
37.4195 43.8173 46.2563
33.6644 35.3196 39.5197
21.7459 18.6641 18.3742
19.2586 22.238 25.0257
28.4635 28.0145 25.8655
32.2277 39.5961 44.2705
36.4631 39.9453 43.5518
31.5878 36.7408 43.0563
27.4247 27.8144 27.9563
29.251 35.4983 41.2892
21.391 21.7813 22.6411
22.1091 25.4646 29.5702
18.0167 22.5388 29.1685
22.1018 24.2394 28.5986
27.983 29.6065 32.5157
16.5483 19.1671 24.5307
29.4654 31.6846 30.8412
21.0691 29.2947 37.0565
20.6249 21.6289 27.2541
27.6358 30.636 35.0488
22.0571 27.3267 35.8722
25.7695 24.388 23.6095
17.182 20.3223 24.9249
18.1434 23.3382 31.5366
17.6407 15.9939 15.9532
21.5065 25.0508 24.8006
19.587 25.8505 35.0596
28.1396 32.329 33.8158
18.4978 22.5877 28.455
19.3784 23.7495 31.7962
31.8842 35.3959 36.9349
20.8574 27.7007 35.5672
19.0139 20.8312 26.053
14.5604 11.1916 9.34259
24.3344 31.9084 38.6498
22.1915 24.1274 25.8291
17.9905 27.6818 39.1432
26.7903 28.97 32.2554
25.7569 36.4006 48.348
17.127 18.2231 26.4873
26.0284 29.0441 32.3531
21.5004 24.7419 26.5074
12.251 17.5076 24.7936
17.1871 20.4803 26.6918
24.7456 31.4129 42.0509
23.8292 27.5724 34.1089
27.8838 34.4148 40.5784
27.205 29.8667 31.0604
16.9985 23.3098 27.7982
15.7887 21.4485 29.6868
27.5739 35.8066 41.729
13.3196 20.7686 32.0389
11.0079 13.1613 22.1555
23.9613 27.6357 27.5275
14.0562 21.2027 30.9235
23.2696 29.8902 40.2389
16.9018 21.4486 29.5468
21.5291 24.328 29.4257
23.6696 29.694 37.1511
23.985 32.1744 40.3507
23.9964 29.8237 33.9756
17.3103 23.4629 31.1975
18.6987 28.6751 39.1101
17.252 22.9561 31.1678
15.1898 21.4468 30.0412
15.0914 17.203 20.4807
11.0179 13.3903 21.8527
27.9163 36.2039 41.284
14.3045 20.3871 26.1059
17.2024 24.7709 33.0788
24.2027 36.144 50.1962
17.8371 22.8413 33.3859
25.1811 37.0073 50.012
14.4517 15.0421 17.2155
14.1561 23.3673 34.8231
12.8145 15.2722 24.854
19.255 27.811 40.3758
21.6468 25.8791 31.084
13.2023 21.2131 33.1723
17.6536 19.3914 19.1954
12.6676 24.6407 43.5518
23.7749 32.1706 46.2416
24.1771 27.4644 31.3724
16.4159 26.856 40.5584
12.9803 14.662 20.0524
15.8193 22.9435 34.3379
21 27.703 34.2127
11.7483 16.072 20.303
9.05269 17.1763 30.2232
16.4393 27.5447 48.7202
19.7612 18.3889 19.0646
19.5905 33.0233 52.0813
23.4344 30.3808 42.2048
20.0938 23.7711 28.476
14.3746 20.6068 29.1446
13.3152 19.8514 28.9663
18.5647 28.0349 37.4524
17.3731 26.3529 37.0091
9.41078 16.6098 33.6258
18.9542 22.804 26.1328
11.1592 18.7666 34.726
20.9238 27.3189 34.6894
22.6635 34.7261 47.0736
21.139 29.3895 38.3684
20.137 38.7567 63.0678
19.2407 27.0078 40.4399
19.6187 28.1303 39.606
13.1959 20.6401 32.0418
13.6116 22.2267 36.5063
22.148 35.9096 53.4382
16.2713 24.0243 41.6547
20.907 30.0024 39.648
14.5996 23.9959 33.6141
9.17637 15.1269 29.531
14.2443 19.9064 30.3679
14.2605 23.6858 37.9161
17.8315 26.1376 37.4869
9.30113 17.2405 33.8504
19.3298 33.504 51.4989
18.0008 30.2379 47.3536
13.9563 24.0667 45.7075
17.9362 23.4332 33.5482
17.5416 27.2726 42.9388
15.7213 21.9532 27.6048
14.0363 32.4217 61.7533
13.8854 18.3316 31.7977
13.7611 19.0011 32.4566
15.3218 21.7477 38.8503
18.1228 25.0022 36.4152
18.0425 26.656 34.4183
12.0933 20.3077 32.1912
12.0612 21.0222 37.3423
17.3592 23.9996 30.2218
17.8669 34.0815 53.4688
17.7319 25.2057 34.889
15.4984 28.8307 48.0023
12.4692 23.9978 46.0412
19.1774 27.8701 43.3823
18.4506 39.8668 70.3709
15.4967 22.9156 46.2151
19.0387 25.1554 38.5315
16.0154 25.0058 40.7903
16.7701 21.4185 32.5772
20.4019 31.8785 44.8489
14.435 23.1461 31.5416
12.8405 26.5841 48.4019
10.0122 15.1938 30.2277
15.4644 23.9528 36.5759
15.5361 28.5412 44.472
8.95371 14.9341 31.5599
18.811 31.8312 48.1005
12.9864 26.2873 48.2345
12.2071 21.316 41.6954
15.0683 21.7828 36.2284
14.4151 18.4045 20.1117
13.7251 33.0736 62.2311
13.4836 19.1453 32.9682
10.1534 20.1114 44.0965
18.4532 29.3098 49.8513
14.1332 18.9215 25.9161
11.7227 20.9658 34.2998
14.9991 26.2505 37.385
10.7824 22.7131 40.119
11.3935 24.2099 47.4776
13.5835 25.5586 45.1738
10.9172 18.8483 38.7033
13.464 22.9583 43.0772
13.4561 19.3322 31.9808
12.1244 23.2467 48.4272
14.142 23.3639 36.2701
13.2105 25.2568 48.9384
11.7356 15.1191 22.589
8.25746 17.6621 40.8607
18.214 29.003 42.4163
13.6062 25.4704 41.8563
12.8931 25.0726 43.7191
6.97653 12.0836 28.8083
12.4801 21.5898 35.4546
10.3409 25.4809 53.1748
11.522 16.8604 35.3677
13.1424 23.5972 42.3243
8.45729 12.5454 26.9367
10.9674 18.3131 32.4479
10.9852 17.6996 25.2438
12.873 31.4303 65.935
13.5799 20.2052 32.4587
11.5776 23.7456 55.3376
17.1112 29.2565 58.9955
21.3765 31.2343 48.6586
15.4541 28.2694 43.6342
11.2068 19.5538 38.4773
17.5257 33.4287 56.0068
9.70446 16.3747 31.1304
10.2888 18.7526 36.6778
10.6271 23.1083 48.5138
12.018 17.0807 30.7301
13.6845 24.8506 40.5518
9.45713 22.1795 49.2479
13.3246 21.3163 35.7011
8.97133 15.8674 28.8416
6.94254 12.0529 26.013
12.5112 26.7784 50.3553
15.208 27.2224 44.2408
6.28324 17.8162 50.3903
13.2206 19.4649 39.1341
11.8344 20.3355 37.931
10.9492 19.2302 39.0366
13.6656 26.1963 54.3277
14.1042 19.064 25.0334
11.1122 20.7574 28.3515
7.7768 17.6068 31.2038
7.947 18.0337 36.8799
8.12597 15.397 30.4153
10.6751 24.5017 54.9467
13.4334 19.5252 31.7689
13.773 32.0774 60.0718
7.40115 15.8693 39.8389
11.44 22.1638 40.8356
8.41443 17.4271 44.1338
12.4015 21.0307 39.317
12.73 23.0673 39.268
11.2096 23.2581 43.2462
7.46996 13.4071 30.6217
14.1539 29.6703 52.1227
8.36107 14.0364 26.8689
7.81477 20.0533 42.0061
8.25918 15.8375 33.8729
9.10786 19.1081 40.7798
9.75927 22.6661 50.9071
14.6472 27.0094 51.1238
10.0596 19.0025 34.6894
8.30696 19.1455 46.3843
8.88249 15.2941 31.3384
10.8727 18.6273 31.2379
8.37099 18.6932 42.2252
10.706 20.6487 37.5141
6.26843 14.4587 34.6834
9.13191 18.0198 30.7434
8.10483 22.7827 59.8996
12.364 22.0167 48.6154
11.3333 23.3831 47.9922
10.3485 19.2947 40.8749
10.7606 22.3499 47.6127
9.63823 20.1023 42.1426
10.2797 20.7424 40.1837
10.7749 25.1285 53.5395
9.00385 17.7427 40.1317
6.33454 11.7424 28.9918
7.89421 15.1197 35.1934
11.2004 21.447 42.6903
10.5227 21.3409 41.3072
12.4471 32.5939 72.9225
11.708 20.6291 43.8336
8.33856 17.917 44.9177
12.5457 25.5755 48.0837
10.237 21.1316 44.4028
12.637 31.01 61.9189
6.22945 9.84332 27.6765
9.99391 22.9912 42.308
6.75191 17.042 41.3342
8.49178 18.9932 40.7958
5.97727 12.2607 40.2346
12.7077 20.2257 31.3645
9.57114 21.4725 41.2057
9.85007 23.4676 49.4777
8.5099 24.6086 63.0169
9.97762 18.8914 43.6311
7.93416 15.8648 35.0116
7.69241 19.6001 62.3461
15.6959 26.2314 44.4654
11.1032 31.6309 79.3583
13.2619 20.9545 37.566
9.97534 15.1627 21.2744
6.69877 23.9007 66.0344
14.3352 27.5495 49.341
7.84808 18.0105 42.0753
9.64893 21.7994 47.3203
9.91182 20.8784 44.5728
8.72553 19.553 35.209
3.75272 10.8238 34.5709
6.7498 15.9651 39.6928
7.75847 19.466 51.2267
9.92048 21.617 58.297
10.3781 20.5181 50.6252
11.3154 22.19 44.1525
9.39457 17.2845 44.0432
10.7295 19.4736 34.6424
6.68849 15.66 36.3133
9.85558 21.2208 46.648
8.88567 20.3857 46.2314
8.80577 16.9371 31.8352
7.62201 21.5898 48.6207
7.11492 20.0527 58.3471
11.1788 21.0878 41.5547
7.85615 18.0768 39.1787
7.96349 19.7341 45.709
6.52073 14.0004 41.0695
8.82375 14.5159 26.0025
8.09377 18.6374 31.2268
3.72398 8.83156 20.6588
5.18281 17.2644 53.0468
10.2908 19.7475 34.7189
4.89135 15.5572 40.7889
4.44815 10.4329 39.9383
9.42115 18.0542 34.7982
6.22827 17.9419 58.4966
12.8235 23.521 35.3129
5.18434 14.8518 37.4902
7.31105 19.6192 54.193
9.75203 19.173 46.5804
10.7296 21.1081 36.0596
8.56082 26.4663 59.1234
7.29667 18.1313 47.192
7.59419 16.4712 39.1147
5.80987 14.6952 38.5882
7.12583 17.7403 47.0479
6.27196 11.1982 31.46
8.44358 20.418 48.229
8.58462 17.8387 34.6876
5.42488 16.1446 48.1765
10.6013 25.0987 53.571
6.58136 12.5944 30.0947
4.36013 10.1642 36.0046
9.5747 21.038 43.5317
8.96593 22.0416 50.7679
6.88249 12.2896 26.7388
7.5652 22.929 55.0974
8.24823 17.7616 35.9674
6.68865 17.8681 45.3849
8.03263 19.4368 47.9532
