# pn-170911/RbIIA-30-RbII-1280-1959.psd
# Power spectrum* (dif=0,1,2) (really just |FT|^2)
# NOTE: only the first half! (symmetric)
# weeks: 1280-1959
# 180 clock-days, 36 excluded
# PSD: 1441
23762 0.267447 0.0190716
660869 6.29488 0.0345481
4.35854e+06 106.911 0.0361249
365858 11.05 0.0346142
279435 18.6568 0.0392939
119544 9.65903 0.0366187
98082.9 9.8611 0.0386194
70200.8 11.0931 0.0370079
54175.3 9.88926 0.0446195
42281.6 11.3565 0.0469634
41804.7 10.3222 0.0474559
26678.5 11.6768 0.0427155
24877.3 9.30479 0.0467888
18196.4 9.88456 0.0482352
19160.5 9.67646 0.0541414
17022 12.7471 0.0489861
15121 9.71936 0.0543324
10733.6 10.2449 0.0535382
12901.5 9.50371 0.0596122
9399.54 10.2935 0.0572238
10121.3 8.87695 0.0608509
8159.61 11.6523 0.0668346
9240.19 9.45926 0.0695653
5400.18 9.24178 0.0613463
7191.6 9.4607 0.0643533
4468.44 9.23082 0.0615072
6585.31 10.3379 0.0853442
4124.51 8.63573 0.0619923
5608.93 11.3821 0.0802498
4368.98 10.568 0.0813376
3910.53 8.97594 0.0848353
3470.97 9.56221 0.0829835
4031.31 10.5228 0.0834327
2923.66 9.55628 0.0842601
3075.16 10.5049 0.0971454
2508.82 9.20976 0.0889209
2476.55 9.88921 0.104856
2276.61 11.2409 0.107744
2288.4 10.7654 0.108863
1980.19 10.648 0.129929
1591.45 8.39574 0.117268
1907.79 11.1995 0.111612
1702.87 9.84327 0.113517
1775.59 9.87136 0.149766
1475.23 9.40966 0.134201
1500.58 9.64318 0.129529
1500.37 9.99749 0.123606
1490.98 10.621 0.159347
1575.19 10.8916 0.161138
1321.72 9.97012 0.155446
1314.09 8.54367 0.14003
1318.14 9.51432 0.151765
1298.04 9.95689 0.170776
1209.4 9.49487 0.175436
1448.7 11.2209 0.184652
1030.55 9.14208 0.163793
1208.07 9.86738 0.193658
1054.13 9.46382 0.20595
1213.36 10.2964 0.197181
1069.76 10.635 0.23189
1149.98 9.99241 0.210882
943.859 9.75691 0.21299
1083.97 8.30234 0.202982
838.932 9.26871 0.233461
1015.27 10.4217 0.265645
884.909 10.8649 0.269436
1123.08 11.7473 0.358644
904.775 11.9034 0.318455
883.09 9.53921 0.284696
757.968 11.3632 0.302185
889.929 10.704 0.330555
672.369 10.0415 0.321314
687.427 10.0178 0.3209
595.516 9.21586 0.302789
650.019 10.2828 0.313061
579.07 9.81756 0.332663
605.847 9.58238 0.286435
630.995 10.9644 0.40055
555.018 10.5185 0.367061
594.01 11.2908 0.42788
519.516 9.03793 0.36859
476.871 9.37595 0.331405
469.097 9.96204 0.42709
465.867 9.27628 0.414437
479.725 11.1894 0.427483
478.013 9.93062 0.359999
412.294 9.65715 0.382142
379.167 10.1468 0.459971
403.382 9.65825 0.406624
382.981 9.71327 0.429128
399.757 9.63616 0.430967
332.004 8.72405 0.422657
465.742 11.5478 0.510931
369.36 8.92984 0.393424
421.541 8.93986 0.436356
377.686 9.81296 0.511406
364.063 9.76014 0.475514
321.391 10.2416 0.484331
368.166 9.94353 0.525824
404.612 10.9623 0.579191
430.603 8.80884 0.469796
315.08 9.09492 0.541026
349.948 8.64532 0.478995
301.593 9.89265 0.528524
353.674 10.206 0.555192
295.021 10.1226 0.551634
369.096 9.22091 0.513978
300.876 9.7276 0.553426
321.143 8.90053 0.508475
302.798 10.5555 0.654317
398.396 12.4784 0.781308
289.42 10.1601 0.60516
340.427 9.33681 0.594334
269.211 10.4859 0.70486
323.879 9.9075 0.669242
258.436 10.1156 0.687287
267.13 10.7917 0.721587
255.537 10.6725 0.718192
252.373 10.1076 0.691128
213.226 9.14764 0.628932
228.262 9.77114 0.691591
241.304 10.3039 0.727339
199.184 9.37402 0.711605
209.679 10.2976 0.790222
234.353 11.0179 0.807286
199.952 10.0506 0.78133
188.801 9.21313 0.68864
181.716 8.48554 0.683235
179.539 9.21665 0.784797
176.551 10.2305 0.870855
189.707 9.93347 0.860653
195.42 9.90362 0.870633
194.569 10.1821 0.976458
182.423 8.44169 0.750024
185.641 10.5204 0.894524
182.383 9.93135 0.885007
184.483 9.75799 0.916828
211.982 11.3173 1.00503
181.739 11.1657 0.977886
177.477 9.35344 0.918173
196.959 8.98622 0.905553
171.866 9.55835 0.967741
198.936 9.53685 0.960402
159.634 8.73001 0.887576
189.243 10.3886 1.10438
174.45 10.0742 1.05483
180.801 9.37272 0.985026
157.597 8.95314 1.02012
214.919 9.81735 1.03768
160.848 9.32517 1.0492
171.249 8.51152 0.921996
160.338 8.84595 1.03039
162.113 8.92952 0.990827
156.133 11.8047 1.33909
163.142 9.28293 1.06886
161.75 11.5778 1.34434
153.781 9.69124 1.09993
142.387 9.81471 1.17759
142.482 10.362 1.22214
135.544 8.8743 1.17417
120.243 9.16255 1.14197
136.674 9.28323 1.18265
111.365 8.596 1.08743
130.216 9.80895 1.2739
130.975 10.368 1.31992
109.313 10.5168 1.35574
129.237 12.878 1.62799
126.815 10.1214 1.38535
113.467 8.6385 1.17943
135.243 11.3078 1.47014
121.105 9.60011 1.28319
119.352 10.1629 1.44073
129.082 11.746 1.59712
99.0963 10.05 1.42671
109.922 9.10243 1.31333
118.524 9.19887 1.35381
127.875 10.7711 1.59069
128.832 11.1172 1.69542
129.198 12.4705 1.88938
101.515 9.58231 1.49669
128.802 12.5726 1.93559
110.043 9.56033 1.62188
130.211 9.44435 1.47548
107.222 10.4485 1.69093
129.375 9.85336 1.58648
113.075 9.58897 1.60528
121.657 10.4367 1.68138
104.859 9.94763 1.65471
124.763 9.75063 1.6859
112.413 9.21623 1.55687
121.111 9.88678 1.69144
110.44 10.5275 1.76384
111.211 10.8308 1.88172
103.828 9.88798 1.68391
106.818 11.0897 2.00575
110.141 9.44994 1.65325
105.504 8.7591 1.60056
94.5139 8.9508 1.62881
102.217 10.3954 1.91013
78.2935 9.66973 1.78531
94.6137 9.33296 1.68662
84.8029 10.0038 1.88005
86.4635 9.60336 1.87431
92.9287 11.4436 2.31959
93.8903 9.97175 1.95956
79.5508 10.125 1.99094
85.2722 10.2271 2.03773
80.1217 9.07322 1.80899
78.6243 10.2552 2.13844
89.4082 11.1679 2.29475
77.0493 10.0178 2.01121
74.4154 10.2225 2.0659
78.9224 10.4173 2.12544
76.5455 9.86658 2.14665
77.0614 10.4969 2.25452
76.3081 10.3173 2.27837
72.7528 9.08791 2.0116
81.7407 10.0456 2.19407
86.3399 10.3544 2.33782
81.0406 10.3069 2.39191
75.8725 9.28424 2.17072
81.4133 10.1481 2.4352
86.8352 9.20435 2.18763
68.8011 10.5302 2.49369
87.1281 9.55338 2.29774
74.9527 11.2374 2.73476
87.9898 9.38339 2.30254
71.5233 9.88162 2.46295
99.0634 9.79778 2.46547
78.2138 10.6768 2.47336
89.104 9.41667 2.33918
66.9057 10.0455 2.66946
86.0394 11.1841 2.88203
72.6512 9.19219 2.34471
86.2118 8.51321 2.29208
67.0839 9.08384 2.3072
89.5257 9.48951 2.53078
64.505 8.9728 2.38264
79.8203 10.4076 2.83541
72.7484 9.14496 2.51939
72.3062 9.86009 2.6252
68.6721 9.02432 2.60365
67.5853 10.1497 2.71269
67.5622 9.73043 2.67033
66.6123 8.8415 2.44501
62.8035 9.06141 2.54105
70.7446 10.3106 3.0127
62.6378 10.5657 2.98721
65.6901 11.3593 3.31962
63.6917 11.1442 3.10916
64.1329 10.6634 3.18103
71.5622 9.82998 3.02409
57.272 11.0396 3.2328
63.1207 10.7365 3.30825
71.7567 10.6828 3.24668
57.8985 9.27138 2.82835
58.0366 8.74441 2.77395
73.4575 10.9969 3.49313
78.1317 10.8627 3.35249
58.3777 10.2177 3.21952
75.3631 11.2831 3.63671
63.7523 9.62498 3.09979
73.3553 9.46901 2.98429
58.9436 11.803 3.69275
72.2247 10.687 3.432
55.3216 9.96744 3.37491
85.4762 10.606 3.42962
54.8051 9.584 3.07974
79.8803 11.1548 3.69501
49.5698 9.84619 3.33689
74.3571 10.1043 3.47446
63.0577 11.3773 3.9475
66.4784 8.73048 3.00142
51.1784 8.99886 3.32401
71.5404 10.8274 3.79064
53.0101 9.16647 3.17087
60.337 8.79655 3.1223
54.3557 9.67386 3.46107
67.9034 9.31249 3.33452
55.6579 10.213 3.68405
64.5576 9.76236 3.53737
48.2366 10.1615 3.81327
49.404 9.15868 3.42669
51.0719 9.9638 3.83149
56.2751 10.3724 4.00165
52.0905 9.41877 3.62724
52.3926 9.561 3.5807
56.1479 11.6513 4.53399
48.986 10.6399 4.10615
50 10.8398 4.06746
46.5507 10.9398 4.29817
45.5461 10.5413 4.34349
51.6725 10.9051 4.14653
46.8785 10.1482 3.89315
40.0116 9.2099 3.85585
51.8178 9.58594 3.79214
46.5749 12.6307 5.33963
48.6792 10.2075 4.11836
46.3671 9.02047 3.62902
49.8383 9.59719 4.03106
47.9684 10.6177 4.48598
44.1762 9.10187 3.68099
52.2784 10.1394 4.2261
47.4603 10.1483 4.25075
59.4379 10.8501 4.48634
45.6184 10.2791 4.38203
55.1718 9.90439 4.37078
42.1352 9.21156 3.91976
58.2479 10.5233 4.28694
47.0469 10.5772 4.68934
56.5269 11.2603 4.93664
43.3978 9.9308 4.44239
45.1371 8.35459 3.64333
42.3457 10.0328 4.68616
56.9744 10.5747 4.77561
35.2825 9.4676 4.29987
54.0489 10.9436 5.17942
32.482 9.11977 4.3684
50.0766 9.06184 4.535
34.3991 10.5659 4.95129
50.0811 11.0574 5.26139
37.385 10.242 5.08348
41.7065 10.1386 4.78804
29.4533 9.3019 4.81484
49.7351 11.8628 5.37997
32.4648 9.85213 5.0405
40.0374 10.1434 4.77815
38.1928 11.4174 5.68057
40.0386 10.5787 5.16106
34.0331 10.3136 5.08612
32.6017 11.3308 5.54925
34.5011 10.6531 5.18977
32.1501 10.0751 4.91266
34.1195 10.1623 5.15704
28.3518 10.377 5.46797
35.6933 10.6518 5.49902
31.9334 9.88906 5.16294
33.2746 10.4187 5.20947
34.3919 10.9526 5.83098
35.8848 10.5607 5.39778
35.4787 10.9554 5.91552
32.1379 9.92952 5.16385
37.1498 11.4422 6.28166
36.6889 11.9251 6.30263
33.6384 8.64222 4.54859
30.028 8.75851 4.81331
34.2313 9.32946 5.01626
31.2914 8.61637 4.72408
37.2598 10.4666 5.89022
29.2909 8.8431 4.97331
39.2962 10.4577 5.8599
32.9548 9.37806 5.59525
40.3506 10.924 6.07742
35.2336 10.9338 6.19202
43.4217 10.2371 5.74045
36.4562 12.8278 7.44773
37.5636 10.5634 6.01316
31.1694 9.63303 5.60819
38.014 9.89204 5.72167
30.1897 11.5207 6.74268
35.0051 9.24112 5.13376
31.4756 10.7151 6.40712
37.5854 10.8789 6.3182
32.3091 10.9282 6.5413
36.389 10.9364 6.35871
30.5225 11.035 6.40959
34.3967 9.95091 6.1242
27.9037 10.1763 6.00228
33.6797 12.8725 7.88716
24.7078 10.4965 6.44659
22.9787 8.17104 5.0588
23.0721 9.38526 5.97262
26.4087 9.93973 6.17509
26.0193 10.7614 6.86106
25.9891 9.94553 6.66585
29.7508 11.5661 7.21012
29.6952 11.8105 7.25364
25.0124 9.98059 6.47181
28.2313 10.9675 7.02773
27.169 11.356 7.14362
28.68 11.3395 7.06578
27.5814 10.0886 6.47956
25.9901 10.3389 6.77973
26.3545 10.7612 7.19747
20.7327 9.16732 6.41203
25.959 11.0169 7.58202
27.3694 8.85948 5.25442
25.356 9.43823 6.74488
27.588 9.57162 6.43765
26.8188 9.17018 6.16768
30.2181 10.6001 7.22722
29.291 11.19 7.63914
25.9105 8.97617 5.92883
22.7458 9.07196 6.55303
29.7136 10.6649 7.23537
28.0985 11.7185 8.51003
27.2053 10.3709 7.61242
32.1322 12.0567 8.40388
25.9536 9.11432 6.77214
21.7393 9.4218 6.82019
29.2669 10.4973 7.41239
22.15 8.70372 6.85837
28.1889 10.3989 7.82344
30.4556 12.1311 8.5955
27.7525 10.2192 7.34039
22.1834 10.906 7.89314
28.6268 10.8751 7.95611
29.1269 11.048 8.07888
24.2388 9.3705 7.07103
23.2752 9.65449 7.49493
24.7869 10.5621 8.29661
24.3986 10.4171 7.91655
22.0905 11.1526 8.52607
22.5441 8.80801 7.24191
22.9193 10.8899 8.43852
19.5442 9.8451 7.36408
22.12 10.4896 8.11093
21.9565 11.0486 8.56788
19.3561 9.61541 7.56876
20.8005 10.1251 7.60744
21.8779 11.2916 8.77925
20.7052 10.4262 8.17988
17.7977 9.19448 8.21267
22.7793 11.1696 8.17758
18.3533 9.45917 7.63945
23.2303 9.82346 7.87555
19.5932 11.2352 8.72056
20.7316 10.0815 8.08734
22.8818 10.1331 8.37308
20.5552 9.49729 7.76605
25.2359 12.0921 9.69579
19.6523 8.09109 6.83401
27.6046 12.3888 10.1294
26.5543 13.1483 10.3739
22.3218 10.09 8.29248
24.6567 13.7604 11.1675
23.7701 9.67073 8.55522
18.3574 9.09597 7.987
21.3387 9.67472 8.27055
22.6551 11.4192 9.76819
25.0547 9.47668 7.88071
19.2311 10.8951 10.0084
25.4087 12.1483 9.58619
20.9094 11.0441 9.81317
25.2319 10.7902 9.46024
17.4935 10.2268 9.17056
23.622 11.8894 10.6881
22.1173 12.4478 11.2899
19.4361 10.5618 9.0762
18.4632 10.1944 9.12442
21.1839 11.1053 9.57791
19.2486 10.8295 9.34337
18.353 10.8456 10.0193
18.4386 10.2466 9.17014
20.5142 10.8946 9.86168
19.2323 12.2052 11.1808
20.6609 11.1485 10.3867
16.5727 11.3642 10.1254
21.2283 11.8976 10.7285
17.4332 11.3223 9.90558
17.5378 11.456 10.6924
15.0955 9.20862 8.53003
17.5699 10.9358 10.7548
16.5672 9.50142 8.71256
16.189 9.8102 9.0088
16.0877 8.87204 7.86082
17.8997 10.2778 10.1389
18.1682 11.4033 10.9553
22.2991 11.762 10.4386
17.3367 11.4045 10.69
19.4844 9.67771 9.85119
17.0571 11.3018 11.2441
22.1342 12.4882 11.7518
16.4519 10.5435 10.1866
21.0835 9.56565 9.38273
18.0023 11.6065 11.2736
22.0214 11.6721 11.0951
20.1934 13.3664 13.4075
22.9613 11.5025 11.776
15.6352 9.75688 9.44662
17.6712 10.1429 10.1069
18.1457 11.2628 11.3466
19.9552 9.56716 9.87067
18.6261 11.3622 12.1518
22.7644 9.63115 9.87945
17.1438 11.0367 10.8739
19.0632 10.2534 10.5918
14.718 10.0086 10.7934
19.4833 11.2613 11.4769
15.4976 9.57111 10.5612
19.8734 12.3558 11.9157
15.1982 10.4729 10.9943
17.0147 9.50454 9.98509
15.7444 11.2736 11.7259
16.3974 10.9488 11.1822
14.8392 10.503 10.6421
15.3836 10.3512 11.8408
14.5071 12.5884 13.3633
15.8599 11.1438 12.1127
15.2913 10.735 11.2488
14.3992 9.57665 10.837
13.3766 10.3995 10.972
13.3465 10.7547 12.1249
14.4016 11.674 12.5029
16.2376 9.77761 11.4064
13.5643 9.22386 9.83539
13.8258 8.99189 10.2561
14.8492 11.5964 12.1231
15.9686 9.58338 11.8273
16.6147 11.5148 12.1715
15.6465 10.2714 11.8048
16.2529 11.4559 12.7766
18.5275 10.5018 11.4801
13.915 11.3606 12.9871
18.7751 11.556 13.2464
18.1834 11.0255 12.6646
21.0932 11.6071 13.8161
15.2901 10.0489 11.7274
19.4881 11.0188 12.0591
14.7125 9.93357 11.9065
16.8994 9.94361 11.3039
14.687 10.2758 11.8373
19.1364 10.422 12.6756
14.0184 10.1268 11.6731
18.024 11.4189 13.0085
13.195 9.55819 11.9071
17.1275 10.0375 11.7686
15.7113 9.92033 10.9694
17.5193 9.69949 12.2399
16.7998 12.238 14.1548
16.1123 9.89621 11.7186
16.7677 12.1294 14.1222
15.774 10.6086 12.7576
14.7919 10.5036 13.3468
14.075 9.69162 12.363
15.0419 10.6575 12.4805
14.0611 10.2459 13.793
15.2584 11.5173 14.206
13.7497 9.78228 12.5166
15.0157 10.7131 13.3055
14.6125 10.765 13.1928
15.9058 9.61249 11.7123
13.8538 12.0897 14.9967
15.5506 11.7994 14.6971
13.0637 9.96111 11.5693
13.9445 10.1506 12.871
12.803 11.8226 14.6497
16.6892 12.4632 15.6509
14.2595 11.2315 14.3615
15.5945 11.1811 13.6207
15.0254 10.4234 13.6745
14.5431 10.7165 14.2028
14.0252 10.4939 13.7581
13.8738 10.7944 14.1073
16.9649 11.4297 14.4367
12.2619 9.90337 13.7974
17.7081 10.5437 14.0852
15.0434 11.415 14.3618
17.4553 12.3433 16.2181
15.6975 12.2679 15.6708
16.02 9.80517 13.2326
14.7183 11.0621 13.8311
16.8825 10.7243 13.9249
12.1326 11.7566 16.27
16.142 11.4283 16.3098
17.5229 11.4285 14.5346
16.6134 11.8864 16.8788
13.0371 10.7007 14.4152
16.3986 12.3224 15.0761
11.693 11.2092 15.5573
14.4707 13.313 20.0734
15.8482 11.1174 14.4526
15.0706 10.5545 14.8202
13.8823 12.1643 15.8332
15.1406 10.8779 16.3066
14.2508 11.5443 14.6186
12.6751 11.8115 16.8301
15.0846 12.0676 16.9614
14.2847 13.9204 19.0372
13.2332 10.5128 14.9172
12.8185 12.2485 17.9483
13.2002 11.1784 14.6943
10.6827 10.3488 15.5823
13.906 10.1216 15.1081
13.8044 11.983 16.9025
12.1632 11.2535 16.1274
11.5454 10.3087 14.5475
11.9868 10.4166 15.2812
12.9043 11.2167 15.1045
12.3225 10.751 15.1327
11.2235 10.8138 16.5892
11.8297 11.0975 14.9361
10.5212 10.415 16.453
13.4217 11.6555 16.3444
14.377 11.6162 16.4962
13.424 12.3105 18.8475
14.9902 12.3413 17.6029
13.0264 12.1022 17.2944
11.5801 9.80733 14.846
13.4863 11.7164 18.7125
14.581 11.5751 17.9491
13.2285 12.0554 17.4614
15.9386 12.8109 19.4458
12.6053 11.014 16.334
15.6411 11.8091 17.4706
12.0662 9.43717 13.8192
13.9166 11.6335 17.1909
12.1973 11.1102 16.1581
14.1651 10.9659 16.1192
11.0373 10.7741 16.5663
15.3931 12.1374 20.4315
12.2967 11.381 16.9099
14.1691 10.3306 15.7362
10.2474 10.7144 17.4413
17.0482 12.748 19.7945
13.3351 11.0956 15.784
12.3883 10.9888 16.9243
9.6761 11.1561 18.3987
14.3238 12.711 18.7771
11.1978 10.9225 16.979
14.7009 13.5015 20.693
11.0513 10.5721 16.3763
12.206 10.8167 17.7104
11.478 12.2892 19.9315
12.8321 11.2778 16.5721
10.3076 10.7474 17.1128
11.8345 10.9903 18.0613
11.6162 10.6851 17.9776
12.3427 12.833 19.5724
10.925 11.8707 17.9406
11.854 11.5954 18.8057
11.5047 11.5625 18.0596
11.8415 10.8145 18.756
10.7145 11.2617 18.1757
13.5267 12.5752 20.4565
11.6051 10.8441 18.2896
13.3832 13.0418 20.5848
11.147 11.6052 17.3516
12.7625 11.8644 19.4103
10.7877 11.7901 20.6024
13.1937 10.583 17.6167
10.7063 11.1394 17.8419
14.3833 10.7329 18.9064
12.6888 10.6844 17.6218
14.0376 11.363 18.9614
10.9597 10.7252 17.5905
13.9119 11.7218 18.3539
9.984 9.90479 17.9066
13.9037 10.7393 18.9891
11.0831 10.9297 18.1983
14.2432 11.6717 20.2629
12.4033 12.3404 20.6797
13.4303 8.81841 16.4417
10.0931 11.297 21.3382
15.946 10.8202 17.6559
11.1549 11.6928 20.5055
12.2477 9.48102 17.1383
9.88905 10.4648 18.0899
13.1531 10.774 17.1728
10.8933 11.6699 20.6903
12.7464 10.7246 17.077
10.2586 10.605 19.6335
11.9608 11.1785 19.3737
11.5644 11.5945 21.0746
11.9514 11.2589 17.5533
9.8174 9.65197 17.2376
10.7704 13.2023 23.7907
11.4598 10.9561 19.4991
10.4552 11.0898 18.6702
10.3771 11.4117 21.5011
9.93139 11.957 23.1481
11.0322 12.7354 19.6733
10.8044 11.0991 20.1729
11.4401 13.2374 21.5951
10.7881 10.8563 20.8699
10.7689 11.1679 20.8566
13.8711 12.458 21.8347
10.3559 10.3952 18.2587
12.8389 11.2722 19.544
10.353 10.599 18.9379
12.9524 12.4057 22.0876
9.76608 12.3076 22.1136
12.8211 10.0711 18.1993
11.1745 11.4782 20.5392
14.377 12.4465 24.3509
10.6565 12.5108 22.7431
10.6774 12.0543 21.7999
10.2472 10.9478 20.2345
14.3993 13.7315 27.3162
10.9493 13.1959 24.0557
13.361 11.102 19.4663
8.88428 11.2054 21.5924
12.4584 11.5518 21.0228
9.91702 12.9629 22.6653
12.526 12.2129 24.2805
10.5572 12.5547 24.1288
11.4156 11.488 23.2908
10.0222 12.3235 20.7328
10.6068 12.0977 22.7779
9.51324 10.3004 21.5999
10.4177 11.3408 22.0872
11.33 12.259 23.3266
10.1335 11.098 20.6538
9.43116 10.7717 20.8428
9.20945 11.6156 22.6422
9.71955 11.2113 20.9282
8.95828 10.8926 20.5863
10.1526 13.4177 27.127
8.78449 12.4656 23.3223
9.21769 10.4729 21.5128
9.01159 13.0184 24.2413
9.4315 10.8238 22.3941
9.59624 12.4327 21.9614
8.44135 11.6214 22.5078
8.49432 11.5921 23.2444
9.05614 13.2785 26.026
8.73601 10.2373 21.3479
9.71474 10.9956 23.5508
11.206 11.9575 23.8279
9.92348 12.2367 22.871
10.8404 14.2364 28.5293
9.74735 12.5911 23.5812
10.6077 11.5233 24.4517
10.7369 12.6988 23.1511
9.50721 11.1667 22.9569
9.15435 11.2138 22.9977
10.6419 11.1192 22.4003
10.6055 12.2039 24.422
12.2253 13.292 26.8695
9.64035 12.5684 28.3162
11.5386 11.5429 22.0328
10.2807 11.9254 22.1404
12.1078 12.7648 27.2482
10.2645 11.7973 23.4477
12.2996 11.0996 22.5447
10.3371 12.5786 25.1789
10.4606 11.052 23.2348
9.00409 10.3719 23.9441
10.679 12.829 25.6792
9.10165 12.7653 27.5598
10.6942 12.061 24.1143
9.77323 12.8989 26.9909
9.45018 9.69245 20.1922
8.8139 13.1495 25.5168
9.18498 12.3015 26.1437
9.12662 10.4441 22.3023
9.32767 13.5465 27.0452
7.61275 11.5158 24.9703
7.23541 10.3939 23.9535
9.36077 11.3319 22.9393
7.88235 12.1524 23.975
8.88674 12.7441 30.4767
8.12473 11.2352 23.9135
8.31292 11.0749 25.2197
8.08393 12.0877 23.3408
9.42706 10.7846 23.8661
8.2551 12.1739 27.4479
9.35511 14.2745 30.0938
8.58153 12.8987 24.278
8.37458 11.7107 24.5422
8.11637 13.7201 30.0266
8.5563 12.0373 26.1083
8.85995 10.9915 24.8691
10.0746 13.439 28.0448
8.96124 10.6716 23.4552
8.28917 10.8017 24.4359
9.30318 10.2771 22.4378
10.5056 13.9069 27.8101
9.44348 12.1276 26.4395
8.34985 12.4299 28.0825
10.4527 12.4613 30.0467
10.7767 11.8642 23.4629
10.4944 11.6929 26.8841
8.78815 11.7466 28.4821
10.227 11.6601 24.6
9.00521 12.297 24.6707
9.47156 12.686 28.3502
9.65984 12.7107 30.6604
9.76542 12.6047 25.9174
6.95623 10.1985 26.2819
8.94011 11.8079 24.2549
7.71275 11.3253 26.1489
8.85742 11.5614 28.4134
9.40564 13.7214 27.0577
8.01042 10.5567 25.2951
8.66944 12.2491 27.7652
7.89681 12.1031 27.5257
7.09919 10.5269 26.1179
7.02767 10.9801 24.5764
6.91545 11.1966 25.3451
7.51287 13.0412 30.4237
8.33233 10.8178 26.5868
7.80218 10.3194 23.7174
7.85297 12.8937 28.8808
7.88318 11.6418 26.4237
8.21457 10.4714 25.3217
7.72372 11.2149 28.0937
8.33046 12.0362 28.6909
8.15643 12.2532 25.9744
7.62807 10.9882 26.1891
8.27839 14.131 31.2893
7.6157 11.6855 29.2929
8.80946 11.3959 25.0492
7.44977 10.3917 25.1352
8.18257 11.3748 28.0333
8.83697 13.2963 30.9462
9.48331 13.5744 32.0174
7.4932 10.3758 26.4676
9.64426 11.82 25.9789
6.65559 10.726 25.9828
9.92943 12.5325 29.4307
8.7003 10.597 24.6879
8.81844 11.3488 29.9962
9.333 12.406 29.7123
10.5328 12.4121 29.2771
7.7451 11.2794 26.8494
10.5702 12.9109 29.7459
7.9888 11.8553 29.0898
10.4162 11.3773 26.7768
6.90323 10.8182 30.6653
11.0993 11.8443 25.9233
7.02881 11.378 25.0415
8.79713 11.6373 28.1647
6.24788 10.2976 25.8899
7.12872 9.69154 27.5833
8.5502 13.6496 33.1634
8.95907 12.1024 33.8976
8.31847 12.4246 27.2887
7.55493 11.3046 29.6058
