# pn-170911/RbIIR-59-RbIIA-1280-1959.psd
# Power spectrum* (dif=0,1,2) (really just |FT|^2)
# NOTE: only the first half! (symmetric)
# weeks: 1280-1959
# 4111 clock-days, 106 excluded
# PSD: 1441
7463.48 0.228671 0.0313921
525301 10.5768 0.0339046
1.6886e+06 32.0439 0.0354681
315975 10.1272 0.0322048
200302 11.8518 0.0354412
96495 7.23275 0.0324286
65216 7.45338 0.0330973
43289.8 6.55945 0.0348052
36149.5 7.03599 0.0346104
25852.9 6.30151 0.0335357
21801.8 6.25272 0.0351781
17579.3 6.05349 0.0359779
14423.5 6.03796 0.0379924
12203.3 5.84014 0.0371308
10705.7 6.02685 0.0397774
9107.58 5.79298 0.0372329
8291.44 6.00916 0.0384953
7066.63 5.879 0.0400063
6550.97 5.94807 0.0410834
5488.4 5.62515 0.040382
5211.67 5.94294 0.0447795
4629.01 5.8375 0.0463793
4318.41 6.03924 0.0450136
3852.7 5.81122 0.047841
3656.23 5.91194 0.0500672
3269.13 5.77679 0.0499644
3003.76 5.68097 0.0503716
2774.05 5.8026 0.0521742
2691.73 6.01444 0.0553066
2485.05 6.13111 0.0559461
2382.71 6.05979 0.0569484
2159.26 5.98 0.061283
2036.65 6.05521 0.0622918
1933.97 6.1441 0.0639274
1819.23 5.94971 0.0658148
1763.01 6.18399 0.0692447
1641.76 6.3118 0.0719895
1599.2 6.46051 0.0745085
1469.56 6.36138 0.077276
1412.22 6.28819 0.0762166
1352.37 6.30164 0.0806156
1282.87 6.34569 0.0833182
1252.36 6.64126 0.0889886
1236.71 6.71083 0.0912416
1132.99 6.53045 0.0913315
1106.73 6.69308 0.0949488
1074.35 6.72672 0.100002
1015.72 6.74048 0.101862
1018.97 7.16829 0.112581
971.371 7.17545 0.112881
929.902 7.1436 0.115331
914.329 7.29747 0.125237
886.49 7.43132 0.128996
855.931 7.37719 0.131933
859.541 7.80441 0.143583
795.357 7.49599 0.139652
779.847 7.743 0.146618
743.969 7.59553 0.147012
753.938 8.0302 0.16178
736.694 8.31453 0.169112
693.266 8.00944 0.170136
685.122 8.12427 0.175487
677.788 8.39206 0.183915
644.285 8.16576 0.186077
648.147 8.42894 0.197994
623.909 8.61238 0.207416
603.341 8.58174 0.212333
601.026 8.88169 0.220348
553.487 8.47065 0.220293
577.002 9.12017 0.24003
558.214 8.7893 0.237805
557.531 9.33238 0.256314
543.142 9.59315 0.266455
511.417 8.92342 0.257605
518.862 9.39988 0.276346
494.956 9.12252 0.278582
502.319 9.79348 0.305081
482.597 9.72087 0.303164
477.078 9.96978 0.324309
480.389 10.2664 0.337351
457.689 9.98173 0.336876
446.319 9.72724 0.335732
455.766 10.5918 0.370418
424.103 9.9987 0.356023
425.955 10.4925 0.383705
433.754 10.6897 0.399109
416.577 10.8337 0.412069
415.508 10.8804 0.424722
405.655 10.9592 0.430921
397.732 10.9864 0.442716
395.548 11.3311 0.466579
403.938 11.8714 0.493642
375.778 11.1701 0.483414
367.408 11.1189 0.480895
359.545 11.1073 0.500489
385.791 12.5958 0.570508
460.395 16.4369 0.747662
358.977 11.7647 0.560119
339.344 11.6886 0.564429
334.446 11.5913 0.570093
323.258 11.5557 0.579084
347.373 12.8639 0.648386
351.198 13.3564 0.688196
336.261 12.8733 0.676563
330.658 12.9423 0.69934
323.062 12.9126 0.706633
315.704 12.7937 0.706852
312.286 12.7147 0.724724
308.385 13.1597 0.757143
306.79 13.3559 0.78119
301.503 13.3453 0.786956
292.667 13.004 0.794456
284.544 13.265 0.821023
308.682 15.0405 0.943786
316.645 15.5336 0.97915
293.141 14.3444 0.931895
276.055 13.7821 0.90407
273.556 13.6285 0.912433
277.156 14.5126 0.978858
277.431 14.6868 1.01194
281.78 15.3271 1.07823
272.802 15.0076 1.06546
254.837 13.9116 1.00109
262.984 15.0536 1.10972
259.538 14.6362 1.08547
257.73 15.1336 1.15043
257.885 15.272 1.17129
254.003 15.2682 1.1891
254.264 15.7581 1.25925
250.266 15.3498 1.24283
245.21 15.7523 1.28529
245.181 15.9433 1.33481
253.18 16.9052 1.42941
241.584 15.9205 1.35678
237.017 16.1294 1.393
233.27 16.22 1.43072
234.989 16.2435 1.45132
234.252 16.5784 1.49392
229.155 16.792 1.5402
217.896 15.9548 1.47909
228.196 17.22 1.62486
224.951 17.2007 1.64582
213.962 16.4579 1.58548
225.875 17.9618 1.77123
222.273 17.8219 1.76216
206.034 16.7011 1.69486
212.54 17.3443 1.77006
216.091 18.0825 1.88927
203.127 16.9543 1.78854
205.598 17.4823 1.85822
219.137 19.1679 2.06661
210.825 18.438 1.99559
202.068 18.1956 2.00968
198.103 17.8356 2.00263
195.187 18.0263 2.04974
198.164 18.7539 2.14936
196.44 18.4813 2.12264
191.764 18.3125 2.1564
196.592 18.8008 2.24328
190.639 19.0413 2.28776
189.962 18.9719 2.32395
190.385 19.0847 2.34008
185.845 19.0539 2.38094
187.345 19.4684 2.47043
180.635 18.9523 2.43053
179.855 18.7969 2.41471
182.28 19.9044 2.60642
180.199 19.7921 2.63782
178.598 19.8247 2.65412
174.791 19.5189 2.64711
172.686 19.3422 2.64817
175.792 20.1431 2.78841
168.083 19.6894 2.73882
168.081 19.5955 2.78674
164.985 19.489 2.79899
168.419 20.4717 2.99067
160.884 19.7413 2.88122
163.612 20.1303 3.00438
165.295 20.6106 3.08804
160.536 20.1264 3.05426
159.521 20.1882 3.08559
160.463 20.7447 3.24398
163.594 21.0749 3.28878
162.021 21.8336 3.52736
159.38 21.1171 3.35033
156.115 21.2344 3.43637
153.601 20.889 3.39672
151.287 20.79 3.45147
153.268 21.1954 3.51713
142.271 19.7664 3.33674
142.528 20.2778 3.45668
153.778 22.4452 3.91326
191.731 29.2233 5.02445
146.866 21.1482 3.65667
143.999 21.5173 3.82934
144.268 21.7298 3.91043
146.091 22.2308 4.01667
139.945 21.1784 3.82535
141.134 21.9206 4.08017
138.778 21.6119 4.03676
135.51 21.5204 4.07457
135.097 22.0032 4.21767
136.583 21.7201 4.16135
134.968 21.9319 4.27343
136.636 22.5694 4.38501
128.8 21.9004 4.34826
130.992 21.968 4.34461
128.395 22.322 4.52661
132.843 22.8077 4.65734
136.422 23.7191 4.86469
128.733 22.6685 4.64798
123.401 22.1679 4.63581
124.955 22.4724 4.72171
127.911 23.008 4.92679
124.866 22.5096 4.83481
119.824 22.0262 4.77988
127.793 24.0419 5.26881
121.785 22.6566 4.9654
120.314 22.8341 5.078
118.854 22.7826 5.06553
116.446 22.711 5.17014
119.185 22.9631 5.23043
118.489 23.7365 5.49073
119.072 23.3868 5.4465
118.538 23.6354 5.54088
113.865 22.4818 5.30115
114.425 23.2101 5.56348
113.738 23.5268 5.67831
116.726 24.7375 6.06986
116.595 24.0921 5.85355
111.915 23.4788 5.70762
104.284 22.456 5.63314
110.31 23.4959 5.91056
109.644 23.9062 6.11498
110.98 24.1703 6.13563
108.73 23.7508 6.14787
107.708 24.0646 6.21939
102.438 22.9339 6.02236
104.831 23.5637 6.22425
103.35 23.944 6.47684
107.969 25.1398 6.64861
103.491 23.4445 6.32137
101.023 23.6955 6.51371
99.0466 23.0249 6.3185
102.117 24.4501 6.81806
105.811 25.3514 7.08929
100.808 24.2557 6.80692
99.7069 24.3363 6.89884
99.2807 24.137 6.86176
95.3206 23.5123 6.75178
98.1089 24.7531 7.21843
96.0783 24.242 7.14425
96.031 24.6524 7.2585
96.2714 24.4319 7.24847
97.4904 25.1646 7.5161
95.7354 24.6335 7.45545
95.5049 24.9282 7.59987
95.045 25.7331 7.90518
95.0548 25.0368 7.67753
94.0287 25.201 7.85834
90.406 24.2671 7.59268
92.4672 24.964 7.87507
87.6796 24.1265 7.73211
90.4672 25.1546 8.11088
92.8374 25.8268 8.30084
87.4263 24.3563 7.94405
89.2509 24.82 8.06078
86.3672 24.1991 7.99403
86.072 24.7424 8.24022
85.2103 24.5777 8.27956
88.7409 25.8695 8.72408
84.7145 24.6197 8.40046
85.7031 25.1121 8.60782
82.8485 24.3128 8.38536
84.6451 25.28 8.76837
80.7272 24.1592 8.46813
85.3078 25.9117 9.13753
82.6725 24.9398 8.76932
82.0838 24.9981 8.86972
78.1588 24.2641 8.81037
83.2297 26.0271 9.4284
80.3306 25.2658 9.27049
81.4932 25.8041 9.3484
80.7383 25.6562 9.41954
77.0484 24.5728 9.18697
77.8871 24.9784 9.32925
74.8297 24.4218 9.40127
77.1989 25.7829 10.0713
110.479 36.9289 13.573
76.7291 25.4559 9.84361
73.4378 24.7349 9.64416
75.0925 25.1223 9.8697
73.2079 24.5695 9.70687
75.3615 25.718 10.1334
73.9763 25.7355 10.2382
73.8336 25.7419 10.3918
73.1229 25.3874 10.2701
73.3602 25.623 10.3491
73.0976 25.6492 10.3801
68.8122 24.6374 10.2046
72.3819 25.6205 10.5127
69.9268 25.2353 10.5545
71.552 25.8945 10.7764
67.5506 24.8761 10.4767
70.2641 25.9777 11.014
69.6656 25.1818 10.7154
70.6511 26.5578 11.4001
67.6044 25.2902 10.9839
67.9939 25.4363 11.0695
67.6787 25.4596 11.1767
68.3283 25.889 11.4303
65.0158 24.992 11.1867
68.6887 26.414 11.6235
66.7832 25.7512 11.5478
65.9552 25.5191 11.6097
67.3751 26.3448 11.8682
66.129 25.9393 11.8657
63.7707 25.3906 11.7262
66.2517 26.5951 12.342
64.7985 26.4164 12.2897
64.1594 25.7673 11.9998
65.0972 26.4841 12.4175
62.3491 25.3487 11.9634
61.5194 25.6168 12.326
63.328 26.4002 12.6707
63.0023 26.3445 12.7216
61.9515 25.8977 12.4676
59.8635 25.3753 12.4629
62.9851 26.5246 13.0509
62.0805 26.8588 13.2927
60.5747 26.009 12.8941
61.484 26.2421 13.0438
59.107 25.6443 12.844
60.0178 26.2287 13.3442
60.0346 26.2919 13.3356
58.4635 25.3657 13.0614
59.6311 26.8083 13.6702
59.2603 26.4651 13.6876
56.4441 25.2836 13.1647
57.0283 25.6443 13.4229
57.5781 25.8041 13.5668
56.5844 25.9555 13.8855
57.2855 26.415 13.9054
57.0233 26.2066 13.9685
55.4887 26.0457 14.0469
55.8886 26.0573 13.9684
55.3875 26.0252 14.2216
54.7343 26.104 14.2513
55.0848 26.3504 14.5953
55.6373 26.3951 14.5537
56.1891 26.8336 14.7661
53.8736 25.9196 14.4607
53.3245 25.9336 14.7121
55.635 27.156 15.2631
53.8619 26.3812 14.9708
52.5358 26.0192 14.9266
52.7134 26.1422 15.0381
52.2477 25.8747 14.9803
51.4925 25.228 14.5401
51.6015 25.6956 15.0062
53.0114 26.9447 15.7104
51.4159 25.8149 15.3023
50.4142 25.5199 15.0279
50.4556 25.7205 15.4131
50.1603 25.6547 15.2469
49.4243 25.7414 15.66
51.2066 26.2369 15.6633
49.9219 26.4688 16.14
49.991 26.8094 16.4175
49.1776 26.1398 16.0605
47.8432 25.7657 16.035
48.0932 25.6717 15.9543
47.6979 25.6371 15.9666
49.5441 26.3966 16.4876
47.3688 25.9347 16.3353
48.2659 26.8467 17.0312
48.1931 26.5589 16.8871
48.4571 26.6791 16.9165
46.0991 25.6862 16.6481
46.2046 25.8895 16.7238
47.6283 26.8256 17.5807
45.6982 25.4149 16.5927
46.1466 25.9904 17.2469
45.6141 26.5397 18.0555
65.1386 38.3424 24.0094
45.6483 26.6067 17.8863
45.3357 26.6096 17.9727
45.4292 26.5382 17.7487
44.5534 26.0983 17.4908
44.7243 26.3291 18.0092
44.1511 25.5638 17.2768
44.6006 26.43 18.1484
43.4586 25.7721 17.7037
43.1567 25.8953 17.8022
44.088 26.7401 18.7302
43.9635 26.5605 18.4899
42.3123 25.661 18.1436
42.7102 25.8695 18.263
42.622 26.133 18.3755
42.2755 26.1105 18.5061
42.7018 26.4812 18.9822
41.9868 26.5227 19.1631
42.8105 26.6973 19.3343
41.1417 25.8931 18.805
41.5234 26.1482 19.0427
41.597 26.5908 19.5948
41.5083 26.4154 19.264
39.7644 25.3435 18.8553
41.2701 26.8534 20.0337
40.2749 25.7545 19.1921
40.4614 26.2885 19.6697
40.2682 26.4741 19.9098
40.9872 26.433 19.9057
40.2133 26.3945 20.0315
39.7546 26.2298 20.0084
39.9063 26.0037 19.9112
39.3673 26.0485 20.0398
41.6885 28.3439 21.7987
39.9387 26.6132 20.6727
38.9219 26.4794 20.5907
37.1118 24.8454 19.5075
39.614 27.2991 21.6896
40.4357 27.0769 21.3913
38.7847 26.3532 20.6777
38.7139 26.8587 21.2503
38.2941 26.3767 21.212
37.1196 26.0636 21.0328
38.2889 26.7544 21.458
36.6476 25.2733 20.7251
38.0793 26.6627 21.4572
36.4681 25.9173 21.2537
36.9682 26.3087 21.5195
36.5601 26.3273 21.6972
36.5994 26.0157 21.6776
37.1014 26.7839 22.1483
35.8332 25.7692 21.698
37.2042 26.7778 22.4601
36.2079 26.5107 22.4974
36.7295 26.6059 22.3032
35.3633 25.781 21.7824
37.1072 27.143 23.172
34.6182 25.8994 22.5813
35.9481 26.1585 22.326
35.2609 26.2304 22.6364
35.5246 26.6716 23.0285
34.5758 26.4821 23.1901
34.426 25.747 22.5573
35.7036 26.5873 23.3474
33.4542 25.4391 22.4563
34.6147 26.7423 23.7372
34.9197 26.3353 23.1668
34.1347 26.1348 23.228
33.3788 25.9912 23.4141
34.4943 26.5902 23.8698
33.7115 26.4404 23.8398
33.5038 26.7 24.4072
33.399 26.1423 23.752
33.793 26.6401 24.1651
32.8856 26.4926 24.4524
32.9376 25.9623 24.0638
32.8454 26.148 24.1053
31.6956 25.2274 23.7335
32.5955 26.1298 24.2605
32.5297 26.369 24.6579
32.1093 26.0579 24.5835
32.2821 26.27 24.9384
32.4863 26.3629 24.9435
32.2012 26.4138 25.1639
32.1121 26.6559 25.1829
31.0997 25.8397 24.9791
31.2254 25.9139 24.9817
30.7151 25.7292 25.0468
31.0062 26.1259 25.3024
31.2816 26.055 25.4348
31.1247 25.7717 24.9816
30.9335 26.2075 25.6811
31.0265 26.1956 25.9355
30.5646 25.706 25.2305
30.1015 26.0893 26.3526
30.0942 26.1398 27.6619
42.8217 38.0018 35.1474
29.9894 25.9733 26.1875
29.6631 26.2844 26.823
29.3368 25.3551 25.8295
29.4671 26.1436 26.3872
29.0127 25.5002 26.1003
29.2696 26.0221 26.5207
29.328 26.0236 26.9122
29.5342 25.9077 26.5947
28.4426 25.5026 26.451
29.488 26.1279 27.0804
29.196 26.2123 27.4095
28.205 25.537 27.0565
28.8445 25.9129 26.8535
28.2856 25.5848 26.8288
27.5133 25.113 26.8012
28.8944 26.2508 27.6425
28.0737 25.992 27.7409
28.1007 25.7831 27.4524
27.7131 25.3628 27.32
27.9237 25.6814 27.4869
26.9404 25.1707 27.3193
27.8581 26.0256 28.253
27.4239 25.6937 28.0086
27.7103 25.9144 28.4094
27.7328 26.2858 28.6617
27.1529 25.9221 28.5139
26.9942 25.6207 27.9696
26.4831 25.5658 28.7815
27.7276 26.4422 28.9917
26.2368 25.1297 28.0005
26.7783 25.5476 28.5408
26.4233 25.6652 29.1154
27.1898 26.1237 29.0309
26.3724 25.4796 28.8243
26.0855 25.2515 28.7276
25.9882 25.738 29.5234
26.0773 25.9738 29.957
25.7173 25.3519 29.2081
26.0582 26.119 30.1186
26.2816 25.9305 29.7835
25.6995 25.9025 30.3577
25.9445 25.8871 29.8605
25.6072 25.8255 30.2686
25.4458 25.4373 29.5658
25.6352 26.2865 30.8726
25.4315 25.5025 30.1445
25.5282 26.0146 30.7009
25.3883 26.2717 31.2576
25.1322 25.4021 29.8968
24.6319 25.8898 31.4708
25.6226 25.8225 30.4969
24.4818 25.333 30.3314
24.187 25.0638 30.5826
24.354 25.9528 31.9002
24.9788 25.4974 30.6712
24.4906 25.5849 31.2081
24.5031 25.5541 30.9011
24.4574 26.2503 32.148
24.4445 25.5509 31.459
24.2764 26.1117 32.515
24.5604 25.7461 31.9811
23.7598 25.2943 31.4418
23.5361 25.1943 31.5986
24.2614 26.2707 32.905
23.7109 25.4541 31.8042
24.0058 26.0771 32.4976
23.4675 25.4036 31.9935
23.4838 25.6676 32.1962
23.4091 25.6004 32.5284
23.3237 25.9708 33.7099
23.447 25.7054 33.0256
22.8506 25.0175 32.1059
23.6003 26.2316 33.6825
23.2409 25.6202 32.6461
22.1958 24.7341 32.5002
22.7928 24.8973 32.392
23.1601 26.2157 33.782
22.5116 25.1491 33.0412
22.4337 25.4857 33.4506
22.4756 24.9785 32.6848
22.232 25.6652 33.909
22.3596 25.284 33.468
22.3051 25.2973 33.6284
22.4866 25.9689 34.5642
22.4034 25.4877 34.2355
22.466 25.8069 34.7046
22.4497 25.751 34.4536
21.8659 25.4099 34.1747
22.033 25.9856 35.2842
21.4969 25.3647 34.8296
22.4138 26.2172 35.4277
22.3421 26.1049 35.4258
21.5987 24.8536 34.278
21.701 25.9758 35.8948
20.8068 25.6776 39.3136
30.0107 35.5084 44.1019
21.0969 25.3284 35.4855
20.7985 24.6237 34.0183
20.4624 24.8994 35.3242
20.7859 25.0888 35.3425
21.2185 25.7095 36.268
21.3517 25.6335 35.6493
20.4213 25.1376 35.6045
20.5627 24.4456 34.5768
20.6875 25.5867 36.788
20.9794 24.9461 35.2589
20.5747 24.8676 35.6221
20.2977 24.749 35.6283
20.3202 25.3117 36.5572
20.4923 25.0432 35.6583
19.6671 24.1085 35.0611
20.1457 24.9284 36.1229
19.996 24.821 36.2777
19.8836 24.8071 36.1421
19.4117 24.2861 35.6249
20.3732 25.9095 37.5315
19.5033 24.5769 36.3106
19.9284 25.0694 36.8468
19.49 24.9643 37.2155
19.7782 24.2038 35.7105
19.5347 24.6575 36.5657
19.0134 24.5594 36.8975
19.9781 25.1565 37.2849
19.8821 25.3473 37.8989
18.971 24.6627 38.001
19.1322 24.1861 36.3392
19.0026 24.0364 36.1933
18.9817 24.5941 37.38
19.1618 25.231 38.3886
18.8392 24.5062 37.3224
19.1498 24.6925 37.2884
18.8505 24.5634 37.4107
18.8233 24.7348 38.6063
18.7696 24.2432 37.464
19.1586 25.1633 38.2212
18.4067 24.3336 38.1312
18.613 24.9977 38.5984
17.9554 23.8617 38.09
18.8121 24.7884 38.3077
18.5069 24.5268 37.8358
17.8113 23.686 37.4118
17.8795 23.834 37.8968
18.2918 24.9475 39.8298
18.7549 25.0208 39.4447
18.4901 24.3808 37.9918
17.3338 24.2986 39.0299
18.3107 24.5061 38.5863
17.6 24.5366 39.4966
18.2573 25.125 40.7412
18.1538 24.361 38.7427
17.6044 24.0355 38.9949
17.3913 23.8803 38.2262
17.3088 23.9296 39.0137
17.2598 24.1261 39.5779
17.3514 23.888 39.2301
16.9983 23.2654 37.9797
16.8194 23.577 38.9498
17.4693 24.3521 39.4837
16.6527 23.4314 38.9564
17.2413 24.0906 40.0846
17.8695 25.3097 41.2739
16.8081 23.4773 38.832
16.71 23.8042 39.914
16.7003 23.7028 39.8541
16.4645 23.1266 38.5196
16.5937 23.9016 40.8923
17.1118 24.5597 41.0113
16.7552 23.397 38.9801
16.2666 23.3885 39.829
16.4802 23.8658 40.8545
16.8206 23.8621 39.9683
16.4809 23.8392 41.2347
16.2622 23.1858 39.2253
16.2561 23.6541 41.0675
15.9065 23.2751 40.3021
16.2134 23.8601 40.9171
16.4055 23.5302 40.6115
16.7352 24.2972 41.3001
15.8752 23.002 40.0093
15.8679 23.3905 40.5284
15.6492 23.7358 42.2596
16.3808 23.4786 40.5172
15.4121 22.8512 40.1856
15.837 23.366 40.6029
15.4782 23.1791 41.0832
15.8328 23.5057 41.3007
15.6141 23.3938 41.2725
15.1333 23.1299 41.4118
15.5893 23.3419 42.1108
15.5015 23.0056 41.1471
15.5041 24.059 48.7214
21.9588 32.8219 50.8829
15.5102 23.6255 42.4313
14.8015 22.3208 40.5317
15.1691 22.6975 40.9956
15.2989 23.1855 41.3608
14.8056 22.7463 41.3462
15.1779 23.5095 42.3552
14.7648 22.8143 41.8312
14.9524 23.3907 42.9113
15.2771 23.5657 43.6037
15.1524 23.4819 43.4505
14.8513 22.5116 41.3251
14.8395 22.8517 41.5826
15.0796 23.4074 42.8383
14.7527 23.4173 43.3026
14.7473 22.7483 41.979
14.7158 22.9488 42.3733
14.3275 22.5876 42.1483
14.391 22.8004 42.5285
13.9293 22.127 42.2676
14.284 22.4974 42.5127
14.7613 23.3242 43.2674
14.1329 22.6721 42.8039
14.2389 22.7701 43.9653
14.7778 22.858 41.7258
13.8232 22.029 42.2031
13.7296 21.8963 41.4038
14.076 23.2929 45.0622
13.7427 21.8273 41.9546
14.0605 22.7323 43.4916
13.7412 22.4554 44.0989
14.1273 22.6706 43.4238
14.0838 22.805 43.4827
14.1992 23.2338 44.1965
13.9428 22.8504 44.7894
13.9538 22.4766 43.3774
13.7614 23.1752 44.6515
13.5329 21.6607 42.7599
13.3299 22.0108 42.8758
13.5094 22.5084 43.819
13.3559 21.7407 42.9019
13.313 22.0363 43.7419
13.5047 22.4953 44.7505
13.1732 22.0886 43.8652
13.7061 22.3336 43.6488
13.2166 22.4576 45.2373
13.339 21.6861 42.8343
13.2716 22.5353 46.3067
14.1055 23.3853 44.4577
12.9239 22.0668 44.7315
12.9668 21.611 43.7843
13.0423 22.0525 44.8469
13.2599 22.4174 44.5092
12.9478 21.9859 44.8227
13.0907 22.4485 45.4199
13.2803 22.2583 44.7716
13.1583 22.407 45.168
12.7114 21.7704 43.9987
12.7353 22.2068 45.996
12.9815 22.3159 45.5944
12.8401 21.5788 44.8839
12.8364 22.0589 45.719
12.915 22.2592 44.8967
12.4111 21.0767 43.7828
12.3776 21.6937 45.7046
12.8312 21.8596 45.4596
12.779 21.9845 44.7354
12.2971 21.5173 44.9314
12.2799 21.8023 45.685
12.3848 21.8329 46.1743
12.3892 21.0495 44.2202
12.2939 21.8187 45.8401
12.4983 21.5688 44.1535
12.1072 21.3292 44.7215
11.8117 21.0378 45.2064
12.0775 21.2703 44.7745
12.0551 21.5944 45.5746
12.0086 21.324 45.6906
12.315 21.9533 46.6105
12.1856 21.2933 45.293
11.7918 21.1113 45.3833
11.8337 21.1468 44.5524
11.8174 21.1884 46.0332
11.7076 20.7384 44.6232
11.5977 21.0184 45.2881
11.5427 21.2724 46.8059
11.9064 21.5548 47.0331
11.8144 21.4809 46.3184
11.732 21.1971 45.9239
11.626 21.2542 46.2844
11.6947 21.0794 46.3155
11.745 21.4339 46.6275
11.6389 21.3428 47.1031
11.6268 20.7675 46.1129
11.737 21.2321 46.1019
10.9148 21.5061 56.445
16.1033 29.5466 55.8367
11.6522 21.0398 46.4463
11.1031 20.4543 45.5606
11.6492 21.413 47.1643
11.4034 20.7659 46.4908
11.1355 21.1745 47.4335
11.1232 20.4888 45.6555
10.9032 20.6528 47.1713
11.3046 20.753 46.8512
11.2079 21.0074 47.2151
11.268 21.0108 46.7317
11.0347 20.8325 46.6568
11.0778 20.7989 47.0503
10.8193 20.5252 46.8524
10.9067 20.649 46.9901
11.1053 20.7045 46.6238
10.8611 20.7323 47.6124
11.0665 20.9485 47.5036
10.997 20.6218 46.7896
10.7442 20.1642 46.4597
10.7627 20.3712 46.5017
10.9045 20.7221 46.819
10.721 20.709 47.2097
10.5575 19.6705 45.966
10.6899 20.7071 47.7556
10.636 19.7786 45.5277
10.5577 20.4381 47.2293
10.5002 19.926 46.8606
10.921 21.1202 48.6208
10.7154 20.4984 47.3925
10.7074 21.0372 47.6696
10.2587 19.9894 47.8682
10.5107 20.1394 47.964
10.7166 20.6413 48.5282
10.3579 19.6256 46.9636
10.4908 20.0572 46.9389
10.1797 20.0814 47.6308
10.3635 20.0065 48.3516
10.4025 20.2754 48.1681
10.4116 20.483 47.3122
10.0422 20.3867 49.3906
10.5399 20.6454 49.4259
10.1308 19.6048 46.3025
9.95736 19.8114 47.4092
10.0415 20.005 47.9434
10.0501 20.3757 49.3423
10.1985 20.1405 49.1905
10.1757 20.0519 48.5573
10.3407 20.159 47.9842
9.97444 19.963 47.5222
9.74795 19.5998 47.8079
10.2406 20.2126 48.5593
9.5521 19.2805 47.1372
9.84199 19.8678 48.7851
9.99609 20.1317 48.7981
9.74707 19.7761 48.8743
9.76482 19.6139 48.8033
9.76279 19.6013 48.4589
10.0255 19.4605 47.2111
9.89679 19.7559 48.2015
9.65882 19.5918 47.7476
