# pn-170911/RbIIA-29-RbII-1280-1959.psd
# Power spectrum* (dif=0,1,2) (really just |FT|^2)
# NOTE: only the first half! (symmetric)
# weeks: 1280-1959
# 232 clock-days, 79 excluded
# PSD: 1441
63545.5 1.05258 0.014049
1.7681e+06 54.2857 0.0174997
3.25534e+06 56.634 0.0190259
781639 15.8449 0.0157715
722541 23.7571 0.0189591
376997 13.3767 0.0178986
273815 10.8496 0.0189692
186525 9.70126 0.0171834
129599 10.0519 0.0175991
130703 10.958 0.0206943
89877.9 9.41855 0.020153
96012.3 10.0464 0.0196063
64150.9 10.5411 0.0216761
63395.9 8.54532 0.0247354
46238.4 9.33151 0.0268678
47523.1 8.17647 0.0238735
34288.2 8.428 0.0274524
37851.3 9.31589 0.0329987
30701.4 8.94086 0.0334464
28346.8 8.02182 0.0317932
18213.3 9.18562 0.0360166
30462.4 9.93687 0.0372611
24101.2 8.83281 0.0362629
17393.3 8.83809 0.0377763
14849.8 7.59027 0.036322
14684 7.65546 0.0416461
11299.1 8.22291 0.0445916
13261.2 7.63878 0.0426898
11670.6 7.48596 0.0490453
10139 8.52827 0.0590699
8575.56 7.96507 0.0484861
9398.47 8.50822 0.0588203
9341.1 8.82912 0.0619617
7933.15 8.32518 0.063387
8465.48 8.21478 0.0638097
8394.9 7.82707 0.0579217
7181.63 8.29115 0.0688042
7363.68 8.2698 0.0750431
6134.16 8.21597 0.073389
6488.64 8.91238 0.0828819
5180.09 8.31643 0.0798428
4687.39 7.85126 0.0774209
5582.92 9.26438 0.0993754
4400.51 8.34096 0.10251
4121.32 8.79966 0.0996512
4182.86 7.84593 0.097411
4337.12 8.32147 0.100631
4785.64 9.30173 0.115792
2995.46 7.59789 0.106751
3969.34 7.62744 0.104403
3757.63 7.32226 0.108852
3777.19 7.522 0.116861
2881.82 8.40407 0.135139
3078.69 8.20605 0.134337
3018.47 7.51267 0.121174
3067.4 7.8659 0.129048
2873.39 7.38251 0.126891
3215.9 7.89685 0.146732
2830.92 7.81718 0.14603
2863.13 8.98219 0.167766
2898.22 7.75614 0.154278
2850.34 8.39063 0.173773
2691.63 7.76454 0.158324
2540.4 9.1804 0.192713
2672.85 8.59208 0.192718
2327.55 6.95917 0.149729
2153.73 8.22874 0.200061
2610.57 8.22636 0.202638
2184.02 7.49629 0.184887
2116.69 8.30715 0.206852
1961.27 8.35547 0.213354
1830.73 8.3509 0.221914
1830.23 6.82767 0.192276
1609.98 7.77178 0.222212
1784.24 8.39973 0.233178
1924.32 7.93691 0.228242
1907.12 8.78918 0.260429
1867.96 8.32279 0.256176
1551.19 7.65412 0.243527
1561.51 7.61635 0.245463
1387.47 8.63247 0.283124
1389.56 7.35945 0.251646
1343.82 8.00959 0.257361
1233.97 7.98788 0.286149
1272.06 9.10426 0.319263
1496.56 8.28365 0.303833
1001.3 8.11795 0.28889
1166.77 7.79146 0.299438
1131.26 8.04801 0.31193
1077.16 8.06711 0.312067
814.8 7.62681 0.315578
1194.61 7.60335 0.312379
1010.81 9.09428 0.377659
957.867 6.68704 0.287661
1148.66 8.92576 0.403918
1190.11 8.80518 0.395887
847.207 7.85023 0.354116
1184.76 8.859 0.395195
1051.23 8.74266 0.430392
754.321 8.26622 0.403163
918.064 8.13519 0.410069
1194.78 8.14365 0.423799
998.326 8.15922 0.415777
1060.87 8.21347 0.403167
932.754 8.05256 0.444049
1033.46 8.59412 0.454
755.828 7.2376 0.400971
941.64 7.38879 0.420107
794.495 8.51697 0.489188
808.476 8.17636 0.494945
668.775 8.13748 0.480744
897.891 7.09323 0.436074
870.816 7.91651 0.468755
640.044 8.90469 0.569455
791.59 9.50649 0.600875
879.507 8.03694 0.55305
562.058 9.56964 0.645754
574.596 8.34962 0.542384
703.973 8.43696 0.584702
725.56 7.5127 0.516352
744.324 7.75529 0.535537
620.029 8.77238 0.623455
656.587 7.95789 0.58457
763.024 9.13331 0.670198
721.646 8.2072 0.612263
601.35 7.94549 0.602717
595.307 7.61365 0.57153
512.074 7.20517 0.580445
565.4 8.80689 0.678346
554.014 8.76454 0.688612
601.09 7.3648 0.611122
585.273 8.47905 0.690964
511.437 8.26727 0.71308
535.527 6.98386 0.585691
526.364 8.13501 0.708925
545.389 9.02802 0.791482
527.698 8.02493 0.72126
481.334 9.71503 0.888643
406.119 8.50194 0.779157
515.961 8.45773 0.793066
536.527 8.26711 0.77818
501.415 7.99971 0.786379
414.088 8.32825 0.813166
485.676 6.39034 0.619879
485.267 9.28454 0.948174
497.422 8.22126 0.810832
373.509 8.81712 0.895841
456.061 7.78669 0.825575
448.192 7.94657 0.80818
454.67 8.49857 0.910709
410.018 8.89542 0.970406
438.263 7.73885 0.825428
425.954 8.45912 0.917499
492.227 9.64515 1.07993
399.939 8.30259 0.993193
399.575 7.22305 0.817862
376.818 7.65149 0.873371
463.435 9.07724 1.09205
446.185 9.21149 1.1141
344.528 7.46014 0.890116
330.63 7.86297 0.97934
346.212 8.88557 1.08212
376.567 7.85885 1.01739
335.428 8.27168 1.09486
464.742 9.59158 1.21173
403.539 7.33948 0.968704
357.975 9.49607 1.23983
297.056 7.37742 1.00167
465.437 8.02623 1.05974
374.14 8.64125 1.16464
347.118 8.60728 1.18779
252.683 7.915 1.1027
254.266 8.53157 1.18832
363.254 7.92635 1.15162
306.088 7.42824 1.07895
243.777 7.22038 1.03767
309.41 8.3316 1.19695
332.175 7.26722 1.09828
274.273 9.32668 1.3982
307.388 7.9066 1.22979
313.612 9.74389 1.48582
332.168 7.98765 1.2786
262.628 7.7071 1.25099
328.554 9.48541 1.50877
303.335 7.77006 1.24596
351.386 7.52525 1.26467
298.471 7.08311 1.15534
354.687 8.4727 1.43923
258.952 8.49687 1.43746
204.451 8.6798 1.42563
284.802 8.83876 1.53111
331.287 9.33728 1.60946
225.87 8.6878 1.50774
303.127 8.70163 1.54248
269.301 8.29267 1.50501
248.247 8.96469 1.59537
230.687 7.74051 1.43346
296.321 8.39165 1.60548
187.975 8.49265 1.59093
214.566 8.42784 1.59432
229.599 8.81941 1.59412
225.098 8.91929 1.69936
193.864 7.41093 1.4647
280.357 9.14113 1.82672
227.217 8.54626 1.68844
216.312 9.10026 1.76705
243.427 8.44917 1.66053
245.423 8.82366 1.82378
221.402 8.66519 1.72585
244.427 7.85606 1.65395
225.35 7.59567 1.60083
271.902 7.99285 1.64246
241.925 8.06864 1.67648
241.618 8.76157 1.88477
219.322 7.61231 1.62557
213.632 8.54042 1.84462
215.031 7.44042 1.68192
202.651 7.99618 1.79709
189.334 8.09012 1.80111
203.39 8.10041 1.77895
204.956 6.79467 1.60136
227.488 7.812 1.79677
188.589 7.72378 1.76588
212.45 8.14712 1.92917
213.72 7.45724 1.88013
192.057 7.73467 1.78649
202.432 7.52824 1.80721
185.075 8.09726 1.94423
206.712 8.232 1.99082
206.615 9.31741 2.20784
180.19 7.65106 1.93573
186.554 7.77192 1.90647
175.702 7.52109 1.97152
189.695 8.51943 2.14893
173.519 7.15 1.84903
180.395 8.05673 2.06053
160.286 8.83184 2.29298
188.984 7.88735 2.12987
187.217 7.85456 2.06191
195.003 9.14969 2.52598
142.817 8.09479 2.15147
180.715 7.72541 2.11777
170.802 8.79074 2.3284
158.048 8.43077 2.30607
130.985 8.38955 2.30484
150.211 7.01827 2.00751
177.914 9.0262 2.65558
146.958 8.3401 2.29887
149.063 7.74736 2.25016
183.972 8.33279 2.38999
150.899 8.03901 2.40286
186.71 9.26786 2.69309
172.515 9.52928 2.78828
152.966 8.83109 2.69921
165.284 7.92336 2.30337
136.609 8.53755 2.67843
165.448 8.1772 2.51133
141.994 8.66695 2.61686
139.083 8.25459 2.55495
125.103 7.81982 2.41283
152.225 8.82191 2.73078
144.941 7.68016 2.51071
113.31 7.69472 2.45231
141.984 8.72109 2.75617
137.202 8.74966 2.81229
132.488 9.28977 3.11349
166.65 7.07203 2.30929
184.546 7.20435 2.35457
107.256 7.69203 2.56904
157.173 7.62078 2.49423
154.219 9.01175 3.08034
143.326 9.17095 3.21256
128.107 8.74213 2.93008
139.998 7.31432 2.53906
126.317 7.9508 2.83624
146.346 7.77515 2.66693
118.159 7.73696 2.70614
157.048 7.1814 2.574
110.023 9.25449 3.35049
136.92 8.88242 3.26932
107.459 8.38144 2.9345
129.957 9.6689 3.56414
128.729 9.5132 3.40295
117.418 8.40334 3.17879
92.2208 7.61026 2.81715
63.5735 8.13792 3.16004
78.9238 8.08993 3.05424
142.083 7.90374 2.975
81.171 7.51452 2.94574
75.6569 8.6074 3.27664
86.2519 8.44851 3.31032
83.6873 6.75673 2.66978
112.361 9.0767 3.5608
109.869 6.84174 2.70052
117.268 8.22572 3.20178
106.823 8.23417 3.26918
119.386 10.0568 4.19889
107.051 8.62995 3.61014
99.4158 7.53702 3.10922
136.681 8.13888 3.30989
105.128 8.75425 3.53237
126.738 7.79224 3.35587
108.339 9.18506 3.88459
115.674 7.93126 3.34173
111.05 9.07544 3.85891
119.832 9.02922 3.81223
104.551 8.73004 3.81266
94.3253 9.07588 3.93027
89.2296 9.40839 4.00791
143.278 8.68091 3.75754
121.567 8.22158 3.79277
94.5515 7.06893 3.13531
97.4917 8.42072 3.70924
98.6531 8.78863 4.02128
79.5137 8.41224 3.687
106.194 7.89018 3.70177
92.7088 8.0076 3.73503
87.0066 7.90911 3.68921
74.6357 7.71855 3.65513
102.91 8.97879 4.20777
90.8217 8.06358 3.64195
87.3352 7.31247 3.50529
104.398 8.92412 4.26126
110.538 8.1271 3.94455
89.7838 8.76215 4.12434
95.3052 8.75006 4.28206
91.3473 8.6072 4.08902
99.0472 8.64458 4.21965
85.1904 8.08125 4.05292
79.3578 8.83232 4.3989
92.1515 8.34152 4.1603
76.0845 9.02934 4.56025
79.4128 8.12922 4.09044
80.0356 9.22289 4.54317
80.4446 8.80698 4.53792
98.3947 9.10279 4.62175
65.9296 7.91136 4.28287
80.5477 7.78354 3.86261
86.692 8.12078 4.20919
101.049 9.41929 4.98167
65.3843 8.51052 4.49018
73.6174 8.40953 4.47834
82.6539 9.23212 5.06123
87.7241 9.95232 5.19237
80.0494 7.53404 4.05776
94.5868 7.6509 4.12224
86.3291 7.56299 4.13776
82.3067 7.79161 4.2126
92.9576 8.64983 4.91926
95.517 8.49207 4.54558
87.7142 8.60542 4.85588
84.0565 8.02871 4.60036
81.2574 8.23103 4.51754
91.9446 8.6766 4.99201
76.8875 7.07245 4.21733
100.363 8.69336 4.80346
86.3158 9.47204 5.55271
86.3679 7.98276 4.4771
91.0469 7.7309 4.45176
76.4654 7.7827 4.64267
81.5652 8.84425 5.07805
65.0335 8.51452 5.00314
82.1505 8.30354 4.95599
90.9891 8.68051 5.38536
83.9574 9.29648 5.4355
72.0061 8.25504 4.86545
73.704 8.19281 5.2144
77.8836 7.46164 4.45853
71.1632 8.11092 4.86055
72.8183 9.40785 5.73982
64.2963 7.55717 4.67474
65.79 8.11979 5.18486
76.0452 8.49773 5.22753
81.5382 9.59882 5.8936
59.1845 8.21149 5.42257
76.379 8.72881 5.62745
74.0859 9.00322 5.56869
74.173 8.20473 5.44933
50.6554 7.8874 5.02132
74.088 8.56359 5.44884
68.4969 9.22525 5.91779
64.0176 8.22268 5.62789
69.398 7.46717 4.74727
68.6082 7.58365 4.91306
57.217 7.53033 5.08287
87.9296 8.72478 5.72195
68.9668 6.33806 4.27363
57.8464 7.89391 5.58492
70.7409 8.30695 5.34094
83.0517 7.75957 5.32892
78.022 7.98778 5.74744
68.4925 7.83902 5.38196
63.1961 7.11177 4.88493
78.2024 8.72962 5.86528
63.362 9.70497 6.97008
74.507 9.13771 6.63386
62.3251 8.05273 5.88468
66.2484 8.20665 5.81624
63.0948 8.86455 6.11435
78.6133 9.00741 6.50577
70.1292 7.89432 5.56353
54.3949 8.46843 6.41014
65.6358 9.12441 6.55766
77.1206 9.68885 6.92212
53.9983 8.14537 5.99719
58.5628 7.46637 5.86798
67.3548 8.47719 5.93096
66.7464 8.30887 5.95578
62.283 7.80009 5.81392
59.731 7.82278 6.12614
62.5589 8.13144 5.90482
65.8404 7.23694 5.25349
62.6528 7.98049 6.0425
63.6078 8.77008 6.78022
63.9738 8.85806 6.67608
52.5037 7.30503 5.68286
61.4871 8.26046 6.4386
64.1628 8.91454 6.99388
63.017 8.24175 6.28358
53.7332 7.59803 5.98405
57.4867 8.45203 6.66758
57.5369 7.88618 6.19148
52.6107 7.95639 6.39343
54.1116 8.69044 6.86251
56.1773 7.57336 6.03119
50.2153 8.72066 6.69437
43.8688 7.67127 6.21464
54.7151 7.91624 6.52574
63.5168 6.71911 5.75161
58.3415 7.34905 5.93435
48.2709 8.51381 7.0699
56.8288 6.84142 5.8995
57.1627 8.83209 6.70249
60.3411 9.95534 8.09207
50.1562 8.05496 6.50525
58.348 9.28875 8.11236
54.7158 8.14503 7.05487
53.6549 8.8504 7.46956
57.7911 8.05814 6.77795
66.1359 10.0446 8.84445
57.6123 9.3131 7.61084
68.7102 8.31585 7.27118
58.6557 9.51588 8.15485
62.7028 9.04596 7.4913
53.1613 8.50817 7.7321
67.3066 8.85091 7.82634
53.659 8.0046 6.78867
49.4386 7.36468 6.74015
49.6339 8.44836 7.16406
45.3974 8.40163 7.34795
51.0189 8.78466 7.63065
49.0639 8.18165 7.58432
72.4641 8.99662 7.9999
59.4814 8.6169 7.68929
43.1948 9.23889 8.24766
46.3325 8.5303 7.90845
73.6151 9.65283 8.64324
53.7748 8.50856 7.77048
53.3273 9.07988 8.11536
40.8731 8.81146 8.00086
41.7321 9.86761 9.29994
58.8235 7.55721 6.81363
50.529 7.9823 7.40648
38.9641 8.13529 7.86506
43.3191 7.97163 7.24917
50.4995 7.48609 7.29762
47.3707 8.08762 8.11445
49.2424 7.94882 7.26912
47.4647 8.3726 7.65647
58.2563 8.69733 8.65378
46.4763 9.1265 8.92216
50.821 8.32553 8.17136
44.3064 8.55403 8.30013
60.3219 9.20291 8.53548
51.6823 8.17225 8.01707
58.5262 9.26101 9.00208
43.4701 8.64249 8.6664
40.5556 10.1857 10.154
49.8156 8.55995 8.98414
55.4398 9.17969 9.06482
39.9347 8.87389 8.93151
50.3356 9.71887 10.073
52.7614 9.10847 8.79236
42.8953 8.43666 8.79109
48.2365 7.87989 8.0121
58.5376 9.133 9.51933
41.5857 9.01785 8.83564
46.3874 8.72247 8.74212
42.3942 8.59852 8.75751
45.6915 8.32711 9.08766
42.4364 8.9935 9.62667
53.4164 8.87457 9.52466
47.8684 7.58398 7.84713
45.0931 7.87227 8.41405
49.3861 8.41586 8.40224
50.5751 9.23083 9.38493
43.2211 7.81969 8.15694
51.3348 10.0973 10.5979
46.1241 8.88871 10.1603
56.7563 8.41138 8.52283
46.6536 8.94951 10.5547
47.0233 9.77346 10.2397
42.873 8.56852 9.01117
42.95 9.46719 10.2971
41.1031 8.71545 9.97063
40.9152 8.58514 9.33725
41.4002 9.20794 9.92035
40.3645 9.12073 9.78302
41.1977 9.02437 10.2115
48.2717 10.3574 10.8657
37.959 7.79461 9.11326
45.8129 8.82948 9.93673
42.985 9.18729 9.9062
39.7462 9.42935 11.2051
47.2409 9.91975 11.2648
39.2304 9.83358 11.0296
41.3383 8.74517 10.6416
40.582 8.67224 10.1983
35.8443 8.97597 9.93229
41.6184 8.3663 9.90827
38.9012 9.3145 10.3906
47.7163 8.44407 9.53532
37.7894 9.26993 11.366
41.5369 9.08275 10.1076
34.923 8.43132 10.0182
43.5201 7.89776 9.32438
38.6266 8.34509 10.0161
46.5751 8.16794 9.2552
41.5205 8.44916 10.5403
47.4391 9.40303 10.5678
37.3853 8.81824 10.6894
38.4658 8.97951 10.9247
37.7587 9.49899 11.6529
38.154 7.7916 9.60858
40.5807 8.15725 9.78636
40.4284 9.74517 11.4734
38.5427 9.17461 11.3775
48.4004 8.5582 10.7559
40.4617 8.46631 10.4952
48.3546 8.38394 10.3092
43.495 8.65986 10.8939
37.4372 7.66843 10.0128
39.9233 9.92469 11.5286
34.116 9.50049 12.1521
39.7826 8.87684 11.6098
39.9429 8.5347 9.89213
46.5358 9.62084 11.7619
37.7748 9.54727 11.3042
46.129 9.91394 13.0346
34.5806 8.06961 10.766
35.2583 8.67312 10.6137
39.5625 7.80382 9.89058
32.9821 8.51122 11.0673
31.6722 9.1386 12.6536
45.079 9.02622 10.7409
44.5961 8.16783 10.7331
30.5334 8.38022 11.0862
43.9509 9.48832 12.4621
41.2322 10.7354 13.7649
34.5546 7.83833 11.1336
33.4241 8.8701 11.702
34.4914 7.81107 9.68963
34.4843 9.25641 12.0067
41.9609 9.86248 13.2312
39.4449 8.68915 11.7523
40.1319 9.75387 12.4361
33.4294 8.33954 11.7135
39.4884 9.1132 12.2714
31.8941 10.8509 13.8294
33.9451 10.582 14.7396
34.2289 9.45419 13.351
33.7502 9.03563 11.5997
27.8274 10.3302 14.4337
23.4215 9.53051 14.1988
27.6111 8.55379 11.6026
52.3358 8.20687 10.8422
27.3332 10.3519 14.2998
27.5609 9.07317 12.4212
33.848 9.50167 12.5533
32.3207 9.18513 13.1378
36.6109 9.18616 13.6042
34.7978 9.13191 12.1631
39.0917 9.74647 13.6073
31.8637 9.00366 12.3947
35.7933 9.86631 13.5307
29.5602 9.48025 13.4607
32.9583 8.26877 11.9032
33.9335 8.79915 12.8625
25.5639 8.20369 12.7918
32.2704 8.34351 11.7418
32.6066 9.17951 13.2456
32.5693 9.31055 13.0889
32.3826 8.42489 13.112
35.6238 8.70862 12.576
29.7623 9.32147 12.6392
26.8946 8.70469 13.5946
27.7256 8.65239 12.8931
36.3149 8.5419 11.8713
33.4949 8.06323 12.9007
29.8372 9.40127 14.021
31.4982 9.22687 13.2168
31.7449 9.42791 13.5175
27.0045 9.4287 15.1735
34.7159 8.78961 12.5159
32.2817 8.95256 13.2844
29.8081 9.01905 13.6026
19.719 9.21383 13.9126
32.1323 10.1218 14.9866
30.4146 8.514 13.3047
33.982 8.73589 13.4344
30.8594 10.5021 15.6888
36.5001 9.40607 14.5806
29.7201 9.42468 14.3175
30.5209 7.78052 13.3409
28.0512 10.1073 14.6251
26.9799 7.75818 11.8953
28.508 9.87465 14.3116
29.3841 9.08117 15.3389
33.4996 10.0027 14.3332
24.7609 9.57435 15.8304
28.2378 9.27208 14.3035
32.316 8.32997 13.5962
28.6969 8.71282 14.0666
29.2846 9.46921 14.046
23.9936 7.89416 11.9811
28.0851 8.85401 14.7275
29.9458 8.79 14.5776
34.5611 9.46058 14.4438
24.0762 9.42513 14.749
27.8973 9.45943 14.5762
31.3969 10.0325 16.35
30.9983 10.5024 16.6757
26.5017 7.84068 13.0077
29.8778 9.51479 16.4521
29.3005 10.0942 16.5258
29.7536 9.79255 17.0598
30.4017 10.1386 15.6007
34.2172 8.34279 14.1376
30.9221 9.82407 15.2379
26.8112 8.61454 13.7916
26.0948 7.77783 13.6408
30.2189 9.92963 16.4568
27.3245 9.17179 15.995
30.1442 9.36891 14.8123
28.9612 8.83832 14.9292
31.6072 9.36831 14.6235
29.4291 8.72766 13.9908
28.6395 10.289 17.6115
31.0347 9.34168 17.3024
24.467 10.5657 17.3362
28.4936 8.86767 15.8095
31.9006 9.33327 13.8108
27.0543 8.33949 14.5963
24.9976 8.90017 15.9488
26.2886 8.82555 16.049
27.1443 9.65627 15.676
28.1688 9.4926 16.1152
25.5613 9.04731 15.2744
24.7865 9.43813 16.2401
26.5897 9.34568 15.8127
26.7692 9.18223 15.9773
28.1909 9.00113 15.8482
21.6222 9.21441 16.7258
31.9464 9.14359 16.4697
25.3116 10.7703 17.4219
24.108 9.23888 15.6114
23.4964 8.97162 17.2939
30.3381 8.93193 15.7318
23.3413 7.94051 14.3051
24.531 9.87301 17.0961
27.5609 8.71249 17.1159
29.0796 9.36006 15.8856
23.3026 8.87652 15.7394
27.3601 9.48747 15.9908
28.5701 9.72644 17.1967
24.3119 8.13943 15.909
27.8719 9.64894 17.3059
28.1597 8.58171 16.4344
24.3273 10.0333 17.0593
26.8679 8.49989 17.0744
25.283 8.71526 15.263
26.3315 9.60832 17.4455
22.0979 8.17414 14.5263
25.5979 8.92406 16.3294
23.3843 8.01388 16.1182
27.3411 10.2729 17.6461
23.8817 9.22211 16.7407
32.7187 9.16211 16.6713
30.6187 9.55388 18.3747
26.9753 8.84444 16.7319
29.1261 9.57411 17.1727
27.7388 9.42881 18.7672
21.2792 8.87063 16.3476
29.9331 11.0327 19.5459
24.6044 9.64723 17.9602
23.7989 8.9111 17.7677
22.7698 9.3538 18.4181
25.5958 8.91923 15.8417
26.1 9.33871 17.6418
26.658 8.38622 17.2171
20.5721 7.64228 15.2928
27.3146 8.28073 16.1048
26.3291 9.51921 16.9221
25.1973 9.08449 17.9314
23.7704 9.76247 18.5736
28.3427 9.85652 18.3859
27.6841 9.72012 18.4698
24.321 10.1752 21.0037
24.3315 10.0538 19.0917
24.5806 8.37591 15.8951
21.5938 9.62891 18.3615
22.1632 9.00416 18.2873
21.53 8.81893 17.6663
16.7997 8.81885 17.5467
21.8474 9.6428 18.5101
22.1177 10.4916 20.4175
26.8927 8.68445 18.0826
23.9558 10.0662 20.277
19.0406 10.481 20.5741
26.2055 9.39065 18.9043
23.7188 9.74697 19.8078
27.7024 8.83965 17.3093
23.62 9.08611 18.7373
19.5185 9.08504 18.8834
22.4697 9.87885 19.1361
23.5543 10.462 20.8436
25.5282 9.09692 18.2765
26.9135 10.081 21.8624
24.0006 9.22279 16.8728
28.9712 9.28408 20.9869
25.1407 9.2834 18.0955
23.4754 9.95643 18.7232
21.92 8.86902 19.7549
31.7526 9.37673 19.1807
23.7319 8.89973 18.8612
23.5981 9.97503 19.8175
21.2279 9.40985 19.6286
21.3953 9.23159 20.4334
25.9707 10.0536 20.7968
22.8996 9.85386 20.9935
30.3643 8.84866 17.2303
25.0669 10.3313 21.3689
20.1279 9.21007 19.3658
23.6684 10.2949 21.3512
30.2546 9.00902 20.2659
21.5449 9.1128 17.9734
22.4092 9.91078 20.1696
21.8278 8.49285 18.4938
20.3319 9.38407 20.7269
21.625 9.99521 20.1223
21.2158 8.43149 18.7876
20.385 10.3165 21.8361
19.65 8.45606 17.4679
20.5926 8.47548 17.8923
22.8477 8.59204 19.1825
20.5016 8.95345 19.2597
23.8028 8.56834 17.0775
23.2659 9.08548 20.0744
19.3192 9.6214 19.6559
20.5058 8.98414 19.75
22.173 10.361 24.2476
26.1405 9.41697 20.871
19.9273 8.88181 19.3318
20.1198 8.81901 18.5862
21.7469 8.29392 18.2829
19.8693 9.48922 21.6388
22.5447 8.62202 18.4472
23.6739 10.4409 23.0205
20.327 9.36537 19.8995
25.1085 9.48781 21.9895
24.9103 8.76029 19.8826
18.7658 10.1257 22.3167
22.6505 9.32961 20.742
27.1229 9.16165 20.8713
22.2977 8.97768 20.0431
22.6524 8.70937 19.9467
20.7533 9.2211 20.9096
22.5636 10.4778 23.9709
21.3728 10.5513 22.0458
26.4226 8.6059 21.7377
21.4885 9.98898 20.2009
21.8183 10.7341 23.5092
25.0688 9.72719 23.2966
26.1393 10.4067 24.4256
22.345 9.8433 20.7606
24.3445 9.75522 23.0985
23.2834 9.35085 23.0529
31.2579 9.17698 18.8498
21.1109 10.9049 24.9403
21.6048 9.06919 22.155
21.2297 10.0165 22.5153
21.5089 9.86469 23.4931
21.2384 8.37465 20.1023
21.7615 9.60807 21.3938
18.4023 9.34647 20.8882
21.0979 8.84847 20.2846
18.1276 9.31804 23.4741
21.3112 10.1212 23.017
19.5277 8.98337 19.6637
20.0114 9.33426 20.7906
18.0216 9.22557 22.4061
18.6199 9.96872 24.0559
22.1244 8.76553 19.7978
15.9737 8.98686 20.8291
17.7839 9.38251 23.4975
21.7303 10.6812 23.0734
18.1015 9.59616 23.7647
16.8763 9.0615 21.1577
19.0178 9.09337 22.8299
26.1004 10.3342 24.2317
20.5992 10.3709 24.9693
22.6853 10.3293 23.7454
20.6131 8.98897 23.4922
24.8527 9.68393 23.0633
19.8658 9.19426 21.1225
21.928 9.76564 25.307
22.8174 9.99238 22.3075
22.3583 8.90753 21.4038
18.3645 9.37584 22.3064
22.3024 9.39877 23.9695
18.6548 9.46001 21.6766
19.6741 9.35861 23.3318
25.7666 8.49459 19.1844
21.6614 9.19708 22.8435
18.9739 8.3208 23.702
22.1533 10.3069 23.2139
20.3169 10.4591 26.4493
