# pn-170911/RbIIR-46-RbIIA-1280-1959.psd
# Power spectrum* (dif=0,1,2) (really just |FT|^2)
# NOTE: only the first half! (symmetric)
# weeks: 1280-1959
# 4059 clock-days, 161 excluded
# PSD: 1441
6504.69 0.213787 0.0304049
558992 10.8372 0.0290889
2.0576e+06 39.5237 0.0300605
317546 10.1644 0.0302992
202062 11.7448 0.0316307
97951.7 7.28275 0.0315564
67151 7.71193 0.0304169
43856.4 6.58493 0.0314935
35274.8 6.67108 0.0307909
26191.9 6.27414 0.0325917
21806.6 6.13534 0.0322729
17371.8 5.92548 0.0332523
14495.8 5.8887 0.0330216
12184.9 5.81599 0.0360834
10706.7 6.03813 0.0355533
9104.48 5.74855 0.0364765
8188.01 5.81743 0.0368921
7174.08 5.85553 0.0389898
6512.51 5.87235 0.0388909
5590.17 5.66049 0.0390207
5294.44 6.03652 0.041141
4691.81 5.85409 0.0412887
4386.98 6.07499 0.044179
3953.2 5.83249 0.0456477
3686.47 5.9391 0.0467138
3404.36 5.9074 0.0485163
3124.32 5.92977 0.0486437
2924.1 6.05199 0.0513989
2793.01 6.40411 0.0540407
2607.32 6.48657 0.0560685
2472.74 6.38255 0.0582229
2366.16 6.65292 0.0582064
2207.79 6.67713 0.0612172
2042.29 6.65441 0.0656484
1951.58 6.61911 0.0675266
1909.84 6.88184 0.0715912
1798.03 7.20326 0.0734439
1754.55 7.3369 0.0792994
1652.38 7.29905 0.0804049
1580.52 7.39221 0.0839901
1501.48 7.4529 0.087291
1486.11 7.79678 0.0909311
1410.04 7.96056 0.0970749
1394.13 8.11067 0.104072
1292.84 7.89099 0.103269
1228.02 7.95881 0.106167
1264.02 8.37537 0.115431
1204.71 8.62193 0.12306
1198.87 8.92291 0.127949
1147.65 8.99079 0.132229
1081.38 8.86818 0.137842
1083.12 9.37859 0.145295
1049.99 9.70876 0.156204
1054.85 9.83603 0.159434
1027.98 9.99623 0.167887
974.704 10.1032 0.176475
964.945 10.3112 0.184487
921.805 10.1734 0.189306
888.834 10.2421 0.191629
882.296 10.5117 0.202447
867.015 10.7239 0.213522
861.685 11.2197 0.225593
845.345 11.3562 0.233852
823.512 11.4266 0.246454
792.806 11.2554 0.247484
771.32 11.3265 0.25628
766.164 11.6409 0.271359
763.751 12.0544 0.280304
751.546 12.6607 0.310049
722.592 12.3051 0.310311
712.816 12.3451 0.323734
704.41 12.674 0.334434
710.269 13.5007 0.362818
670.206 12.9051 0.356546
671.049 13.1509 0.369364
662.55 13.3939 0.386933
662.305 13.854 0.407466
632.714 13.8504 0.418732
620.595 13.7885 0.422752
604.822 13.7322 0.43946
604.772 14.0298 0.45727
584.997 13.9469 0.461638
577.119 14.5118 0.491605
564.37 14.4763 0.501336
546.751 14.4072 0.510455
555.759 14.8731 0.538176
534.828 14.8328 0.553405
526.273 14.9555 0.561606
530.58 15.2469 0.591131
519.855 15.6652 0.620101
505.419 15.4427 0.619969
521.831 16.1214 0.659479
492.055 15.4325 0.650046
481.761 15.535 0.665295
474.463 15.6414 0.680098
475.21 15.9419 0.706291
571.569 20.9957 0.941482
462.603 16.3164 0.752974
445.236 16.1631 0.764344
430.344 15.9213 0.770844
425.797 16.1772 0.800142
433.226 16.782 0.844131
453.689 18.1126 0.926661
417.579 17.0819 0.887387
400.232 16.4523 0.869415
402.305 16.866 0.901341
406.407 17.2788 0.945562
383.284 16.7644 0.933799
378.726 17.0168 0.97176
382.935 17.4407 1.00739
383.773 17.7835 1.04112
368.953 17.5281 1.04701
365.537 17.6995 1.06673
370.913 18.4903 1.14901
366.662 18.4259 1.15375
353.244 17.9984 1.14991
340.353 17.7904 1.16223
330.079 17.4637 1.15373
342.706 18.4842 1.24292
334.936 18.337 1.25413
331.827 18.6915 1.30415
320.199 18.1574 1.28853
317.764 18.1404 1.30034
310.136 18.4581 1.35029
321.905 18.872 1.40136
318.748 19.3439 1.45636
314.053 19.2593 1.47332
301.746 18.8139 1.45594
302.287 19.2185 1.51412
292.511 18.9981 1.51975
285.786 18.7469 1.52493
290.542 19.677 1.62457
286.189 19.7819 1.65191
277.822 19.3329 1.64969
275.679 19.3087 1.6542
277.155 19.6094 1.71572
271.017 19.5217 1.73087
275.291 20.2784 1.82668
272.654 20.3591 1.84774
259.531 19.6084 1.80909
262.916 20.1007 1.87712
253.575 19.9875 1.91173
250.334 19.8519 1.90734
259.096 20.8167 2.03
246.461 20.1784 2.00563
239.06 19.7529 1.981
238.45 19.9642 2.03494
243.476 20.535 2.1145
232.872 20.0128 2.08734
237.752 20.8792 2.20724
244.074 21.7971 2.32804
235.45 21.2709 2.30975
224.143 20.6006 2.26711
222.661 20.5128 2.28267
221.835 20.7313 2.34236
220.038 20.8909 2.41074
222.153 21.0995 2.4313
216.277 21.2505 2.48027
215.974 21.046 2.50101
206.599 20.9317 2.52028
207.28 21.0051 2.55295
210.412 21.6678 2.67888
201.604 21.1639 2.64078
212.292 22.0906 2.79246
203.05 21.7051 2.76499
205.772 21.6093 2.77376
195.805 21.3469 2.80556
203.868 22.5715 2.98364
189.585 21.4959 2.87605
195.078 22.2105 3.01527
186.482 21.4999 2.94596
189.07 22.0253 3.03295
188.542 22.5936 3.16991
183.203 21.7927 3.08742
184.618 21.9952 3.15314
187.617 22.8366 3.28982
178.752 21.9499 3.21253
178.661 22.065 3.2812
178.076 22.2742 3.32025
179.632 22.64 3.43159
172.743 22.1068 3.37482
169.925 22.1355 3.46545
170.081 22.1943 3.45717
166.739 22.4655 3.57919
169.277 22.9401 3.64561
168.138 22.7213 3.6934
166.27 22.7548 3.67619
163.735 22.7789 3.77723
164.867 23.0273 3.8241
163.92 22.8089 3.82107
154.913 22.0663 3.77428
161.205 23.9094 4.19813
237.475 36.6015 6.22579
153.147 22.5087 3.93559
150.245 22.0923 3.94808
147.348 22.551 4.04345
153.728 23.6016 4.26702
149.118 23.0815 4.18635
147.9 23.182 4.29965
145.216 22.8262 4.2404
146.208 23.2393 4.38438
142.525 23.0796 4.38643
150.238 23.8203 4.53215
140.23 22.9143 4.49617
147.532 24.1487 4.70376
138.776 23.161 4.56918
137.51 23.2884 4.64481
135.269 23.042 4.63215
141.513 24.1951 4.91367
136.346 24.1022 4.97059
136.412 24.0425 4.93511
132.176 23.6925 4.96586
129.283 23.3532 4.91361
129.577 23.295 4.94673
126.389 23.2014 4.96995
128.303 23.7817 5.17878
128.222 24.104 5.26586
129.75 24.0913 5.28221
127.148 24.5111 5.48058
124.789 24.027 5.40585
122.694 23.8059 5.40349
124.382 23.6124 5.36863
125.144 24.6064 5.67224
120.068 23.6436 5.48984
118.05 23.5744 5.50789
118.99 23.7268 5.6205
119.536 24.2564 5.79465
115.971 23.9633 5.79653
115.925 24.6904 6.0634
122.263 25.6035 6.21623
113.929 24.0012 5.91937
114.515 24.0792 5.97675
112.84 23.8602 5.97881
110.738 24.3395 6.25019
117.797 25.4307 6.39418
110.121 24.5616 6.39703
113.857 25.2257 6.50725
104.396 23.5541 6.20663
107.051 23.683 6.2378
106.637 24.5497 6.59791
106.641 24.5367 6.52671
105.59 24.2096 6.51331
105.853 24.5098 6.72606
104.361 24.4213 6.74768
104.519 24.6796 6.85877
106.079 25.7373 7.21876
109.084 26.0219 7.30391
103.024 24.8183 7.01862
104.027 25.3949 7.27755
101.451 25.0507 7.2073
95.9694 24.3772 7.12695
99.3548 24.5782 7.24986
100.518 25.6173 7.53902
100.664 25.0556 7.41849
94.989 24.514 7.343
97.3767 25.0793 7.58103
97.4734 25.2451 7.63941
96.4974 25.8531 7.98426
96.7057 25.5997 7.87762
93.9285 24.9133 7.81803
94.1262 25.3772 7.97054
93.7924 25.6029 8.0863
89.9272 24.5592 7.82763
94.4359 26.2139 8.42624
95.1657 26.1572 8.38853
90.041 24.8596 8.15423
89.6674 25.3849 8.23655
87.0735 24.9689 8.34375
88.699 25.3847 8.45647
88.5743 25.8211 8.68783
93.0622 26.9986 9.07732
86.2728 25.0173 8.46495
86.5196 25.8167 8.865
84.7083 25.1089 8.70698
87.1093 26.2106 9.0337
84.1215 25.4834 8.96007
83.1394 25.7201 9.10759
82.7769 25.2528 8.94065
82.4596 25.3152 9.02717
82.398 25.3068 9.12805
82.7308 25.829 9.30954
82.5276 26.3861 9.69809
82.7205 25.8363 9.4543
80.1785 25.4217 9.38032
79.1699 25.5445 9.56491
79.61 25.5892 9.56872
76.216 24.6232 9.40662
78.3463 26.4182 10.4695
140.433 47.4236 17.23
77.9958 25.9529 10.0957
75.3912 25.1306 9.85516
76.2719 25.373 9.90152
74.8767 25.0926 9.87628
76.1362 26.0006 10.2834
74.7328 25.7112 10.2812
75.1413 25.9455 10.366
74.7944 25.6733 10.3331
72.8839 25.903 10.5076
74.874 26.2459 10.6761
74.3754 26.429 10.944
73.2235 25.9915 10.7207
71.8491 25.9675 10.8356
71.8242 26.1656 10.9851
70.4054 25.8857 10.8675
69.2797 25.0812 10.638
70.7113 25.8011 11.0029
72.7278 26.943 11.5642
68.6134 25.5277 11.0103
68.1096 25.5918 11.1498
69.0716 25.7033 11.2959
68.9095 26.199 11.5595
67.4838 25.6647 11.4791
68.4818 26.4006 11.6854
66.3965 25.7626 11.5699
67.8059 26.3086 11.7958
66.4411 25.8412 11.7397
65.9044 25.6309 11.7658
64.6451 25.7305 11.7503
64.7148 25.674 12.0366
65.0078 26.1297 12.1619
62.9518 25.4735 11.9445
62.1623 25.5721 12.046
64.1649 26.1526 12.4063
63.1233 25.8946 12.324
61.5369 25.36 12.1021
62.9688 26.1372 12.6118
62.3008 25.6528 12.4581
61.473 25.8727 12.6971
61.8801 26.5056 13.0105
60.3993 25.8308 12.8112
61.7071 26.4477 13.1624
60.6121 26.231 13.1768
59.8711 26.026 12.9872
59.6947 26.0179 13.1554
59.972 25.9467 13.1921
59.6089 26.2568 13.374
60.2166 27.133 13.9095
58.9306 26.5418 13.7798
58.3625 26.3847 13.7124
57.5086 25.9211 13.4851
58.647 26.4604 13.9075
57.3343 26.0315 13.8193
57.861 26.574 14.1449
57.5792 26.1951 13.9695
56.4832 26.3855 14.2212
56.5248 26.0031 13.9808
54.6246 25.962 14.1584
56.4987 26.6225 14.4419
54.7299 25.8867 14.2107
52.776 25.6485 14.2987
55.8981 26.5178 14.692
53.16 25.6501 14.4159
53.7567 26.0031 14.5161
51.888 25.5418 14.5052
54.8175 26.7335 15.218
53.3997 26.0375 14.9215
53.3758 26.4669 15.2348
53.3596 26.5769 15.2883
51.6935 25.8664 15.1061
52.7782 26.2489 15.1968
53.0266 26.5099 15.4916
51.222 26.1684 15.384
49.3305 25.6994 15.3617
51.8744 26.2161 15.7368
51.2633 26.2906 15.6616
51.4245 26.9266 16.2498
51.1938 26.1859 15.8593
50.4214 26.3737 16.014
50.8108 26.266 15.9463
50.1956 26.4059 16.1418
49.2214 26.4658 16.3766
49.7279 26.468 16.4221
49.0805 26.4108 16.4361
47.5494 25.7628 16.2941
47.4693 25.3671 15.9688
47.7643 25.9787 16.4891
48.8678 26.7981 16.9135
47.1523 25.9078 16.619
47.872 26.2486 16.7457
46.9748 26.31 17.057
46.2891 25.8163 16.9956
46.4942 26.0471 17.0968
47.9235 26.9895 17.8445
46.6536 26.9798 19.213
82.0646 48.3057 29.5367
46.1673 26.5368 17.8597
45.2601 26.2766 17.6456
46.0809 26.6601 17.8895
44.5564 26.1405 17.6579
44.8905 25.9402 17.7861
45.8343 27.0562 18.4329
44.2398 26.0059 17.7943
44.2512 26.1087 17.8087
43.3502 26.033 18.0548
44.3901 26.4056 18.3178
43.5185 26.2196 18.4246
43.1299 26.249 18.4874
43.8659 26.1385 18.4082
43.2821 26.6347 18.9629
42.4896 25.5128 18.1205
42.1261 26.2601 18.9054
43.4868 26.5952 18.971
42.8732 26.3631 19.0774
41.5209 25.6287 18.5922
40.8375 26.0029 19.0063
42.2303 26.2935 19.1428
42.037 26.8418 19.713
41.0277 26.2857 19.5915
41.2117 26.1222 19.3742
41.1304 26.4988 19.9076
40.1453 25.5519 18.9748
40.7306 26.3165 19.9702
40.7684 26.1793 19.5375
39.7688 26.0694 19.8532
41.2192 26.6001 20.1193
38.6723 25.421 19.5054
39.5132 26.4106 20.2489
39.3657 26.6685 20.7889
39.5877 26.4702 20.6917
38.7215 25.4604 19.815
38.5464 26.358 20.5563
39.1422 26.2747 20.5839
38.776 26.3661 20.8643
38.8747 26.18 20.6453
38.5323 26.2051 20.878
38.6053 26.5514 21.2512
37.3663 26.2069 21.064
37.524 26.3911 21.3889
38.1685 26.6624 21.7159
38.5051 26.7459 21.6974
37.0982 25.992 21.3006
37.0124 25.9749 21.4573
36.7644 25.755 21.0632
36.8323 26.2098 21.7476
37.8629 26.9441 22.3216
36.4004 25.8956 21.6756
36.1546 26.3285 22.0792
36.7761 26.8182 22.4845
36.1426 26.2955 22.3482
35.0859 25.1351 21.3248
36.682 26.7673 22.8216
35.2511 26.0347 22.3712
35.3297 26.2631 22.7048
35.2134 26.5 22.9802
35.2409 26.4533 22.9666
34.5407 25.8586 22.3628
34.6639 26.1232 22.7058
34.1038 25.555 22.329
33.9024 26.1269 23.2311
34.3829 25.5999 22.6151
34.2856 26.1277 23.2797
34.1253 26.1301 23.2718
33.7846 26.086 23.6623
34.0609 26.3214 23.6142
32.7628 25.2479 22.9907
33.7393 26.2287 23.9392
33.196 25.9063 23.4488
33.6529 26.5578 24.1082
32.5374 25.6402 23.5564
32.4628 25.8208 23.9199
32.4637 25.6029 23.8574
32.317 25.8663 24.0335
31.5057 25.0256 23.5926
33.0932 26.2418 24.3675
31.996 25.6454 24.0365
32.0656 26.3678 25.0739
32.1093 25.6334 24.1991
32.0642 26.2289 24.9643
30.7427 25.6329 24.5322
31.1368 25.5511 24.5851
31.7398 26.2622 24.9665
30.5269 25.7581 25.2275
31.0053 25.9014 25.2313
31.1291 25.8018 25.1195
30.882 25.9385 25.3027
30.9268 25.948 25.5596
30.6501 25.6327 25.1977
30.7884 26.4101 26.1406
30.4574 26.1641 26.5201
30.1614 26.823 30.0347
54.4965 48.6425 42.7329
29.1994 26.2468 27.313
29.8028 25.7636 26.2101
30.1779 25.9508 26.3944
29.2 25.2114 25.9375
29.9538 26.0351 26.5386
29.4941 26.0574 26.5864
29.3367 25.9655 26.7673
29.4299 25.8162 26.3532
28.9564 25.8121 26.5177
28.9392 25.7752 26.8
29.0888 26.0874 27.1771
28.288 25.353 26.8299
29.1454 25.9687 27.2087
28.9456 25.9501 27.3153
28.7912 25.9425 27.5599
29.2344 26.1792 27.4909
28.2853 26.0708 27.7563
27.9125 25.6695 27.5921
27.4194 24.63 26.5653
28.2055 26.2213 28.2525
28.0935 26.0971 28.1788
27.3344 25.2834 27.5356
27.729 25.8971 28.2507
27.3198 25.521 27.9824
27.1847 25.4469 27.6313
26.883 25.5233 28.162
26.7913 25.599 28.1636
26.3778 25.1057 27.6813
26.2658 25.4284 28.705
26.5458 25.2083 27.798
26.5192 25.8031 29.0393
27.0881 26.0244 29.3828
26.8123 25.1492 27.9984
25.6848 25.5338 28.9657
26.6066 25.8863 29.5866
26.7445 25.9027 29.2676
25.4331 24.9677 28.2315
25.1577 24.917 28.6353
25.0807 24.7516 28.5492
25.4717 25.2681 29.3041
26.5263 26.3137 30.4681
26.079 25.9877 29.7879
25.1647 24.947 29.3775
25.2297 25.1404 29.8027
25.4248 25.5821 30.1482
24.7804 24.9235 29.4159
24.5665 25.702 30.732
24.5691 25.0483 29.9288
25.389 25.8627 30.5297
25.1223 25.278 29.8005
24.6203 25.0675 30.0482
24.2396 24.6946 29.7966
24.8474 25.4823 30.2873
24.209 25.2248 30.9092
24.5572 25.4387 30.6578
23.8541 25.1434 30.7844
24.0668 25.0232 30.3719
23.8389 25.3309 31.2097
24.1431 25.1705 31.3472
23.5527 24.6831 30.6743
24.0418 25.2444 31.2606
24.2486 25.7162 31.6069
23.7081 25.2709 31.5041
23.7271 25.3883 31.6246
22.8581 24.3249 30.2513
22.9318 24.9113 31.4661
23.5191 25.3138 31.9147
23.1827 25.0444 31.145
22.2465 24.9769 31.7442
22.2787 24.5842 31.6424
22.8181 25.3676 32.6355
22.5445 24.5467 32.0065
23.0595 25.657 32.9758
22.9795 25.1184 31.9265
21.6399 24.1122 31.7717
22.3779 24.6814 32.12
22.6141 25.1452 32.9673
23.1108 25.6142 33.4102
23.3428 26.2749 34.1308
22.9641 25.6537 33.6739
22.2042 25.1498 33.5542
22.5734 24.9647 32.7439
22.3013 25.6794 34.255
22.1327 25.0405 33.4735
22.1704 25.0206 32.86
21.2625 24.8732 33.98
21.6864 25.3025 33.9627
21.0452 24.5309 33.4879
21.6708 24.8633 33.609
21.7441 25.0352 33.7632
21.1512 24.8304 34.1175
22.0549 25.5546 34.7846
21.7116 25.4674 35.0555
21.3511 25.1294 35.4476
21.2206 26.7172 44.4518
39.0638 46.7771 54.0069
21.0937 25.3496 35.5413
20.94 25.2678 35.3084
20.1212 24.6302 35.2281
21.1213 25.3493 35.2501
20.5829 24.6921 34.8649
20.231 24.1681 34.4028
20.7302 24.7509 34.4486
19.9008 23.9715 34.0542
20.4998 25.0139 35.6322
21.1464 25.2866 35.8662
19.9593 24.1942 34.6592
20.8174 24.9525 35.4038
20.1146 24.8401 35.6165
19.902 24.0054 34.8544
19.6338 23.9033 34.4599
19.8904 24.6083 35.7875
19.6883 24.4104 35.746
19.7403 24.6859 36.1304
19.8221 24.3529 35.3113
19.607 24.6842 36.4134
20.0854 24.7357 36.1405
19.2071 23.6622 34.942
19.4702 24.7928 36.8317
19.5112 24.4072 36.3236
19.5305 24.6246 36.6077
19.0145 24.4883 36.7797
19.6067 23.9661 35.6674
19.837 25.6027 38.2142
19.2259 24.9183 37.6025
19.1786 24.5703 37.0216
19.0327 24.2945 36.7684
18.7516 23.7762 35.9516
18.5067 23.9425 37.0209
18.7175 24.191 36.5227
18.5657 23.8449 36.274
18.5624 24.5202 37.8881
18.45 24.0039 37.0502
18.1827 23.5079 36.6087
19.0521 24.7831 37.7537
18.7383 24.5161 37.8006
18.5456 24.6296 39.2769
19.1462 25.0786 38.4409
18.1854 24.0236 38.0208
18.7761 24.6294 38.0967
17.8949 23.8659 37.2458
17.9237 23.9298 37.5962
17.7844 23.4971 37.412
18.4485 24.3911 37.9559
17.613 23.7113 37.3553
17.4107 24.0728 38.7038
17.8466 23.6653 37.2774
17.2087 23.7822 38.5511
17.6909 24.1784 39.1919
17.7157 23.7213 38.3467
17.4303 23.6165 37.5972
17.549 23.9172 38.3642
17.1186 23.7298 38.7721
17.3834 24.3392 39.741
17.8793 24.5201 39.4115
16.7394 23.6631 39.2777
17.6712 24.1962 39.6825
16.8342 23.4405 38.6
16.9789 23.6463 38.8806
16.771 23.2195 38.4233
16.8426 23.4667 38.1717
16.3221 23.0275 38.564
16.4019 23.2895 39.3158
16.8399 23.868 39.2455
16.281 23.4651 39.6278
16.8255 23.7547 40.0793
16.3234 23.2743 39.6687
17.0338 23.9231 39.4139
16.339 23.4162 40.1207
16.3047 23.4082 39.7735
16.2464 23.1662 38.7693
16.0068 23.0963 39.9094
16.7528 23.8199 40.3221
16.1085 23.1779 40.0694
16.0112 23.3386 40.0715
16.002 23.2647 39.9503
16.1228 23.438 40.2323
16.2201 23.377 40.1095
15.4433 22.6472 39.4774
15.784 23.2303 40.8695
15.6017 23.4125 40.8556
15.7712 23.1113 40.9109
15.5824 22.7069 40.2156
16.1669 23.5734 40.6076
15.616 23.3483 41.0754
15.7016 23.1136 41.1428
15.5107 23.3976 41.7967
15.8439 24.1372 42.4175
15.5039 23.7816 42.7868
15.1108 22.7369 41.7168
15.2872 24.8091 56.97
28.8436 43.048 60.2312
15.1472 23.851 43.5954
15.297 23.3628 42.4857
15.2502 23.467 42.641
15.2333 22.8096 40.8584
14.7453 22.923 41.7481
14.8957 22.7463 41.6034
14.8872 22.8658 41.2213
14.8494 22.8907 42.0093
14.7706 22.7797 42.0156
14.8714 22.9198 41.9062
14.7586 23.2274 42.6929
14.6256 22.8785 41.8902
14.3525 22.1452 41.2563
14.4164 22.2019 40.8983
14.5438 22.8198 42.8864
14.8565 22.7604 41.6907
14.4548 22.9058 43.2228
14.3822 22.9383 43.5598
14.5935 22.7681 42.5588
14.8069 23.384 43.683
14.6862 22.5272 42.4445
14.3347 22.6939 42.2136
14.3069 22.9521 44.413
14.5288 22.9371 42.6726
14.2631 22.6578 43.0444
14.2402 22.5979 42.9056
14.2522 22.887 43.9079
14.1385 22.5178 42.9549
14.2137 23.5991 47.2776
14.9189 23.384 43.6994
14.1341 22.3646 43.0094
14.1006 23.0171 44.6296
14.0979 22.5627 42.9158
13.7208 22.3006 43.5259
13.6901 22.509 43.9835
13.8981 22.4825 43.645
13.4502 22.0646 43.3603
13.3823 21.8422 42.6611
13.725 22.636 44.8831
13.6902 21.937 42.8217
13.5722 22.8463 45.1402
13.738 21.8778 43.0279
13.211 21.5984 42.793
13.4507 22.166 43.8455
13.2009 21.5683 43.0114
13.1931 21.7369 43.3518
13.3401 22.0554 45.1833
14.0236 23.3818 44.5755
12.8467 21.4652 43.3752
12.9894 21.4077 43.5639
13.1178 22.0383 44.4949
13.0935 22.2376 44.9553
13.173 21.916 43.9832
13.0278 22.3467 44.6333
13.1129 22.0591 44.8253
12.5461 21.0411 43.142
12.7059 21.5852 43.4475
12.838 21.8455 43.8173
12.5992 21.9211 45.1425
12.9653 21.6668 43.9852
12.6051 21.7656 45.0288
12.352 21.3758 44.8095
12.7217 21.6024 44.5834
12.5859 21.9023 45.1397
12.4724 21.5558 44.6736
12.3615 21.7348 45.032
12.2568 21.0766 44.7229
12.3253 21.2295 43.8694
12.1942 21.7709 45.1862
12.0362 20.8437 44.2738
12.2224 21.3908 44.8648
12.351 21.6513 45.2323
12.2785 21.3588 44.5031
11.8777 20.9486 44.6801
12.2533 21.3101 44.6349
11.7739 20.9581 45.1604
12.1274 21.2543 44.767
11.8149 20.8183 44.1542
11.8771 21.0415 45.4548
12.004 21.1899 45.016
11.7239 20.6175 44.8324
11.9807 21.2544 45.227
11.7997 20.6768 44.9902
11.9712 21.0984 45.5601
11.781 21.3344 45.9039
12.0024 21.871 47.3148
11.881 21.1854 45.3643
11.7372 21.389 46.9641
11.748 21.4432 46.5694
11.5374 20.357 44.8058
11.4186 20.9145 44.702
11.116 20.5904 46.4469
11.1683 20.5199 45.6238
11.5674 21.4107 48.1966
11.3052 23.0329 68.6419
21.6015 39.0252 64.247
11.5133 21.2097 47.4192
11.4638 21.0302 46.094
11.3381 21.1184 46.9815
11.3723 21.0793 47.2683
11.4172 21.0494 47.2623
11.0274 20.5426 46.0883
11.0704 20.3305 45.9487
11.372 20.6858 45.9631
10.9513 20.199 45.7626
11.1366 20.6292 45.7514
10.5874 19.9794 44.9849
10.7391 20.0135 46.0631
10.8661 20.4679 46.5169
10.9502 20.5359 47.1072
11.2799 21.0496 47.3398
10.9927 20.5821 46.2034
10.8377 20.3459 47.6841
11.2894 20.7146 46.677
10.6795 20.3697 46.8365
10.7646 20.1284 45.7403
10.6168 20.4353 47.076
10.827 20.3262 46.2963
10.5541 19.8655 45.656
10.7123 20.7892 48.061
10.7273 20.395 47.0841
10.4757 19.8196 46.7563
10.6789 20.6168 47.8399
10.6032 20.2202 46.1455
10.319 20.246 48.572
10.8924 20.1882 46.5399
10.2737 20.0837 47.5985
10.5524 20.3964 47.5591
10.5223 20.311 48.1692
10.392 20.1409 47.6234
10.2714 19.6692 46.7248
10.4477 20.2869 47.8032
10.5159 19.7523 46.0701
10.0399 19.7554 47.5582
10.2455 19.562 46.877
10.4342 20.1372 47.7785
10.3657 20.0277 47.8314
10.2129 19.9889 47.2443
9.94656 19.4665 47.8771
10.4174 20.4105 47.9995
10.1224 20.0896 48.2462
10.3326 20.4711 48.8427
9.81004 19.3426 47.3705
10.2073 19.9331 48.018
9.99983 19.6428 47.2801
10.054 19.9629 48.2929
10.1344 19.8409 47.9876
9.76232 19.3803 46.9088
9.77 19.2911 46.3923
9.78159 19.7743 48.7789
9.80183 19.858 48.8095
10.1904 19.9519 48.1767
9.66738 19.2358 47.5983
9.92317 20.2282 49.3865
9.81666 19.321 47.4687
9.64948 19.4507 48.0416
9.54807 18.9524 46.8202
9.61261 19.4964 48.0184
