# pn-170911/RbIIR-47-AMC2-1280-1959.psd
# Power spectrum* (dif=0,1,2) (really just |FT|^2)
# NOTE: only the first half! (symmetric)
# weeks: 1280-1959
# 519 clock-days, 22 excluded
# PSD: 1441
965.736 0.0874791 0.0402269
58660.5 1.54908 0.0599726
150106 2.89234 0.0644913
39960.5 1.16812 0.0663242
52419.6 3.54804 0.0658047
10531.2 0.70358 0.0594694
7752.74 0.750144 0.0600218
5258.96 0.621038 0.0640407
4254.27 0.763386 0.0616727
3007.77 0.562372 0.0644404
2465.04 0.577484 0.0645415
1936.39 0.54841 0.0671418
1620.17 0.556214 0.0660806
1425.43 0.592289 0.0661866
1364.4 0.658371 0.0689134
1126.07 0.617812 0.059587
1027.15 0.745583 0.0601698
939.131 0.703442 0.0645756
888.955 0.827756 0.0661301
808.177 0.816326 0.0672425
728.138 0.889165 0.0645028
652.038 0.846466 0.0575089
695.449 1.10217 0.0702585
640.893 1.03326 0.0712793
634.676 1.16393 0.0609822
600.497 1.30237 0.0681446
565.942 1.34349 0.0671619
567.012 1.40154 0.0660455
520.523 1.44336 0.0710579
564.729 1.70114 0.0730183
640.029 2.15565 0.0713311
546.631 1.83012 0.0699303
475.728 1.79159 0.0751913
566.498 2.2314 0.0840823
492.094 2.23401 0.0796369
485.346 2.25333 0.0781351
463.906 2.24669 0.0758322
506.002 2.53309 0.0822274
508.708 2.88961 0.0861138
511.836 3.10263 0.0823781
496.158 3.07325 0.0853844
486.057 3.19001 0.0884759
519.124 3.75518 0.0931492
460.156 3.4971 0.0989928
493.383 3.9021 0.109118
394.553 3.33174 0.0985973
456.256 4.17321 0.112752
433.775 3.8437 0.104143
474.808 4.60269 0.116292
457.615 4.73055 0.122763
420.728 4.30257 0.12055
374.512 4.18864 0.116071
418.551 4.85395 0.12147
394.876 4.8503 0.138269
423.333 5.23501 0.147782
404.173 5.06888 0.141441
446.427 6.04284 0.157895
433.841 6.06145 0.154074
439.187 6.49637 0.170815
385.358 5.84491 0.169916
395.375 6.38395 0.171673
422.783 6.89579 0.185875
393.366 6.84491 0.186534
391.49 6.80402 0.191618
415.24 7.68158 0.215039
384.778 7.34595 0.218517
399.304 7.54435 0.222248
377.69 7.61388 0.23086
340.139 7.05302 0.21595
407.187 8.76244 0.258596
363.786 8.0162 0.255795
337.376 7.37457 0.247726
402.431 9.4182 0.305484
306.274 7.03779 0.239789
330.328 8.18317 0.266456
320.844 8.08341 0.28226
294.854 7.55092 0.265712
300.787 7.8297 0.287039
360.39 9.86318 0.340094
309.636 8.4853 0.322592
314.099 8.86069 0.330227
261.583 7.70766 0.294519
281.986 8.42623 0.339833
272.699 8.35351 0.341127
331.37 10.6014 0.409868
287.54 9.32149 0.382471
296.455 9.83444 0.400351
275.148 9.32451 0.396519
288.73 9.67759 0.409541
274.855 9.83604 0.427137
271.196 9.94072 0.439294
305.522 11.2997 0.493964
261.334 9.86061 0.458404
227.957 8.86057 0.438253
220.017 8.50574 0.416654
226.375 9.28111 0.461322
331.615 14.0141 0.665868
254.713 10.6538 0.533502
250.08 10.6838 0.539812
226.004 9.85914 0.528741
251.14 11.2834 0.613903
210.22 9.63432 0.540925
288.172 13.4857 0.711828
224.606 10.8328 0.618531
214.126 10.2947 0.578089
240.315 11.9661 0.689184
225.749 11.7285 0.67191
209.085 11.0106 0.657076
220.432 11.6883 0.695731
218.45 11.9272 0.722248
211.571 11.4985 0.720549
192.634 10.5861 0.655138
194.426 10.995 0.719756
212.19 12.1567 0.789248
222.335 12.9483 0.844035
187.944 11.2658 0.757028
176.586 11.0134 0.748994
175.712 10.7126 0.747548
199.207 12.59 0.897617
198.227 12.2528 0.885694
222.995 14.2897 1.04032
193.125 12.4845 0.919899
148.29 9.59803 0.703555
190.557 13.0313 0.977717
188.903 12.9933 1.00148
173.284 12.3016 0.963568
206.304 14.5417 1.12961
166.722 12.0358 0.971977
167.348 12.4074 0.989229
164.539 12.1556 0.986365
171.765 13.3011 1.12716
166.535 12.7356 1.06237
197.16 15.3334 1.28857
161.66 12.588 1.08253
151.318 12.0905 1.06308
151.057 12.8165 1.14793
148.913 12.408 1.15566
166.577 14.2485 1.31328
145.556 12.3139 1.1504
136.288 11.8761 1.13498
162.324 14.4067 1.36451
155.339 13.6247 1.2876
138.993 12.2868 1.22855
147.15 13.689 1.34806
166.279 15.8131 1.6195
160.639 14.7015 1.46385
145.47 13.9648 1.41882
136.694 13.2712 1.38273
132.534 13.2453 1.38929
145.714 14.3301 1.5553
151.591 15.1106 1.62185
131.04 13.5768 1.48971
136.807 14.159 1.57784
130.792 14.1261 1.59189
136.342 14.4784 1.65072
146.048 16.7194 2.02096
143.477 15.8354 1.85277
138.738 15.486 1.81982
124.117 13.8346 1.72123
121.016 13.809 1.68099
126.133 14.5586 1.80728
139.751 16.6037 2.06903
132.894 15.2265 1.866
133.132 15.8344 1.99224
129.06 15.6625 1.98341
127.568 15.6523 2.03874
119.806 15.0949 1.99346
133.778 16.6003 2.23352
124.109 16.1169 2.23149
121.403 15.5728 2.14779
127.264 15.9669 2.19882
117.953 15.4608 2.17005
112.659 15.3395 2.24057
121.541 16.4561 2.31925
125.991 17.2713 2.43803
115.53 15.9588 2.36202
114.361 16.0759 2.34329
105.481 15.0682 2.29021
107.932 15.4447 2.34755
108.394 15.6821 2.38276
134.642 19.4914 2.99421
98.6166 14.4126 2.24061
112.979 17.0152 2.61154
108.753 16.5064 2.64808
106.25 16.3838 2.60445
113.755 17.3594 2.85202
116.825 18.0609 2.93192
110.082 17.7024 2.8836
110.845 17.7288 2.9493
100.499 16.2494 2.75063
109.469 17.7139 3.04955
100.364 16.9729 2.96361
151.18 25.4151 4.32168
103.242 17.2247 3.01033
89.0868 15.5325 2.78886
94.4012 16.6207 3.04866
90.7347 15.8863 2.8559
103.145 17.956 3.2054
107.953 18.9848 3.56045
99.1358 17.728 3.34545
97.3208 17.7167 3.37432
98.7134 17.893 3.42177
94.2692 17.4846 3.3322
93.4942 18.0761 3.5981
96.1846 17.8069 3.43082
93.525 17.7453 3.47919
92.7083 17.6081 3.48739
86.9034 16.6077 3.35898
92.2194 18.102 3.62849
89.2648 18.0142 3.73679
97.7262 19.7661 3.99315
85.4032 17.5445 3.66753
86.6291 17.8397 3.81732
96.6996 19.6669 4.15966
85.8478 17.5157 3.80529
98.9384 20.5992 4.41412
91.9458 19.3473 4.30466
93.5521 20.0835 4.44311
91.0442 19.7248 4.33705
90.9818 19.378 4.31063
79.4728 17.7099 4.13243
86.7886 19.0321 4.28052
86.9324 19.5546 4.60232
95.2102 21.2306 4.89347
83.1384 19.0077 4.52985
83.1292 18.7783 4.38374
87.0715 19.0903 4.44591
80.5242 18.5247 4.43771
86.6394 20.372 5.03251
80.9206 19.1269 4.62638
76.9374 18.1805 4.44634
78.4357 18.5317 4.61607
78.3592 19.149 4.76603
80.0167 20.2024 5.21627
83.4482 20.2731 5.11306
80.1474 20.3305 5.23736
82.2051 20.3515 5.26618
82.8613 21.1618 5.51963
69.5113 17.7071 4.70141
73.1833 18.9797 5.14171
86.8491 22.2746 5.87276
69.9845 18.6584 5.02655
74.0522 19.4172 5.21547
80.1276 21.524 5.84136
72.6435 19.4524 5.32532
71.2479 19.5229 5.46353
82.4246 22.3883 6.10869
67.9769 19.1896 5.51536
70.9394 19.7818 5.63441
73.4053 20.3489 5.84796
72.8188 20.3712 5.90301
64.4345 18.6145 5.51437
74.4809 21.4779 6.40279
71.102 20.3692 5.96976
69.9423 20.1425 6.03673
69.0242 20.4399 6.16605
71.2659 21.0986 6.38263
78.5181 24.1655 7.45271
78.1825 22.681 6.88127
72.9401 21.6331 6.59585
68.942 20.6884 6.50335
65.499 19.9472 6.24722
68.7973 21.456 6.88149
68.7952 21.4428 6.92513
69.8371 21.4826 6.91573
66.701 20.5533 6.61037
63.864 21.1114 7.13308
65.6778 20.9955 6.89564
60.9964 19.3271 6.34381
68.0504 21.9774 7.29707
70.6029 23.3501 7.78145
68.1147 22.6259 7.59253
60.9532 20.031 6.86015
61.4399 20.5738 7.11899
62.5905 21.5071 7.52501
61.9355 21.1702 7.44461
69.4093 23.6617 8.22625
63.9697 21.5744 7.66301
69.0436 23.9594 8.65142
68.4382 23.7932 8.46688
62.1087 22.0363 8.02096
64.1007 22.3837 8.05272
58.5048 20.7884 7.6095
54.4871 19.8617 7.35398
61.5811 22.1205 8.14153
58.7084 20.9514 7.79023
57.6386 21.5982 8.17097
59.4364 22.5222 8.98552
93.6017 34.4035 12.6536
62.3794 23.3115 8.92944
57.0296 21.3622 8.25396
52.812 20.2166 8.21499
59.2441 21.7851 8.48597
60.5282 22.9639 8.92939
57.0082 22.0169 8.8005
60.08 23.7321 9.36521
50.0685 19.3501 7.77787
51.3734 20.3658 8.15639
51.7304 20.7503 8.52271
55.1568 22.647 9.38002
53.7383 21.5735 9.07151
57.454 22.4265 9.0465
54.3036 22.1329 9.31024
54.2454 22.1585 9.41154
54.867 22.3102 9.26292
50.592 21.6486 9.36363
52.6028 21.948 9.3742
49.2352 20.5011 8.74091
52.4269 21.8594 9.44922
50.9763 21.7465 9.54521
50.2905 21.4354 9.59872
51.3898 22.1461 9.95521
54.9436 22.7508 9.74962
52.51 23.023 10.4387
51.6914 22.7561 10.1031
49.1072 21.986 10.2323
50.92 22.8121 10.432
51.9102 23.2698 10.6475
55.1982 24.729 11.27
48.7238 22.045 10.3149
47.5945 20.9084 9.50307
46.1235 21.3889 10.3385
46.2026 21.5508 10.2836
47.4533 22.0496 10.4221
51.3049 23.5577 11.1227
46.2501 22.7335 11.1488
48.6133 22.0444 10.6605
49.9318 23.9292 11.4704
45.1924 21.2899 10.3881
45.128 21.7638 10.9554
49.3409 23.9643 11.8855
45.6696 21.4562 10.5991
46.0231 22.8738 11.6582
46.3083 21.9341 10.7332
41.492 20.6999 10.5854
44.8635 22.0884 11.204
46.4729 23.3387 11.794
43.104 21.9474 11.4764
46.9897 23.8256 12.2332
43.4882 22.218 11.6499
43.2421 22.6833 12.239
44.9245 23.0684 12.3034
47.5483 24.5982 12.8741
44.1811 23.062 12.3406
42.2443 21.9127 11.4906
40.8125 21.7285 11.8116
41.1411 21.8463 12.1278
44.1789 23.3752 12.6526
43.7751 23.635 12.8235
42.1305 22.6274 12.4262
39.2607 21.6531 12.2413
41.0378 22.0514 12.4696
43.643 23.5623 13.115
40.5013 21.9245 12.3798
40.3083 22.3634 12.8244
41.0518 22.3755 12.6541
42.0368 23.0852 13.2471
42.1205 23.084 13.0907
40.6179 22.4751 12.9925
40.596 23.1341 13.5046
42.4073 24.379 14.1162
41.5855 23.8736 14.0204
43.4977 24.8303 14.6967
35.6248 21.1286 12.9695
39.731 23.0523 13.5713
37.0268 21.7951 13.33
42.1433 23.8172 14.2958
40.5389 23.6402 14.21
38.691 22.3789 13.4895
36.9266 22.0972 13.4773
34.9146 21.5903 13.5792
35.6541 21.6819 13.7741
38.1859 22.9371 14.2769
35.9917 22.0664 13.799
38.0316 22.9905 14.3471
36.1305 22.8711 14.6233
39.2879 23.8819 15.1412
38.2918 24.0612 15.4745
34.9173 22.0681 14.5172
35.7911 22.3663 14.2125
35.488 22.412 14.5898
32.6869 20.477 13.2792
38.7813 25.4922 17.029
36.7959 23.1976 15.6743
54.0295 34.4707 21.7406
37.826 24.3576 16.16
34.8842 22.7594 15.3295
38.0459 24.9558 17.0555
40.1412 25.8909 17.2433
35.5171 23.2733 16.2735
37.4028 24.1691 16.2217
34.5482 23.198 15.9385
33.1648 22.4689 15.5806
36.9401 24.57 16.6007
34.3689 22.6243 15.0943
34.0208 23.3095 16.4171
32.0616 21.953 15.8528
33.8351 23.3733 16.1905
32.452 22.5647 15.9843
31.215 22.0898 15.7946
34.4964 23.2235 16.3779
32.9708 23.0335 16.7029
33.7369 24.3229 17.5725
32.5241 22.7675 16.2451
32.1035 22.8372 16.8649
33.3679 23.6151 17.1269
31.6435 23.3486 17.1238
31.0306 21.6679 15.8014
30.4192 22.4595 17.0063
33.2806 23.2371 16.6998
29.157 21.8462 16.5063
32.0352 22.8606 16.9075
32.4728 24.0028 18.0554
32.1393 23.4954 17.5614
31.1278 23.7144 18.7022
33.0956 25.1449 19.4466
32.1582 22.9628 17.0544
34.9327 27.1547 21.1386
29.9266 22.3202 17.402
31.505 23.5673 18.3652
33.2488 25.3428 20.0174
32.2935 24.2819 19.1651
31.9415 24.1425 19.0831
34.3723 27.1097 21.5154
31.8971 24.3992 19.1473
29.7237 22.7276 18.1623
30.7048 23.3905 18.9018
30.9604 24.6656 20.1965
29.3084 22.9574 19.0463
31.193 23.9884 19.236
29.8334 23.4761 18.8033
28.6776 23.1055 19.0913
30.5542 24.8684 20.5846
30.8557 24.5208 20.299
28.7308 23.2277 19.2502
28.1507 23.4818 20.2307
29.0163 22.7866 19.0564
28.4159 23.3287 19.7146
28.1837 22.6001 18.9594
28.8737 23.3787 19.4904
28.3105 23.5127 19.9683
29.1453 23.8838 20.5464
28.196 23.3 19.938
26.0599 21.9858 19.0333
28.2999 23.5558 19.7691
23.7519 20.3828 18.6706
28.1535 23.4683 20.1272
24.3617 21.0292 18.9137
27.1252 22.9906 20.5557
26.3757 21.8885 18.9556
27.0387 23.6044 20.9999
24.5629 21.1619 19.0261
28.2258 24.7527 22.3132
27.3178 23.7655 21.2627
26.0703 22.5307 20.2155
26.4542 23.8927 21.8866
25.3387 22.0996 19.9525
26.0167 23.4198 21.6333
25.1109 22.4031 20.6948
25.2373 22.8712 21.4723
25.941 22.9105 20.9003
26.0633 23.043 21.0766
25.6617 23.4225 21.165
22.9929 21.4767 20.9163
27.3468 24.8743 22.9598
23.9966 22.1335 21.857
26.8461 23.5605 21.6168
22.8049 21.2187 20.4577
25.9739 23.7205 22.7987
24.9354 22.84 21.1491
23.8067 22.6454 21.7909
23.6842 22.6443 22.3103
26.538 24.7989 23.8994
25.9063 24.2999 23.6105
25.1672 23.8095 23.7161
25.6808 23.8947 23.399
24.1067 22.8143 22.5143
23.0453 21.2163 21.0088
23.5728 23.3688 23.6388
24.9903 23.7236 24.4531
36.4934 35.1413 32.7622
24.4954 24.4055 24.9505
25.5857 24.2897 24.5918
23.8366 22.6276 22.9825
24.5346 24.4793 25.0324
25.3218 24.3764 23.9085
23.1013 23.3753 24.291
24.645 24.7532 24.9884
20.964 21.1613 22.2931
21.4257 21.2469 22.0315
23.1868 23.3779 23.8273
22.9468 23.6043 24.4977
23.5403 24.0725 25.468
22.9068 23.1735 24.1828
22.6333 23.2502 24.9807
23.7603 23.7439 23.9776
21.6793 22.4295 24.2864
22.3552 23.4561 25.1753
22.4441 23.3139 24.4672
20.877 22.1616 24.1298
23.5517 24.0996 25.4703
21.7304 22.8377 24.2978
20.7443 22.0664 23.56
20.1979 22.2353 25.438
22.1612 22.5094 24.1685
21.095 22.3114 24.8665
23.6974 24.0581 25.1954
21.9662 23.7509 25.7044
19.2596 21.36 24.8408
22.3574 23.8947 26.4048
22.8445 25.0985 27.3329
21.4554 23.8767 27.8729
22.5597 23.9824 26.6247
21.1605 22.9093 25.9044
23.4052 25.8189 28.4964
22.7093 25.7885 29.0615
21.1056 23.2606 27.0638
22.2644 24.3206 28.1855
22.9085 24.8938 27.7012
20.0276 22.466 26.1447
20.141 22.9897 27.3056
20.3407 22.058 25.0785
22.0135 25.2511 28.6887
20.396 23.3388 26.7079
19.0135 22.0948 26.5019
18.9489 21.3605 25.1456
20.3422 23.968 28.7536
20.4699 22.9797 26.8609
19.1895 21.8324 26.0899
21.0228 23.8594 27.697
19.3772 23.2766 28.9821
20.2909 23.2886 27.9449
19.8896 23.3232 28.6768
21.4612 24.3965 28.5067
18.7058 23.1165 29.5787
21.9971 24.5496 28.0942
18.8336 22.2384 27.4555
19.5408 22.5507 27.5037
20.0142 23.7725 28.2677
18.1701 22.0971 27.1666
19.8049 24.5812 30.5121
20.2073 24.0152 29.3905
18.9487 23.1224 29.2845
18.8644 22.5135 28.0554
17.9342 21.5913 26.7764
19.2169 23.8206 30.215
18.711 22.572 28.5823
18.5145 22.4645 28.5341
18.1475 22.2284 27.9532
17.4379 21.3222 27.5932
18.2036 21.9379 27.871
19.3004 23.3354 29.0941
18.3657 22.903 29.9084
18.1548 22.7533 29.3118
18.4346 22.8748 29.4726
18.7383 23.706 31.4641
19.2051 23.6489 29.5533
16.8151 21.2124 27.846
17.5442 22.5129 29.1997
17.3869 22.1188 29.4898
17.8283 22.1144 28.7989
16.9543 21.4082 28.2675
17.0855 22.2627 29.1173
16.7453 21.321 28.1603
16.2762 21.1854 28.7023
17.3457 22.6138 30.1781
17.6276 23.3042 31.225
18.6357 24.4757 33.1697
18.2564 23.4392 30.911
15.9655 21.2932 30.2906
17.1287 21.8775 29.8749
17.6443 23.037 31.111
16.3582 21.4115 29.5648
17.109 22.7009 31.2858
16.2071 21.4372 29.4283
16.8544 23.5141 35.2968
24.2336 31.2676 38.6922
16.1488 22.612 32.3783
16.9512 21.8956 30.4163
16.9304 22.9822 31.9366
16.8095 22.7315 33.0164
16.7581 21.0842 28.0685
16.516 22.835 31.5166
15.7256 21.4741 30.4291
16.6411 23.6406 35.1152
16.846 21.4579 30.0948
16.9819 23.6839 33.4863
15.77 21.2825 29.6295
16.671 23.463 33.3641
15.9544 22.6347 32.9462
16.5958 23.0604 32.7433
15.5508 21.7846 31.6768
14.6441 20.3845 30.3692
15.5936 21.8845 33.1802
17.025 22.766 31.808
16.5666 24.048 34.6112
15.5443 22.692 33.8412
16.3977 22.8534 32.8435
13.9399 19.7943 29.1325
13.9301 20.5484 31.2244
14.9349 21.3194 31.0897
15.6697 22.6091 32.5049
14.4829 20.8676 31.7582
14.0545 21.1217 32.8212
15.6714 21.635 31.7671
15.2345 22.0329 32.8467
15.2085 22.1 32.7471
15.9052 23.2665 34.8363
14.1612 20.3523 30.7738
14.6325 22.1127 33.9889
14.3754 20.9262 31.8046
12.6758 18.2784 28.6652
14.1469 21.3875 33.5997
15.8733 22.9627 34.1874
14.5888 20.8061 31.2545
14.1709 21.57 33.7364
14.3171 21.6655 34.1826
14.6165 22.2414 35.5637
15.528 22.84 34.4625
13.9874 20.0332 29.9564
13.0806 20.4777 33.8636
14.1898 20.6229 31.5067
15.1991 23.792 36.9154
14.2132 22.1178 35.1558
13.2841 19.965 31.8933
13.891 21.7917 34.6169
13.8721 21.8611 36.2963
14.347 21.0269 33.8326
14.5802 21.8365 34.2021
13.6327 20.4185 32.1081
13.9831 22.3401 36.4445
14.2962 21.8258 34.02
12.5468 20.3266 34.3737
13.8789 21.1627 34.4084
13.3693 20.7731 33.4849
13.2007 20.8794 34.3522
13.722 22.2239 36.8958
13.6345 20.6098 33.4519
14.2887 22.1936 35.3829
13.6034 22.5546 37.0163
13.5738 21.3432 35.091
12.301 19.5709 33.8528
13.8612 22.0882 36.5126
13.0773 20.7522 34.1955
13.0036 20.7804 33.9771
12.2459 19.8278 33.9755
12.4614 19.1341 31.1976
11.9286 20.0043 35.8416
13.2974 20.6198 33.593
13.4769 22.0282 36.3738
12.5272 20.6701 35.1253
12.3007 20.1899 34.4264
12.7987 21.0029 36.1484
12.8966 21.0408 35.2821
13.8181 23.6748 39.2844
12.5156 21.2088 37.3564
12.8927 21.8132 37.5621
12.2401 19.6057 34.3634
12.3298 21.03 37.6412
12.5135 20.6653 36.6462
12.3631 19.7919 33.0639
11.882 20.1841 34.9741
12.1702 20.1904 34.6575
11.7036 19.9182 35.9303
12.1977 20.7113 36.519
11.7424 19.7448 34.6426
11.8465 20.7122 37.6516
12.4709 20.4628 35.2912
11.9279 20.5235 34.9222
11.1344 17.9635 32.6531
11.5911 19.7486 36.4618
11.4869 20.1267 42.0579
17.179 27.9787 42.8557
11.2221 19.7618 36.2305
11.9765 20.7422 36.1391
11.0163 20.0486 37.7996
11.3572 19.5642 35.734
12.2701 21.6369 38.7366
11.6689 20.1472 36.1992
10.8411 18.6293 33.9101
11.4069 20.8429 37.9076
10.8898 19.0001 35.8476
12.018 21.7489 41.5566
13.4583 23.8062 42.5919
12.6701 22.6986 42.1793
12.2652 21.864 41.4162
12.4995 21.2332 39.582
12.7153 22.157 40.1753
12.3824 22.2215 39.275
10.9165 20.2376 39.7485
12.3159 21.4288 38.4846
11.4476 20.2506 36.042
10.2952 18.9213 35.5401
10.4039 19.5081 37.3632
10.3739 18.7369 36.8743
11.4185 20.9345 38.2969
10.1969 18.6122 35.9542
10.7785 19.3337 35.2914
9.8253 18.541 36.6484
10.8716 19.5232 36.9685
10.8107 19.6806 38.5702
11.4532 20.4343 38.6287
10.923 19.6843 37.936
11.5743 20.8115 37.884
10.0776 18.7135 36.8483
10.7322 19.4606 36.4939
10.4884 19.0335 35.2493
9.6546 17.6906 33.4625
9.89262 18.7851 35.492
9.91046 19.1792 37.7036
10.4734 20.752 41.8106
10.3763 19.9855 42.5959
11.3506 20.496 36.9277
8.72681 16.3171 34.045
10.1182 19.2526 37.8019
10.1326 18.4829 36.6977
10.2149 19.5698 37.671
9.3877 18.83 38.5563
10.1534 18.6439 36.2946
9.71363 19.0794 38.792
9.98487 18.6649 36.7805
10.02 18.9224 35.7004
9.44637 18.9217 38.3863
9.8046 19.1855 38.9968
9.68009 18.5375 36.7044
9.23757 18.8242 40.8827
10.9174 21.1511 41.046
8.55171 15.9089 35.1321
10.1106 18.6917 37.0029
9.88038 19.2087 37.9782
9.29806 17.9652 36.1688
9.43479 17.8896 34.6981
8.40692 17.1489 36.5608
9.42162 18.5475 37.6177
8.94069 17.3287 35.4829
9.12206 18.7722 39.4199
9.43122 17.9486 38.2395
9.35527 18.2665 36.8132
8.77083 17.5224 38.3923
9.60472 18.391 37.1348
9.09309 17.6987 38.0847
9.91674 19.5918 38.3952
8.67431 17.5268 37.6325
9.7645 19.9892 41.2661
9.22334 19.0989 40.959
9.39448 18.6982 39.2126
9.45517 18.8133 38.974
8.65558 17.0041 36.9405
8.68622 17.1404 36.6842
8.4338 17.4272 40.048
9.54477 18.8086 39.7895
9.45885 19.6682 41.3837
9.21328 18.3879 38.5265
8.7781 18.3068 38.993
9.12218 18.2954 38.6576
8.65522 17.5588 38.4331
9.03213 18.4316 37.9743
8.4851 18.3403 40.3862
8.59911 17.7172 38.3758
8.45843 17.3631 38.3048
8.41258 16.4877 36.2519
8.61606 17.4714 37.5236
8.95144 20.0026 44.8038
9.24933 18.5748 39.6213
8.1649 17.3622 40.5873
9.34223 18.9362 40.4073
8.59853 18.4987 40.8859
7.94048 16.9432 42.6776
11.0476 21.9809 41.2579
7.67276 17.502 40.1856
8.50428 17.3213 37.7805
8.21212 16.707 36.0214
7.83841 17.5851 40.8367
8.75224 18.0402 39.4782
8.5434 18.1294 40.2649
8.21666 17.3684 37.9559
7.83268 17.285 40.0999
8.03888 17.0204 39.9495
8.6885 17.9451 39.7989
8.33255 17.2625 37.4679
8.16098 17.9786 41.0408
8.68748 18.9584 41.6939
7.95978 17.0561 39.4093
8.08775 16.7218 37.6437
8.14211 18.0429 39.2704
7.41276 16.0516 38.3444
8.06492 16.8349 38.2887
8.12108 17.7181 39.096
7.44902 16.484 38.4893
7.95816 17.3596 39.0949
7.81911 17.5239 41.0755
7.69274 16.7984 40.2281
7.9127 17.0715 38.2699
7.22044 15.6443 36.7428
7.96775 17.5362 38.8866
7.19012 16.0072 38.1547
7.40561 16.4235 39.4198
8.04005 17.1991 37.7806
7.12023 16.2215 38.4064
7.34133 16.1591 38.633
7.35097 16.3739 39.4064
7.77746 16.9824 38.2286
7.09414 16.2365 38.513
7.22675 15.76 37.7748
7.33989 16.8489 38.2194
7.07661 16.817 41.3579
7.56516 16.8783 40.8176
7.72268 17.2477 42.0691
7.7542 16.8011 39.5705
7.515 16.5106 39.3777
7.43578 17.3454 39.5705
6.99211 16.0134 39.2185
6.88174 15.2046 35.3065
6.49926 15.3644 38.0563
7.38299 17.1344 41.2573
7.17151 15.8075 38.0078
7.22551 17.314 40.0421
6.85848 16.0532 40.5435
7.46653 17.3765 41.9786
6.93712 15.5687 39.2873
7.23189 16.3329 38.233
6.70408 15.8957 39.2332
7.00895 16.4051 41.3604
7.04676 15.9909 40.0289
7.44145 16.8439 39.0937
7.25357 17.5197 42.2397
6.94651 16.369 40.3652
6.81672 15.9601 40.1788
