# pn-170911/RbII-av-USN3-1280-1959.psd
# Power spectrum* (dif=0,1,2) (really just |FT|^2)
# NOTE: only the first half! (symmetric)
# weeks: 1280-1959
# 166 clock-days, 154 excluded
# PSD: 1441
40853.8 0.838732 0.0123709
1.09768e+06 21.8769 0.00692593
2.15481e+06 43.8868 0.00636184
464486 12.201 0.00617868
243753 12.1643 0.00672955
129968 7.25314 0.00757862
95924.4 7.85271 0.0089973
68156.8 7.39892 0.00814051
47313.6 7.15029 0.00916524
38592.1 7.43857 0.00981838
29214.7 6.84794 0.00861734
26779 8.26846 0.0117083
20668.2 6.95049 0.010278
17340.4 6.11121 0.013522
15009 6.58551 0.012749
14334.9 7.82587 0.0155439
11274.6 6.69962 0.0133213
10256 6.81368 0.0152708
8131.17 5.81633 0.0176409
7553.65 5.84756 0.0161793
6951.99 6.27661 0.017706
6572.36 6.11818 0.0170151
6762.32 7.27166 0.0223308
5624.82 6.35007 0.0209032
4621.95 5.61616 0.01974
4551.4 6.47571 0.0224058
4840.99 7.56507 0.0300136
3850.73 6.28185 0.0273162
3705.45 7.23385 0.0319024
3695.19 7.12781 0.0334104
3109.67 6.36991 0.0323397
3208.04 6.5348 0.0388003
3390.07 8.44104 0.0500563
2816.53 6.94791 0.0427673
2514.91 6.72646 0.0432371
2403.52 6.54561 0.0433346
2233.96 6.39264 0.0458052
2050.68 6.89999 0.044514
2190.62 8.14086 0.0584196
1849.48 6.39321 0.0500724
1756.85 6.02293 0.0519773
1986.22 7.45216 0.0623138
1665.28 7.45469 0.0682466
1439.74 6.05352 0.0606844
1593.19 7.11857 0.0728497
1443.38 6.60467 0.0742775
1420.7 6.43426 0.0669114
1355.11 7.27592 0.0861912
1444.79 7.67027 0.092416
1203.37 6.31326 0.0790785
1056.04 5.70182 0.0743983
1209.03 6.20477 0.0837535
1043.52 6.62684 0.0905444
1013.09 6.23346 0.0863909
975.593 6.68524 0.097503
907.422 5.75681 0.0903605
936.978 6.29343 0.100072
933.749 6.41007 0.110107
935.161 7.53549 0.126694
869.524 6.41997 0.117096
781.094 6.33276 0.105792
844.434 7.09704 0.121538
747.987 5.49986 0.101479
724.088 6.32883 0.129394
823.901 7.87536 0.167515
735.554 6.86862 0.144988
689.307 6.77389 0.142973
741.256 8.16081 0.181634
592.759 6.39526 0.149252
612.615 6.29199 0.144429
636.156 6.65722 0.151278
628.983 7.65364 0.195881
546.434 6.45384 0.170642
568.889 6.47428 0.173303
518.688 6.8289 0.190508
569.082 7.92907 0.217358
498.436 6.73906 0.197733
563.808 7.14314 0.220244
470.672 6.33255 0.19167
472.211 7.24513 0.221072
481.862 6.44506 0.203659
457.121 7.06775 0.21876
459.981 7.57027 0.251524
442.06 6.89477 0.242362
450.096 7.49673 0.254952
467.887 7.28925 0.25343
460.982 7.83779 0.281045
375.171 7.23859 0.26683
406.506 7.50987 0.273984
376.189 6.39078 0.250305
341.432 6.68181 0.263743
354.764 6.52553 0.257665
387.43 8.30865 0.334742
342.7 6.20469 0.255433
329.709 6.46245 0.28958
356.492 8.08539 0.347479
332.719 6.91175 0.305411
328.893 7.12153 0.308839
306.076 7.39278 0.349582
339.355 6.71249 0.316769
294.446 6.46162 0.316446
294.305 6.71858 0.343485
275.788 6.12184 0.311668
293.642 7.04974 0.346247
296.059 7.33796 0.373889
252.609 6.80592 0.369418
258.924 6.48934 0.357909
275.426 7.16859 0.401967
261.248 7.01956 0.395302
243.967 6.07385 0.357102
275.027 7.72928 0.449703
258.738 7.5601 0.454291
248.128 6.14485 0.36242
227.946 6.50628 0.395738
240.884 7.00355 0.452048
233.676 6.59141 0.433041
227.059 7.48335 0.509927
216.684 6.84279 0.446232
229.928 7.28137 0.48864
199.877 6.40719 0.444681
207.759 6.4291 0.443811
223.253 7.69762 0.537998
202.695 6.73684 0.48706
208.281 6.92459 0.521168
219.244 7.66819 0.540774
199.207 6.63117 0.48876
199.356 6.57745 0.485728
183.56 6.3503 0.490386
196.739 6.78963 0.541246
171.904 6.61641 0.503702
172.231 6.37414 0.507915
177.215 6.90544 0.561481
143.625 6.26656 0.537585
158.139 5.18438 0.420606
175.221 7.01523 0.599109
161.309 7.13799 0.610112
170.185 6.41039 0.566927
169.571 7.6634 0.674042
152.23 7.04393 0.62631
158.659 6.99638 0.634605
147.664 6.10837 0.566788
134.569 5.68278 0.528756
149.512 6.89432 0.676469
136.998 5.87246 0.563064
150.806 6.90979 0.69252
146.68 7.50771 0.722347
143.151 7.2212 0.727439
146.017 6.86682 0.72136
135.574 6.18198 0.645275
139.646 6.51986 0.685113
136.283 6.86303 0.729533
137.569 6.88173 0.757623
142.864 7.82595 0.85258
133.306 7.71516 0.839121
130.886 7.64378 0.915388
132.928 7.31346 0.796555
124.079 7.09357 0.79848
129.347 6.90158 0.814349
121.393 6.85995 0.811074
104.611 5.36621 0.640689
114.5 6.85774 0.829478
117.874 6.61221 0.806619
113.349 6.45677 0.810616
119.097 6.64005 0.869182
107.152 6.08308 0.765527
114.032 6.61703 0.893733
138.256 9.49736 1.18255
111.838 7.06576 0.97219
108.828 5.75639 0.765257
107.511 7.07774 0.939193
105.71 6.49617 0.89309
104.648 7.0073 0.987228
90.7034 6.26489 0.858637
117.447 7.84321 1.1011
104.56 7.01539 0.997716
95.3898 6.56177 0.957339
105.175 7.14892 1.06384
93.7541 6.55922 0.970691
108.079 8.11517 1.20597
85.071 5.99668 0.936622
90.6684 7.07646 1.01289
94.5761 7.27713 1.18402
84.4426 5.83586 0.90873
92.6559 7.48967 1.20043
95.5293 6.71929 1.08835
96.7095 6.72557 1.12023
82.4742 6.36601 0.999387
83.3731 6.43064 1.07697
79.6329 6.0562 1.02316
81.849 6.02717 0.988839
83.9418 6.49438 1.11533
89.6844 8.19341 1.39714
88.498 6.84491 1.19118
89.7151 7.37314 1.26822
82.6124 6.46204 1.15953
88.2515 6.95266 1.23388
65.6632 4.85834 0.890501
83.883 6.49007 1.20826
77.4961 6.2681 1.13484
80.0446 7.61961 1.38582
85.6939 7.149 1.29198
79.043 7.34162 1.3963
81.4714 7.18869 1.40499
85.4492 8.76135 1.71556
79.025 7.50246 1.4488
72.5542 6.58135 1.28287
71.0186 6.88283 1.38546
67.2763 6.26618 1.26061
74.8117 7.33628 1.51308
68.8602 6.99468 1.4297
71.0622 6.91374 1.36213
70.8536 7.32976 1.47706
67.5765 7.42973 1.51222
73.1435 7.80319 1.65088
73.5389 7.39927 1.55742
64.388 6.98506 1.5306
69.3607 6.51407 1.44969
65.7294 6.57188 1.39761
61.5054 6.64314 1.50047
73.7981 7.22223 1.63427
55.3353 5.54286 1.30476
68.0986 6.39247 1.43127
61.3172 6.21462 1.46658
61.6726 7.11933 1.61102
60.2458 6.49833 1.61995
61.9201 7.15699 1.60504
57.9862 6.56239 1.56322
65.1698 7.45952 1.79672
59.9272 6.68008 1.6173
65.1524 7.50551 1.85111
58.2974 6.60668 1.6164
56.2402 6.78434 1.72862
60.5961 7.21483 1.84572
56.4656 6.75492 1.70817
49.8551 5.50954 1.45286
54.1653 6.1476 1.55271
53.6666 6.4901 1.68037
55.1494 6.12203 1.59641
53.7693 7.11539 1.87284
53.7369 7.1366 1.93208
53.6766 6.61174 1.76488
51.4128 7.04323 1.95401
54.5929 6.4367 1.70583
54.1424 7.18307 1.92452
51.8503 7.1081 1.9768
53.625 6.54005 1.76929
54.5868 8.06197 2.30895
52.5202 7.5381 2.00885
56.2457 7.61749 2.22558
48.6877 6.80811 1.9193
50.4146 6.99143 1.95415
53.8468 7.40363 2.24364
48.4871 8.41769 2.50578
54.4413 7.79588 2.36314
47.4046 7.13297 2.18013
46.8999 6.50263 1.96196
46.8785 6.18584 1.90776
48.9357 6.91568 2.17078
51.7188 7.5943 2.31476
43.8623 6.51207 2.02632
49.3812 8.42359 2.61924
44.4793 5.67475 1.79162
46.5218 6.61071 2.12106
46.3205 7.5022 2.36559
51.2369 7.92763 2.504
39.5298 6.57279 2.14407
44.4088 6.02125 1.97082
43.5676 6.23312 2.06482
47.7597 7.59726 2.55442
41.7212 6.36858 2.20067
42.3409 7.09111 2.38576
50.6384 8.28753 2.83782
42.7391 5.74928 1.95036
36.2704 6.2621 2.29379
42.8677 6.65818 2.34949
39.6015 5.78852 1.92394
36.2168 6.46065 2.27793
42.296 7.30261 2.7079
41.1571 7.56582 2.60093
40.1814 7.22811 2.60049
40.2548 5.65143 2.06277
38.0153 7.1286 2.56105
38.4767 6.19998 2.24173
40.2 7.06504 2.77972
38.3659 7.32497 2.81785
42.9097 6.91241 2.64193
37.4361 6.90914 2.60725
37.2186 6.95415 2.70901
39.0177 6.80107 2.57008
40.0342 7.50156 2.87452
42.7295 8.41939 3.13719
34.4638 6.67029 2.67113
39.0329 7.505 2.93592
35.6333 6.24791 2.44487
37.4857 6.57477 2.62543
40.012 6.6623 2.53625
45.8 10.5431 4.25443
32.2695 6.06362 2.64858
38.0849 7.11716 2.79791
34.5475 6.54279 2.70126
33.4553 6.33478 2.63715
33.8544 6.27689 2.64312
36.4963 7.17457 3.01126
33.6429 7.87628 3.34001
34.0186 7.17151 2.95844
32.5721 6.61652 2.83405
36.594 7.45994 3.17917
34.3406 6.90583 2.87127
33.4328 7.44567 3.12594
38.6253 7.41024 3.18749
30.6409 6.48417 2.94562
32.438 6.92901 3.09698
33.5905 5.84848 2.59217
33.4833 7.29161 3.31498
35.3203 7.46728 3.25315
30.4863 6.48919 2.95239
33.5637 7.75202 3.54144
33.0545 6.59428 3.08135
30.1841 6.18964 3.00995
33.2159 7.28857 3.31666
29.7115 6.14259 2.89428
29.6407 6.32238 2.97573
32.169 7.14951 3.48129
28.4078 6.26759 3.21858
32.7368 7.74943 3.49545
30.6191 7.00078 3.49642
32.4379 7.55657 3.62642
31.8692 8.14807 4.09314
30.6418 7.16984 3.54695
29.1954 7.4945 3.61383
32.1686 7.60554 3.83031
30.0128 8.03736 4.02829
27.2916 6.7589 3.17827
29.8528 7.03988 3.65217
28.4919 7.42299 3.7646
30.2799 7.68466 4.03663
26.5414 6.39266 3.22007
25.8733 6.77416 3.36435
31.4869 7.19674 3.84519
29.8176 8.07677 4.19117
27.7081 6.8922 3.72624
26.171 6.41658 3.47437
27.1473 8.05789 4.29557
30.3181 8.19804 4.32003
26.1631 5.96598 3.19823
24.8292 6.01784 3.18113
27.3264 6.49773 3.57154
27.4293 6.88905 3.76412
25.5133 7.64647 4.25781
26.4495 6.07686 3.26353
25.1379 6.84536 3.90464
27.5051 6.77785 3.76003
27.1194 6.99339 3.86542
26.5969 7.78095 4.48227
25.6733 6.14167 3.61515
26.921 7.94545 4.55569
24.566 7.19422 4.12894
27.9392 6.55712 3.75244
23.047 6.34914 3.56075
25.4773 6.83404 4.09972
27.5168 7.4872 4.21291
23.288 7.06405 4.23501
23.8267 5.64934 3.36227
23.5775 6.54346 3.99722
24.4349 6.73121 4.04421
25.0939 6.59764 3.95421
23.2127 6.59125 4.02115
24.5038 7.06036 4.22009
22.9184 7.03192 4.41272
23.5319 7.29211 4.53724
22.9354 5.7892 3.60427
24.0923 7.54844 4.80564
24.0675 7.40996 4.62943
25.5149 7.09171 4.40155
20.9365 6.59354 4.27864
26.1656 8.24799 5.10913
24.8307 7.6687 4.69718
22.2625 6.74882 4.22401
25.186 6.78965 4.2533
23.6154 6.91266 4.52919
25.1861 8.57737 5.57179
24.6329 6.90465 4.38813
20.4097 6.90795 4.61487
22.0204 6.98868 4.53197
21.249 6.50464 4.45911
22.2404 7.58623 5.23636
25.6608 7.35742 4.45206
19.7409 6.09946 4.37993
22.3365 6.8396 4.52601
20.9852 6.60426 4.46545
18.4463 5.98114 4.44581
23.1859 7.51734 5.32916
21.4243 6.25878 4.25008
21.5032 7.5766 5.14615
23.0599 8.30564 5.93195
20.1967 7.07772 4.88278
19.6267 7.1052 5.23739
24.221 8.62867 5.92851
21.8561 7.23699 4.95666
20.8891 6.50245 4.75326
17.9847 6.29502 4.78863
19.009 6.43156 4.88921
23.9903 7.76817 5.54992
22.1565 8.07023 5.51538
21.2796 7.79483 5.8065
19.8478 6.61928 5.12042
20.4985 7.65717 5.33363
21.1261 5.68057 3.98852
18.4968 6.93402 5.24395
19.8411 7.00261 5.23195
22.9367 6.76242 4.96456
19.0177 6.47181 4.76837
19.1836 8.1413 6.15716
21.3801 6.95406 5.34285
18.4722 6.82329 5.25586
20.4952 7.22523 5.54891
20.3329 6.77151 5.30874
18.9425 6.62912 5.17821
21.0868 5.90489 4.54408
18.5776 6.88475 5.26541
20.2686 7.42376 5.84973
19.5614 7.05429 5.65197
18.9109 6.88042 5.91891
20.0792 6.85719 5.12703
17.5144 6.56998 5.18979
17.7526 5.86995 4.64632
19.1489 7.43072 5.75595
17.5552 6.95491 5.46161
17.5725 6.70099 5.59096
18.9113 6.53271 5.34355
17.7414 6.73747 5.55953
17.6862 5.53628 4.49407
19.5757 7.98547 6.39586
19.0228 8.55456 6.70391
17.6537 7.61501 6.55743
19.0574 7.93588 6.79054
17.6976 6.72888 5.90046
16.7937 5.79973 4.53393
15.4525 5.46133 4.81304
20.0411 9.43498 8.26178
17.5641 6.29831 4.90209
17.5676 7.49407 7.00055
19.8829 7.60567 6.21939
18.6065 8.02359 6.71531
18.4425 7.17597 6.4304
16.4223 7.25752 6.31937
18.1699 8.04935 7.12314
17.9984 6.79233 5.98773
17.5889 7.38029 6.7926
16.5675 6.39808 5.69631
18.4754 7.81316 6.48659
15.0532 7.02873 6.39227
18.7979 8.63246 8.02258
18.7701 6.76234 6.00468
16.847 7.96791 7.10097
18.4885 8.03872 7.50248
17.3322 7.85366 7.77883
18.5524 8.11247 6.75389
17.8138 7.33755 6.60945
15.5484 6.7581 6.52242
17.493 9.4602 8.78437
17.1792 6.16238 5.66264
14.7467 6.40348 5.8148
16.4417 6.10152 6.01483
15.0781 6.62771 6.31109
15.0157 6.15566 5.6505
15.5122 6.66186 6.45366
14.7535 6.8806 6.80656
18.4273 8.68422 7.69604
16.6211 7.16522 6.78003
14.2146 6.19677 6.31554
16.1738 7.12743 7.24381
17.4626 8.60962 8.13608
15.1372 8.06752 7.60005
15.5235 6.55869 6.56739
15.3195 7.13293 7.00993
16.7797 7.14015 6.85774
17.2033 8.04783 7.89869
15.104 7.55339 8.00764
16.2235 6.4922 6.67268
13.7387 6.88318 6.86795
15.3517 7.23846 7.05005
16.2516 7.27099 7.53308
14.2626 7.52696 7.63728
15.7705 6.82154 7.26138
15.7154 7.74193 7.45005
13.2 6.85784 7.1122
16.0827 7.22224 7.43246
14.7789 7.6047 7.06393
12.7102 6.21866 7.02465
16.764 8.22925 8.13756
13.7246 6.66201 6.88077
13.9931 6.16388 6.53563
14.2072 7.30124 7.8007
13.7454 7.77625 7.98622
15.8095 6.16373 6.08184
11.8569 5.72767 6.27184
14.3829 7.78553 8.55774
14.3914 6.72582 7.21738
12.9958 6.68287 7.12048
14.662 6.85033 8.11706
14.7902 7.67195 7.87406
14.7491 7.68291 7.88315
15.4983 8.41753 9.56899
14.1042 6.76646 8.15143
14.3765 6.9433 7.35572
13.9948 6.47391 7.61639
12.9992 6.97401 7.05665
12.7682 6.81998 8.24341
15.3469 7.7634 7.8646
12.9543 7.26998 8.19415
15.7693 7.77299 8.74029
14.0519 7.85406 8.86639
13.5807 7.61565 8.94323
14.4577 7.88985 8.77985
13.2247 8.19382 9.29307
14.2135 7.64271 9.04979
14.0824 7.38122 8.54855
13.2267 7.82839 8.86934
13.9424 6.45247 7.47218
11.6757 7.42078 8.2605
13.6274 7.60272 8.56764
13.702 8.03713 9.65079
11.1303 6.43101 7.38088
13.1524 7.22866 8.57169
12.1396 6.55066 7.98639
13.062 7.66835 8.9287
12.8472 6.32375 7.4857
11.4697 7.26983 8.63955
13.2501 8.1759 9.03892
12.1224 6.19263 7.76816
11.8329 7.7781 9.45426
13.4901 8.91301 10.3609
13.1907 7.74923 9.57865
10.8949 5.9867 7.39763
13.7434 7.82339 9.49132
11.5411 7.01385 9.29327
12.871 7.08894 8.65345
12.427 6.9591 8.73214
10.5925 6.26473 7.6219
12.6566 7.00327 8.58462
11.5213 6.70861 8.47477
12.7713 8.6201 10.1696
12.3938 6.25042 7.81204
11.2232 5.93239 7.92766
12.3016 6.99725 8.42662
12.6307 7.85368 9.85785
12.5023 9.30902 11.1081
13.0276 7.81802 9.27521
10.4663 6.61817 8.84414
11.8091 7.27856 9.54834
12.795 7.33578 9.20094
10.5456 6.43479 8.11862
12.9794 8.75152 11.9203
11.9134 7.65457 9.48831
11.0205 7.02309 9.28756
12.301 7.58307 10.2682
11.3537 7.34814 9.57271
13.0073 9.48116 11.8784
11.6338 6.60513 9.08427
11.2799 6.6614 8.26539
11.9266 6.44983 8.26951
11.8824 7.2466 9.21538
9.81206 7.96008 11.3031
12.119 7.36628 9.68378
10.6261 6.58381 9.48051
13.5533 9.54683 12.4354
12.4188 7.78724 10.6035
11.105 7.78367 9.82054
11.8903 9.08024 12.0507
12.2983 9.37178 12.8957
10.8076 7.88972 11.0438
12.5582 8.75632 12.4286
10.987 8.25423 11.1135
10.3568 7.68023 11.5682
12.1407 7.63209 9.55772
10.8996 9.36372 13.0133
13.0187 8.40073 11.2804
12.1793 7.8802 10.808
9.37172 6.96707 10.653
12.5743 8.53018 11.7937
10.2042 7.19362 9.99772
10.7794 8.31939 11.9893
12.6742 7.51023 10.3731
11.1116 8.41457 11.5035
11.2243 8.05945 11.2976
11.5051 6.90312 9.51213
9.4891 6.72484 10.3036
11.5061 6.81991 10.6985
11.2081 8.70035 12.0301
10.6768 7.26937 10.7936
10.5506 7.75695 10.89
8.43663 5.89338 9.11372
12.113 7.57341 10.5612
10.7504 7.78426 11.5086
10.9369 8.74277 12.4792
11.2005 7.35335 11.1891
11.0727 7.86369 10.7838
8.90701 5.95156 9.05633
10.7107 8.15725 12.6483
9.89929 7.64236 11.3834
12.4216 9.85616 14.124
11.1681 8.48141 13.5074
9.87351 7.75236 11.4475
12.262 8.42296 12.7197
9.7623 7.37765 10.6469
10.0306 8.16975 11.9904
11.3631 8.01411 11.7875
10.2105 8.42814 12.2197
10.2977 6.72042 10.6427
11.2854 10.3152 16.6977
10.6737 7.87803 12.1064
11.5238 7.40891 11.1064
9.95656 8.10085 13.1152
11.1291 8.21628 12.4839
11.3114 6.88433 9.99699
9.00982 7.72401 11.7429
10.3811 7.28145 12.9684
10.8106 8.68182 12.9628
9.93524 7.53973 10.8422
10.8536 7.19917 10.9437
9.02195 5.62901 9.60472
10.0714 8.05254 12.4047
10.0205 6.98102 10.5949
9.58505 7.38802 10.6663
10.4846 7.55795 12.1887
9.47656 7.0449 11.4729
9.40206 7.42035 12.331
12.5591 9.53737 14.0844
8.8658 7.33968 11.5852
10.9845 8.57283 14.099
10.5697 7.99543 12.7612
9.35728 7.49909 12.2274
9.90187 6.78717 11.5309
10.2334 8.57311 13.9402
10.4342 8.95891 14.3744
11.1286 9.31008 14.3867
9.28464 7.40405 11.9425
9.18568 7.66055 13.1622
10.1703 6.28155 10.3924
8.01249 5.78714 9.8711
9.84191 7.83969 12.7962
9.09812 7.59127 13.9826
9.53384 6.55058 10.2482
10.1103 7.25648 11.9532
8.37622 6.80014 11.4309
9.07968 7.47685 11.5607
8.77703 6.96958 12.9851
7.83135 5.83595 10.7659
10.2329 7.11317 11.2265
8.45818 7.27934 13.2836
9.8592 7.62581 12.0283
8.97134 6.245 11.6796
8.41416 7.28506 13.4151
10.1766 6.94038 12.4183
10.0012 8.36252 13.3172
8.82351 6.59579 10.642
8.7369 7.94166 15.1292
9.48303 7.68266 12.5154
9.38512 8.10529 13.8281
9.77002 7.50812 12.3688
8.77824 7.72748 13.5174
9.54079 7.22362 12.8222
8.7329 7.66242 14.5986
9.88733 8.42626 13.5003
9.80013 6.97737 11.2281
8.92026 8.78837 15.3508
8.25374 7.2594 13.3884
9.80666 8.52676 15.1676
7.96326 7.87655 15.2949
9.58592 7.9371 16.087
10.2963 8.94083 14.1255
8.32142 7.31339 13.6496
10.811 8.82628 13.3046
8.0304 8.77999 16.2354
7.55352 5.72424 12.0366
10.1551 8.11153 13.6056
8.15378 7.15852 13.743
9.86871 7.43366 12.5032
8.42986 6.1642 12.3356
8.26377 8.30425 14.9346
9.71361 8.34695 15.9936
8.68663 6.57837 11.7074
8.98431 7.2644 12.2174
9.00545 7.79876 16.6343
8.62781 8.6657 15.7514
9.56622 8.22756 14.7277
8.27987 6.97108 13.8117
8.22179 7.43712 15.6522
9.94786 8.2372 14.5445
9.24404 8.95034 15.4932
7.73267 6.9457 13.3971
9.00962 7.45876 13.5883
8.5561 9.9256 17.0558
9.30887 8.85219 17.1175
8.99359 8.94129 16.4584
7.28593 6.16077 12.6701
9.252 8.11188 14.3895
7.67545 8.2449 15.2924
7.99054 7.5956 15.0055
8.42451 5.90693 11.7925
8.03437 7.36382 15.0755
9.23466 9.02143 16.8302
8.44883 7.18499 13.9658
7.86378 7.53822 13.4714
8.46162 8.39366 17.0154
8.60603 7.91302 14.5946
9.18533 8.96326 18.0413
8.45792 6.88833 12.7715
7.60949 7.8302 15.8384
8.72672 6.71704 12.8923
8.55388 7.65654 15.253
8.49348 9.19722 16.6432
8.20615 6.90389 14.7408
7.98883 8.10502 17.1583
8.95123 8.626 16.0802
8.34365 6.78103 14.1154
7.59938 7.47061 15.0712
8.73634 7.82792 16.2959
8.65067 8.77751 16.3341
8.15879 8.58279 17.6042
9.19924 8.65373 16.5778
8.03017 7.99602 16.1468
9.3175 9.62378 16.772
7.89396 7.99904 16.6739
7.17887 8.68472 17.0517
8.35605 7.93265 17.1113
8.44555 7.6113 16.483
8.01626 9.64056 17.9008
8.60451 8.60766 18.9761
7.13621 7.30485 15.493
8.10988 7.50014 13.1016
7.65712 7.46413 17.361
6.80395 7.95886 16.0327
9.15832 7.40924 14.7813
7.69816 9.18979 19.064
7.40859 7.25614 15.727
8.55573 7.53897 16.7908
7.67137 8.62375 17.8256
8.09034 8.60367 18.5063
8.1472 7.96599 16.0708
7.24882 8.95949 18.4331
8.24673 6.75782 13.6383
7.58989 8.92775 18.8081
7.35036 7.73335 17.1361
9.04131 7.41631 15.4574
7.28645 9.45374 18.1411
7.83006 8.91797 18.8627
7.83881 7.23098 15.5574
6.44394 7.36503 16.4658
7.87481 7.62478 15.0898
7.4597 8.92597 20.3763
6.87187 7.21833 17.5041
8.23455 7.6745 15.4107
6.63054 7.74089 16.0432
7.45542 7.09554 14.5957
7.04292 7.46986 17.8223
7.80123 9.10708 19.7375
7.95532 7.7016 15.8939
7.10026 6.48113 14.3709
6.88445 8.82971 18.8594
8.28751 8.84647 16.4642
5.65955 6.22828 15.4235
7.79439 9.16246 18.2338
7.58407 6.91542 15.5253
6.86422 7.06425 14.6988
7.16097 6.36143 15.5401
8.02677 8.82486 17.1163
6.42198 7.95793 18.1721
7.56892 7.90974 19.4223
6.87333 7.92643 19.6453
7.69444 7.44404 15.8141
7.2935 8.27041 16.6979
6.25581 7.45326 17.9837
8.26227 8.53299 19.5994
6.69351 6.99561 13.8353
6.49718 7.38822 16.0877
7.50564 8.99098 22.8233
7.27648 8.13637 16.6147
7.14983 6.70378 16.4842
7.28451 7.77109 17.8295
6.18859 7.37494 15.808
7.62103 7.93087 17.777
7.45753 8.4651 16.9991
6.4658 7.49797 17.9155
8.19374 8.0679 18.0407
5.79508 7.64178 19.1513
6.6964 7.61125 18.2
7.03538 7.63356 15.9641
6.19601 6.95576 15.7889
7.60475 7.91945 18.4403
6.72466 7.44682 18.0273
6.72872 7.64873 16.8079
7.56907 8.27136 19.028
6.03376 6.59539 14.2402
6.76611 7.19522 18.8369
6.81003 7.3393 19.272
6.76287 8.0757 17.6067
7.33368 6.40977 14.5507
6.22344 7.21881 16.6764
6.5942 8.52277 19.0816
7.34138 9.07482 22.0174
6.42114 6.56887 14.6446
6.29758 6.44935 16.185
6.7375 8.13099 20.8958
6.94731 8.2465 17.9254
7.33522 9.28716 23.364
6.26034 6.93875 17.8832
7.01565 8.40679 19.6199
6.95649 6.97023 16.6538
6.21062 8.61977 19.365
7.00184 7.48419 19.0822
6.91062 7.16006 17.5312
6.68725 7.39596 16.7174
6.91015 8.48311 20.608
6.58095 6.80428 15.4876
6.65139 8.27602 18.4582
7.17367 6.55475 16.7212
5.84006 7.36911 17.0337
6.67762 7.87678 20.4383
7.00431 9.196 20.9696
5.99109 7.41519 15.948
6.90864 7.29899 17.7235
5.58824 6.46399 15.7122
5.58497 6.10515 18.432
