# pn-170911/RbIIR-53-AMC2-1280-1959.psd
# Power spectrum* (dif=0,1,2) (really just |FT|^2)
# NOTE: only the first half! (symmetric)
# weeks: 1280-1959
# 414 clock-days, 112 excluded
# PSD: 1441
1131.29 0.115984 0.0680236
27169.5 0.58178 0.137464
152926 3.23606 0.148312
17229.1 0.602375 0.171415
61416.7 4.81835 0.148418
5862.78 0.569864 0.145529
5282.68 0.793041 0.144086
3013.76 0.586306 0.14383
3757.89 1.05575 0.150977
1941.11 0.629799 0.147367
1858.25 0.778868 0.156888
1432.76 0.693901 0.137498
1408.71 0.842042 0.153761
1116.71 0.80036 0.154598
1083.43 0.905173 0.163277
925.394 0.944182 0.139027
1014.84 1.11356 0.148669
806.491 0.980927 0.137221
879.225 1.2514 0.143132
762.922 1.17916 0.152592
756.051 1.36685 0.150545
757.133 1.44188 0.149981
793.835 1.76925 0.15173
805.314 1.91445 0.143476
684.117 1.88353 0.157504
691.195 2.01095 0.159538
693.74 2.09196 0.164396
652.726 2.23653 0.159222
730.08 2.65453 0.162972
696.438 2.70992 0.173592
693.41 2.83972 0.16509
691.874 3.06605 0.1542
749.67 3.58115 0.184583
638.962 3.33962 0.170955
674.332 3.56469 0.172475
720.17 3.95211 0.180694
726.406 4.29045 0.179063
653.747 4.17422 0.185589
691.017 4.70152 0.188981
686.569 4.89979 0.179934
683.805 5.13295 0.218483
707.291 5.47049 0.192374
696.143 5.79415 0.195606
702.867 6.237 0.195726
655.688 5.90247 0.196805
663.9 6.33985 0.195117
629.927 6.10984 0.228323
666.743 6.76476 0.227297
731.93 7.94683 0.237433
610.47 6.89184 0.225125
590.885 6.85151 0.230616
645.817 7.77017 0.259995
631.156 7.9031 0.258932
615.141 8.01003 0.258039
619.817 8.56458 0.270249
596.559 8.50527 0.292393
590.741 8.65792 0.307404
630.952 9.71241 0.286138
628.086 9.77074 0.304693
551.381 8.89737 0.289729
610.216 10.3475 0.326103
544.595 9.51977 0.289225
608.89 10.6239 0.345086
558.572 10.2509 0.341124
571.944 11.0166 0.358219
566.449 11.2992 0.398485
566.421 11.6716 0.381449
495.284 10.6083 0.377544
490.506 10.571 0.403943
546.743 12.2372 0.441443
522.134 12.162 0.415856
479.354 11.1903 0.393596
502.1 12.0586 0.417611
463.943 11.5 0.436261
473.459 12.3767 0.512066
497.565 12.8596 0.470401
451.98 12.0756 0.467549
428.629 11.9444 0.478529
450.729 12.923 0.513723
440.535 12.8834 0.512592
370.503 11.1423 0.491914
405.344 12.4352 0.526872
400.242 12.4389 0.541423
444.731 14.0264 0.597752
400.57 13.0803 0.534108
411.825 13.8602 0.633822
361.81 12.5128 0.603737
360.001 12.9237 0.551815
345.615 12.4546 0.552286
381.942 14.1619 0.669868
356.305 13.4203 0.605709
369.247 14.293 0.716099
362.386 14.5475 0.753196
376.986 15.3729 0.765341
334.273 13.5007 0.691527
312.8 13.2601 0.731208
389.943 17.0156 0.879208
336.675 14.5777 0.782683
334.648 15.0922 0.822852
310.357 14.4651 0.856199
315.735 14.7578 0.78704
307.499 14.6058 0.87797
310.447 15.1771 0.867621
302.665 15.1511 0.867437
299.862 15.151 0.869963
256.409 13.6423 0.870817
291.439 15.1582 0.959516
256.89 13.4598 0.871765
296.606 16.0849 1.00348
292.846 16.5115 1.01633
306.291 17.025 1.0881
278.827 15.7543 1.01834
260.999 15.6645 1.03761
244.334 14.4865 1.00116
262.475 15.9403 1.1441
242.824 15.1236 1.03742
263.269 16.6224 1.16876
245.771 15.5993 1.11257
249.532 16.2398 1.20202
232.036 15.3962 1.15817
241.707 16.3761 1.22442
255.569 17.4207 1.29171
224.229 15.5614 1.24677
216.297 15.0012 1.19444
207.295 14.8989 1.1645
239.37 17.9132 1.46377
237.147 17.6726 1.47176
238.574 17.6781 1.37467
222.749 17.0705 1.44547
204.008 15.7184 1.37648
219.187 17.4675 1.50939
219.976 17.4441 1.48542
220.852 18.1945 1.60153
189.563 15.7977 1.48456
226.342 18.9403 1.66937
196.185 16.9269 1.57088
186.062 15.9576 1.51704
206.889 18.1739 1.68161
170.759 15.1782 1.52647
174.395 16.2255 1.55803
189.621 17.3913 1.72741
187.368 17.1176 1.73879
178.824 16.5329 1.60923
182.652 17.3649 1.78786
198.957 19.21 1.97194
180.872 17.59 1.87583
168.629 16.2078 1.7411
179.149 18.1639 1.94016
171.628 17.8523 2.01008
181.281 18.7096 2.01613
177.841 18.5908 2.04578
166.538 17.8855 2.05437
180.591 19.147 2.09037
155.965 17.2086 2.04214
156.395 16.8289 1.85812
150.273 16.5851 1.95196
169.878 19.1847 2.24345
160.372 18.5292 2.22449
150.995 17.6907 2.09363
139.127 16.8487 2.15597
147.652 17.5089 2.1568
168.574 20.3779 2.5756
141.929 16.8131 2.18576
157.371 19.6585 2.50174
154.112 19.1799 2.45439
141.216 17.8187 2.36239
148.624 19.1351 2.5741
154.219 20.0708 2.68082
149.038 19.5833 2.70761
131.94 17.3294 2.45266
131.241 17.5676 2.523
140.655 19.0476 2.70059
142.045 19.6005 2.82666
132.661 18.5482 2.64609
142.885 19.7991 2.95272
162.134 23.055 3.4255
137.659 19.8164 2.91284
130.011 18.9103 2.81846
119.943 17.6321 2.70999
131.906 19.635 2.97312
133.037 20.0474 3.07031
121.346 18.6324 2.93241
129.513 19.5442 3.08813
120.588 18.7499 2.96156
129.211 20.4611 3.2199
139.044 22.0622 3.68367
131.78 21.0756 3.53093
117.47 18.9416 3.20848
120.87 20.3761 3.44954
123.156 20.3465 3.45751
114.534 19.3113 3.33594
106.919 18.0346 3.08809
136.807 23.3917 3.93045
119.648 20.3736 3.55748
105.866 18.6549 3.36247
114.361 20.2219 3.57658
122.783 21.8874 3.96979
120.368 21.2335 3.79132
101.251 18.739 3.54439
108.306 19.824 3.70718
107.834 19.9103 3.7962
109.014 20.58 3.88527
106.738 20.0689 4.00493
101.784 19.1476 3.67548
117.475 22.2449 4.39903
105.887 20.2805 4.03314
106.04 20.8602 4.03454
108.25 21.412 4.30166
101.599 20.6978 4.24436
105.365 21.5311 4.54468
115.621 23.0327 4.71672
104.842 21.5725 4.5647
102.375 21.3481 4.43588
100.963 21.6652 4.6517
101.601 21.5939 4.57056
99.0512 21.1174 4.52855
110.265 23.7025 5.17923
104.846 22.468 4.91097
98.1995 21.7071 4.80281
113.674 25.2499 5.54869
109.247 24.6661 5.70864
93.013 20.7327 4.80178
114.559 25.8726 5.82399
91.8495 20.6492 4.85555
89.4165 20.9437 5.02701
82.1945 18.5808 4.43799
100.407 23.2338 5.55091
98.9806 23.2833 5.43104
100.688 24.5648 5.96745
92.8626 21.9394 5.22495
98.2613 24.2603 5.89533
93.3411 22.6917 5.68253
89.9469 22.33 5.55577
89.4413 22.7922 5.8526
89.6463 22.4927 5.65944
93.6841 23.8899 6.11347
87.6883 22.2043 5.78627
86.2128 22.4381 5.81311
93.4116 24.1616 6.40325
85.8596 22.8596 6.1737
95.7045 24.8816 6.67535
84.5054 22.8633 6.23265
87.3461 22.5179 6.02169
81.8349 22.4679 6.34956
90.5058 24.6153 6.7735
82.6434 22.8322 6.1448
84.9641 23.5218 6.63365
86.3518 24.1082 6.97964
92.7575 26.3108 7.51076
88.701 25.0943 7.10065
87.2259 25.4338 7.35849
80.1248 23.1633 6.76282
85.1722 25.3238 7.44225
82.9967 24.4386 7.21618
85.8364 25.1269 7.44112
79.5195 24.069 7.56322
79.4045 23.5631 7.04516
81.971 24.8793 7.60287
79.2223 23.8147 7.35033
79.2961 24.5084 7.54613
82.0652 25.7115 8.15193
75.628 23.3324 7.51601
81.5367 24.9837 7.86149
78.5171 25.2875 8.26171
82.4344 26.2215 8.35776
76.4976 25.1244 8.16925
82.0384 26.1636 8.64265
85.1046 27.1251 8.68323
75.7329 25.6684 8.70912
81.3573 27.1569 8.88638
83.4325 27.6451 9.32629
74.4088 24.5721 8.20123
70.6564 23.8002 8.15387
73.7853 24.8935 8.59245
74.2917 25.5121 8.81902
67.3027 22.9262 8.06037
78.405 27.2023 9.38852
72.691 25.8325 9.25817
71.1394 24.4172 8.58361
70.4777 24.8845 9.15211
70.6076 26.0843 9.66475
74.3632 26.6884 9.75977
67.7213 24.1926 8.78167
69.3887 24.5814 8.88072
74.771 28.1814 10.3994
68.8456 25.8935 9.99115
66.8196 24.6701 9.53602
66.984 25.8507 10.2224
89.9769 33.5278 12.219
61.9465 23.1867 8.88785
67.8959 25.6666 9.88104
65.0796 25.345 9.91547
68.5723 26.3515 10.2788
66.4405 26.4551 10.3252
63.6487 25.3953 10.3488
65.9242 25.1816 9.79613
65.3128 25.8887 10.4531
70.0439 27.6742 11.0465
68.342 28.022 11.6283
63.6238 25.701 10.7723
65.2247 26.0289 10.6015
62.5681 25.7387 10.848
65.9067 27.1794 11.3742
66.158 27.542 11.6926
62.8237 26.1896 11.0037
62.501 26.039 11.0698
63.896 27.1905 11.8784
64.6511 27.3752 11.7711
63.1932 27.1152 11.7524
57.2597 25.1002 10.9315
55.9933 24.4162 10.8596
62.446 27.4062 12.2875
64.038 28.5522 12.6456
60.8984 27.0774 12.3693
62.2321 26.6937 11.8151
62.1509 28.3701 12.8593
60.1681 26.3505 11.8433
53.8881 25.1881 11.8128
60.1506 26.8327 12.201
62.7983 29.4128 13.5369
55.9868 25.3513 11.8287
56.8603 26.4858 12.6499
57.3171 26.9203 12.707
60.8094 27.8465 13.3967
57.3876 26.6472 12.4844
55.4052 26.1948 12.5178
55.0683 26.2649 12.8711
56.9866 27.6735 13.5674
57.7104 27.8827 13.6996
52.7358 25.0543 12.3537
59.5335 29.3048 14.5279
61.2884 29.8826 14.5418
54.6718 27.7507 14.1851
54.5359 27.0178 13.4378
51.7234 25.3728 12.9239
53.5536 26.5793 13.5499
52.8861 27.0544 14.079
52.8866 27.1572 14.1293
53.3156 26.5394 13.5183
56.5912 29.3205 15.1913
53.519 28.9794 15.6066
54.5399 27.8171 14.5871
53.8579 27.4428 14.4958
50.3438 27.0793 14.417
53.311 28.5205 15.5723
56.084 29.9227 16.2163
50.5741 25.7247 13.643
54.4166 29.2645 15.5311
52.9485 29.5028 16.3446
56.1196 30.1552 16.5431
52.1767 29.0106 16.0929
51.7055 27.8007 15.4887
52.4683 29.0066 16.1796
50.1571 27.9263 15.7681
54.76 30.8245 16.9968
50.1871 29.2373 16.7899
48.799 27.5915 15.8225
49.4376 28.3037 16.2258
48.4953 28.2022 16.6678
50.8241 29.1412 16.8269
46.8268 27.0375 15.9348
43.4947 25.1962 15.0853
47.2697 27.6262 16.3384
46.6289 27.1261 16.1791
51.7062 30.2231 17.6926
46.8598 28.8689 17.6938
45.9712 27.2144 16.1869
44.0374 26.5361 16.0839
44.6922 26.6754 16.572
50.8085 30.5512 18.7462
42.2261 24.8616 15.2874
50.9683 31.087 18.665
46.6236 29.3602 18.637
45.2974 27.2851 16.9151
46.8366 29.1972 18.1687
43.136 26.9317 17.1761
43.884 27.0058 16.7507
43.7655 27.206 16.8017
43.6864 29.2177 19.6162
46.0118 29.0828 18.3842
39.9329 25.595 17.0377
42.0469 26.8215 17.52
45.8825 30.4888 19.9054
45.0433 29.5967 19.7831
49.8818 32.302 21.0246
47.4252 31.0629 20.7893
44.5382 28.9163 19.3674
45.7625 30.2374 20.129
46.2878 29.8923 19.7449
45.1115 30.0902 20.2104
44.3246 30.35 20.9757
45.6035 30.1502 20.5743
40.4423 26.9528 18.459
40.5513 28.8319 20.2236
42.3244 28.593 19.6126
41.0575 28.1949 19.6352
43.454 29.3966 20.2364
45.0385 31.7625 22.3936
43.8782 30.599 21.8134
41.3246 28.0574 19.5539
44.8589 31.7709 22.7592
39.077 27.6195 19.9954
40.7976 29.6953 21.9325
39.3897 27.5335 19.9081
44.6112 32.2865 23.899
40.6088 28.633 20.6663
44.0811 32.4874 24.279
39.174 27.5669 19.9209
38.2529 27.7461 20.6531
40.0889 28.1328 20.442
37.8198 28.5736 21.7935
40.8764 30.4599 22.4086
36.3991 27.0241 20.3809
43.0948 32.4505 24.3904
34.9758 26.8803 20.8557
39.9688 30.515 23.5766
39.9528 29.362 22.0481
37.5398 28.722 21.8169
36.7977 28.2928 22.4094
38.6521 29.3733 22.8697
38.7892 29.2167 22.3591
38.7577 30.5171 24.2589
37.2501 29.1741 23.1715
39.7494 30.1504 22.5818
35.3528 27.5374 22.072
36.3671 29.1919 23.6629
38.3516 30.9111 25.2705
36.0475 29.1552 23.9829
39.6061 30.6225 24.6207
39.605 31.0508 24.7234
36.2585 29.2746 23.8531
33.4415 26.8487 22.2295
32.2835 25.4782 20.8757
34.4694 27.8868 23.2521
36.5565 30.1109 24.7482
34.4931 28.1922 23.7289
37.1389 30.7315 25.3
37.239 31.1816 26.3935
35.788 29.4266 24.7274
35.4835 28.9452 24.2945
33.7293 29.2036 25.9437
37.0832 30.3188 25.0788
33.5874 29.6017 26.2032
37.8769 32.2091 27.6318
37.1283 32.1844 28.1394
36.2174 30.9242 27.0262
32.0027 27.1297 23.6673
34.5823 29.7775 26.0161
34.6743 29.952 26.3903
31.8214 27.9124 25.0296
31.3357 26.7282 24.0408
33.9204 30.4796 27.6322
32.6755 27.2511 23.6415
32.4313 29.2239 26.463
33.4231 29.9267 26.7617
31.4157 27.625 24.8683
32.258 30.0505 27.8755
33.2862 29.6916 26.839
29.8831 27.0432 25.3601
32.885 29.8452 27.3558
33.5894 30.3403 27.8431
33.9376 30.3836 28.3811
32.8818 30.3514 28.3754
33.0266 29.7502 27.8993
32.435 29.6611 27.2702
30.6888 28.5889 26.9971
30.5703 28.873 27.3278
32.1128 30.5699 29.4497
30.3016 28.505 27.812
28.6813 25.8468 24.5966
32.2369 30.2142 29.1407
32.3854 29.3865 28.0097
33.0721 31.3149 29.8738
33.13 32.3253 31.3896
30.1493 29.3344 29.8433
32.9068 30.462 28.4798
31.6019 30.4546 29.4854
33.2133 33.2637 32.264
31.2503 30.2982 30.4424
29.6315 28.7457 29.0681
36.0444 35.2191 33.6566
29.7638 29.5561 29.699
29.2232 29.3972 30.1088
32.2046 31.8792 31.5778
29.6454 30.004 31.3041
30.3879 29.4025 29.5551
30.6961 30.7472 31.0198
27.2096 26.7897 28.2016
29.4176 29.4049 29.3002
29.1939 29.8551 31.308
29.2374 29.299 30.2908
29.1649 29.7206 31.2852
28.3312 29.038 31.1056
31.1638 31.0671 31.6006
27.6741 28.8559 30.4064
30.0171 30.7088 32.0991
25.6192 27.0012 29.7683
32.7931 33.4112 34.4258
28.6116 29.715 31.6617
28.6004 29.8676 31.6932
28.7546 30.1535 31.8274
28.0747 29.3185 31.0743
27.8708 30.2317 32.5722
29.1256 31.4145 34.4785
28.2731 31.7814 36.5184
30.1883 30.9885 32.6939
27.1908 29.5583 32.456
29.775 33.3466 37.4061
28.481 30.4417 33.6604
27.3412 28.354 31.3025
25.2691 28.5186 32.2941
26.9354 29.042 32.2428
28.3297 31.3279 35.0389
26.9821 30.0935 34.5135
26.9091 28.941 32.6021
29.2832 31.5129 33.4964
26.4665 30.7995 36.5896
26.9387 29.8283 34.6098
27.0226 29.5254 32.9846
27.5464 30.3983 33.9918
27.7638 33.5098 39.6405
25.3152 28.5247 33.782
25.7269 28.641 33.849
26.43 29.3001 33.4602
26.8765 31.1819 35.8886
25.4 29.0672 34.126
23.8381 28.6337 34.6051
25.3309 28.7327 33.626
27.6009 32.3792 37.7039
24.4332 28.3591 33.6374
24.4872 28.3536 34.4979
25.5005 28.7237 32.8235
22.529 26.6271 32.3571
21.9705 26.0785 32.3228
25.8946 29.9912 35.9504
27.5721 33.1638 39.7116
25.3648 29.6308 35.8233
23.0796 27.5626 33.8359
23.9624 28.9782 35.7763
23.145 28.1555 35.1583
23.0152 27.1542 33.5368
25.1369 30.6012 37.6555
23.6596 27.8304 34.8877
24.5083 30.3029 36.9252
24.175 29.5852 36.8697
23.0002 28.5234 35.956
23.9476 30.1337 38.6339
23.7429 27.927 34.7445
22.0302 26.1956 33.1564
25.4861 32.4155 41.6182
26.0057 31.5728 37.9456
21.9022 28.1467 37.4026
23.0538 27.9501 34.7507
21.7796 27.5143 36.683
22.793 28.2136 36.3951
24.1428 29.9368 37.8896
23.6509 30.7487 40.731
22.7935 28.4642 36.984
24.9943 31.9706 41.3116
22.1484 28.1843 36.856
21.89 27.927 36.9544
23.8067 30.1738 37.464
23.3268 32.5901 43.7191
20.747 26.9807 37.2808
23.4597 30.289 40.9608
24.6756 31.2618 41.2763
22.229 28.7244 38.3212
20.451 27.0243 37.7126
22.4453 29.116 38.5243
21.8123 28.0007 36.8554
23.0366 31.8747 43.1068
21.9838 29.5039 41.4607
21.999 27.9753 37.9169
21.6201 29.2658 41.5316
21.7456 29.2027 39.1992
20.7004 27.5725 38.7582
22.0864 29.5739 39.5258
21.5678 30.141 42.8782
21.7703 28.268 37.8018
19.2595 27.1006 38.6387
21.4712 30.482 43.0457
22.6798 31.088 43.9356
23.8546 32.6632 44.5491
19.7167 27.9053 40.5448
20.9198 28.6144 41.0607
21.7953 29.2532 40.2275
19.8993 27.7039 39.3953
19.5215 26.8668 37.8738
20.252 28.4386 41.1808
21.392 29.6157 41.6926
20.6524 30.2355 45.6906
23.0773 31.2657 43.7684
20.617 29.2342 41.6715
19.9025 28.5194 41.8225
19.3168 26.7364 38.0734
19.6787 28.9885 43.9442
20.4599 28.4491 40.867
19.8223 28.9389 43.9385
20.9374 29.1889 42.1367
20.8391 30.0929 44.1822
21.2521 30.744 44.3796
18.8955 27.5146 42.7677
20.1705 27.9437 40.6309
20.2134 29.6309 43.38
18.9048 28.1078 41.8114
18.0037 27.2251 42.0738
19.2867 27.6599 40.6637
19.3177 29.0653 43.6704
18.7202 27.6369 40.9177
17.5941 26.4377 40.957
17.8779 27.2779 43.6403
20.2762 29.0906 43.7931
19.6728 29.433 43.189
17.8999 27.5245 41.6207
17.4247 27.0019 43.0345
18.663 27.569 41.8552
16.9185 26.324 42.0953
18.4313 27.2474 42.0672
18.0351 26.7891 41.7447
19.3572 30.2731 46.5339
18.1719 25.8931 39.1213
17.7622 28.4006 45.37
17.6368 26.4856 42.5054
19.0556 28.4735 42.1217
17.9934 29.8012 48.4181
18.808 29.0431 46.4807
18.4459 27.7178 43.0973
17.0987 27.9685 46.0073
18.6785 29.0188 45.357
17.0961 27.0432 45.0685
18.1696 28.3548 46.3542
19.1979 28.2915 42.6184
17.2178 28.9395 47.5621
18.0755 27.9283 44.6544
15.4357 24.2636 41.282
18.7029 28.9183 45.5256
18.1191 30.7687 51.2619
17.7624 28.3883 48.4318
19.0326 28.6209 45.2398
17.4327 27.333 44.3226
17.741 28.2942 45.0404
17.2071 28.8687 47.4378
16.325 27.2146 47.2122
16.6129 26.1159 42.7229
15.9241 25.7743 42.9383
15.1166 25.5258 44.4431
17.1868 28.1918 47.3841
16.3933 26.7166 45.6319
16.684 27.6469 46.5772
17.6211 29.3438 49.4763
16.6755 26.1086 43.1158
15.8471 26.4379 46.1726
15.6387 26.3649 47.839
18.3376 29.3737 47.3534
15.7948 25.9751 44.7064
15.4512 26.9445 49.6337
17.3491 26.8884 43.4608
16.5708 28.0261 48.8481
16.8033 28.0472 48.0026
15.9741 26.8235 45.7925
16.6754 27.6634 46.0141
15.1477 26.5349 48.2486
16.0151 27.3847 47.9449
15.7116 25.9457 45.4506
16.3073 27.6338 48.3929
16 27.1806 47.956
16.6396 27.1602 46.9454
14.6162 25.2652 45.1775
16.1842 28.1188 49.5846
17.1513 30.0265 52.7069
15.3286 26.6129 49.1525
17.155 30.1356 58.1331
20.5402 33.3988 53.4593
15.8176 27.9662 47.8332
14.8316 26.9451 49.0062
13.7444 25.0836 48.1789
15.4647 26.987 48.6383
14.8939 26.8427 50.5035
15.2315 26.3853 49.3312
16.0036 28.1331 51.9438
15.7919 26.207 46.8808
15.6759 27.2694 48.1015
15.4181 28.0411 49.7854
14.3395 25.5808 47.8291
14.2884 25.1433 47.1584
15.2865 27.7432 50.4333
15.5279 28.0902 50.6945
14.1047 25.9215 50.8665
15.4159 26.8493 48.5284
14.5084 26.0335 47.9634
14.4268 26.2793 50.6202
14.8353 25.4455 46.3625
13.6228 24.0344 42.8615
13.0502 24.6533 47.0211
14.4702 27.4967 49.7968
13.39 24.7143 48.5992
14.2128 26.128 49.3958
14.1842 25.7022 47.7434
14.2764 27.4537 53.4801
14.1667 25.1504 47.848
13.9993 25.3345 49.2055
14.7418 26.4353 49.3052
14.2641 27.8727 53.9721
14.529 26.7022 52.3903
14.5539 25.4342 47.981
13.727 26.0981 51.2842
13.5689 24.5846 46.3101
12.3184 23.8632 48.1904
12.958 23.8078 47.1617
14.1985 26.7204 49.3061
13.0772 24.7366 48.1198
13.1615 27.2047 56.893
14.411 25.6728 49.5021
12.5767 24.0095 49.2942
12.8859 23.6469 47.3422
13.9358 26.3067 50.4723
12.8965 24.5571 49.6211
13.529 24.9586 48.8846
13.9375 27.9593 56.0615
14.4166 27.0375 53.0243
13.2803 25.4782 50.8032
12.8441 24.7482 50.7018
14.3518 27.4242 53.8009
13.7434 26.6347 54.024
13.6863 26.2154 51.5834
13.4042 26.9481 55.091
13.6513 27.2314 54.3933
12.6507 24.8088 51.4498
12.8194 25.1431 52.4655
13.5342 24.1983 46.4518
12.3312 24.1679 49.7755
12.4595 23.8929 47.8725
12.0534 24.7579 51.7698
12.1331 24.009 51.0824
13.0867 24.0176 48.405
12.3985 24.5143 47.73
11.1644 23.3391 50.1168
11.9151 24.0036 51.7503
13.2607 24.5427 47.27
11.8713 24.6914 51.0341
11.8006 24.1602 50.9542
12.0474 24.6792 53.6814
13.3185 26.1464 51.9473
11.8303 24.5617 52.7839
12.5993 25.6711 54.8563
12.0872 23.5427 49.8482
12.2815 23.9823 49.6009
11.7359 24.6141 51.8232
11.4134 22.5439 49.7015
12.0418 24.2109 50.3088
12.5424 24.9191 52.1595
11.8227 24.2954 51.042
12.0337 25.2582 52.472
11.4339 23.9695 53.0196
11.3947 23.4716 52.3268
11.9395 23.8433 49.1212
10.8763 23.6071 52.9901
11.3634 22.7479 48.6454
10.9575 23.255 51.5202
11.3777 23.0323 49.3797
10.5047 21.5643 45.1559
10.6666 22.783 49.7078
11.0159 23.5194 49.1426
10.5304 23.5242 51.5113
10.5509 22.518 51.8972
11.4726 23.9678 50.601
9.52973 19.1236 43.9246
10.7996 23.2941 53.157
12.3885 25.3919 52.5413
9.92279 21.893 51.1251
11.0174 22.3992 47.5185
10.607 23.058 51.2476
10.9147 22.3161 47.3793
10.1355 22.3727 49.5739
11.381 24.9177 52.5508
9.88863 22.5614 55.4078
10.7683 22.1542 48.7052
9.87751 21.6235 48.2751
10.2083 21.3969 48.0899
10.6567 23.7025 54.1714
10.0726 21.4463 49.8038
10.1362 22.0331 50.6124
10.5452 22.5389 50.8048
10.995 24.735 57.2428
11.4942 24.0991 53.5151
10.8738 24.4532 54.9637
10.4161 23.3023 54.3675
10.6734 22.8637 52.0098
10.7133 23.0577 50.231
10.3843 24.5283 56.6134
10.5583 22.2174 51.379
10.5218 23.7406 52.1046
9.61625 23.4438 55.9048
10.1901 21.5071 49.6793
9.39528 20.696 50.535
9.9143 22.2089 52.2583
10.229 22.5534 53.9974
10.883 23.9465 54.2696
10.0448 22.7525 54.0529
11.1092 24.8834 55.6952
10.2635 23.1475 54.7766
9.9597 22.5334 55.2384
10.0829 21.6963 49.4571
10.2024 24.0034 57.5266
10.4154 22.4509 51.4638
9.67977 21.3617 50.0906
9.87533 22.6879 50.4348
8.86786 20.5733 53.4753
10.4931 21.8249 46.8654
8.30206 19.6899 49.4958
9.62809 21.8431 51.7383
9.21793 20.2957 47.8631
9.67311 23.331 54.4468
9.53917 22.1994 52.9478
9.41174 21.8179 54.3084
9.3982 21.1573 49.5421
8.89004 22.2592 56.9082
10.076 22.3863 52.3089
9.22557 21.6004 50.5462
9.2778 22.9361 59.6783
10.1404 21.7888 50.9561
9.61307 22.584 52.0879
8.76971 21.337 53.6428
9.58844 22.1758 53.2084
8.78299 19.737 48.1845
9.21645 23.2338 56.4881
8.90803 20.6263 53.2403
9.00142 21.392 56.6052
10.6482 24.8787 57.1409
8.96948 21.6822 55.9963
8.94789 19.8288 48.6002
8.71318 21.192 51.8081
