# pn-170911/RbIIR-55-USN7-1280-1959.psd
# Power spectrum* (dif=0,1,2) (really just |FT|^2)
# NOTE: only the first half! (symmetric)
# weeks: 1280-1959
# 492 clock-days, 42 excluded
# PSD: 1441
334.677 0.0657542 0.034987
13814.2 0.173641 0.0729853
116831 2.66679 0.0726689
7778.49 0.30341 0.0767694
35432.1 2.7569 0.0772533
2793.21 0.291654 0.0723888
2672.53 0.403769 0.0733506
1489.08 0.304763 0.0745077
1710.71 0.496463 0.0729399
992.956 0.321243 0.0698631
913.003 0.378593 0.0777267
742.903 0.352777 0.08276
635.811 0.37987 0.070622
576.281 0.415753 0.0783193
485.807 0.392719 0.0773515
480.27 0.465792 0.0724012
433.824 0.483328 0.0749772
401.349 0.502503 0.0722695
366.683 0.535055 0.0786498
369.833 0.589726 0.0739766
341.774 0.605238 0.0804893
309.346 0.59722 0.0753795
328.113 0.696936 0.0838727
310.473 0.74626 0.0752667
337.859 0.874473 0.0811692
312.219 0.851939 0.0815356
324.663 0.994846 0.0832183
297.742 0.991434 0.080082
297.661 1.0231 0.0781535
283.737 1.11297 0.0818402
284.113 1.1873 0.0817114
260.914 1.14776 0.0727465
295.38 1.39862 0.0830911
261.165 1.30202 0.0866718
283.272 1.52923 0.0835519
271.838 1.50691 0.081374
287.737 1.70732 0.0861818
285.974 1.86011 0.0881127
271.841 1.78723 0.0899069
281.263 1.95505 0.0962268
293.81 2.16387 0.0894935
273.898 2.03973 0.0958447
264.402 2.11257 0.0963427
269.52 2.29121 0.0952284
249.572 2.32704 0.0982771
262.288 2.50768 0.100763
284.641 2.79048 0.10096
254.071 2.69801 0.109386
291.672 3.14979 0.108279
251.298 2.81348 0.100218
261.872 3.10735 0.111516
250.842 3.05351 0.11011
269.322 3.39187 0.122033
271.946 3.57901 0.121748
249.781 3.45403 0.117901
270.138 3.78591 0.136498
260.706 3.7631 0.131902
241.173 3.70357 0.128039
255.152 3.99186 0.143378
265.844 4.30629 0.153578
235.315 3.94733 0.137178
224.854 3.97527 0.145699
263.423 4.67406 0.164448
241.098 4.57036 0.149285
236.863 4.54324 0.173289
239.449 4.64743 0.176314
243.294 5.06543 0.168486
217.333 4.58366 0.179813
213.957 4.67625 0.166892
232.832 5.17097 0.183818
231.073 5.17484 0.189227
223.508 5.35241 0.196186
240.336 5.86736 0.218152
225.858 5.6383 0.232895
209.762 5.3308 0.22108
201.899 5.36415 0.213465
224.272 6.12415 0.231233
221.239 6.10669 0.244414
223.995 6.43052 0.269893
194.743 5.78082 0.248006
208.641 6.23643 0.263147
196.281 6.04416 0.258136
207.667 6.59686 0.272936
187.728 6.0449 0.273884
209.676 6.88729 0.309576
182.092 6.11163 0.291235
191.001 6.62994 0.306723
171.445 6.05298 0.281363
187.291 6.84803 0.333077
178.675 6.67643 0.319233
190.403 7.1027 0.349447
217.37 8.41744 0.408727
177.722 7.10355 0.351468
166.182 6.67244 0.335533
174.709 7.16518 0.39794
179.634 7.59421 0.395692
202.332 8.69079 0.439262
184.643 8.10531 0.432405
172.195 7.76608 0.415773
174.68 8.04111 0.44694
173.294 8.13126 0.46285
161.005 7.76346 0.451646
173.378 8.36675 0.479705
162.953 8.12663 0.488064
154.384 7.8057 0.439294
155.367 7.91436 0.470501
155.639 8.20385 0.502771
156.308 8.35658 0.525566
157.944 8.62697 0.549012
150.638 8.3818 0.534201
151.004 8.57215 0.546402
153.643 8.96218 0.601612
145.937 8.53859 0.550103
153.127 9.17136 0.610917
147.383 9.0038 0.645084
153.98 9.45599 0.653361
149.2 9.39144 0.66094
130.706 8.40122 0.632394
134.434 8.83916 0.640882
139.794 9.53178 0.706702
145.221 9.67967 0.707211
135.146 9.30417 0.706342
131.156 9.01961 0.659719
137.928 9.87158 0.781552
146.821 10.5156 0.825262
120.587 8.87607 0.724935
132.765 9.90351 0.811758
139.614 10.6207 0.860896
142.745 10.9451 0.891548
148.103 11.4154 0.949145
125.835 9.99613 0.851916
134.859 10.7208 0.934086
135.265 11.0613 0.97932
131.308 11.0343 1.02203
122.329 10.1511 0.894707
125.556 10.6632 0.94228
122.645 10.6212 0.953895
129.263 11.3853 1.0412
135.383 12.1824 1.12403
122.948 11.1226 1.0721
118.095 10.7127 1.06038
116.59 10.7437 1.02857
116.969 11.0547 1.10547
116.159 10.9713 1.14346
136.15 13.5993 1.4148
128.12 12.3524 1.26868
114.042 11.3915 1.18448
106.981 10.8117 1.18195
118.767 12.1257 1.32401
108.743 11.3157 1.25363
119.143 12.3356 1.3211
112.189 12.066 1.32555
112.443 12.0381 1.36159
120.065 13.279 1.5351
112.211 12.1674 1.42902
126.433 14.3309 1.71336
109.324 12.3648 1.42447
102.797 11.8448 1.45105
114.409 13.3938 1.65762
109.539 12.9207 1.56382
107.734 13.1257 1.63663
111.258 13.5621 1.70846
106.979 13.1552 1.65815
97.0649 12.2125 1.56156
115.044 14.4717 1.84318
109.546 13.8687 1.77203
102.534 13.1337 1.73866
107.985 14.266 1.91899
109.021 14.4196 1.96536
105.699 13.8592 1.88146
99.149 13.4602 1.84417
90.6674 12.4038 1.74153
108.554 15.006 2.08095
97.8301 13.5382 1.91743
102.266 14.5785 2.18338
100.292 14.1657 2.06683
105.301 15.0904 2.15615
96.2254 14.1481 2.1179
101.519 15.1285 2.29315
100.689 14.7474 2.26974
103.2 15.6191 2.40083
92.8962 14.1609 2.2663
96.6066 14.9824 2.35252
96.4138 15.0722 2.42374
101.03 16.0502 2.5604
103.783 16.6038 2.71076
99.6281 15.9031 2.59677
101.893 16.8659 2.83228
98.4383 16.2045 2.72703
95.608 15.9162 2.67928
92.5734 15.5914 2.65032
88.5905 15.6678 2.81628
114.687 19.5603 3.29612
98.0473 16.8671 2.93216
92.9384 16.2844 2.91532
87.0784 15.3518 2.69778
91.7409 16.331 2.93939
86.1408 15.8469 2.96371
85.4752 15.5895 2.9252
88.0805 16.0944 2.98109
84.3728 15.9625 3.05071
94.6207 17.7286 3.40608
85.2189 15.881 3.02214
88.9532 16.9178 3.20196
90.5724 17.5088 3.44364
88.6491 17.2124 3.36778
88.6192 17.4055 3.48066
89.6048 17.8084 3.52457
79.6337 16.1297 3.29859
85.0166 17.1868 3.56881
81.7751 16.7907 3.55804
79.1418 16.4539 3.4526
81.9277 17.1854 3.6617
76.6541 16.4319 3.53421
80.653 17.2457 3.71846
86.7007 18.9192 4.17315
89.4869 18.4126 3.90198
77.67 17.1625 3.67881
82.4565 18.5784 4.17087
83.7958 18.7543 4.25504
77.5239 17.5018 3.97965
81.2482 18.2543 4.06251
74.6025 17.0667 3.92271
75.8312 17.2021 4.01202
77.7155 18.1475 4.28934
81.7826 19.0445 4.49772
80.0795 19.2212 4.65463
75.1645 18.1752 4.38772
83.9402 19.9635 4.81027
75.0598 18.3465 4.50817
79.3578 19.0441 4.64249
73.2007 17.9886 4.48033
79.3308 19.8775 4.97752
78.3897 20.1669 5.16199
69.5425 17.4429 4.49608
72.7542 18.4119 4.74702
79.1114 20.3053 5.27948
73.5295 19.1752 5.11095
72.6007 18.5869 4.88779
74.7971 20.1389 5.43941
77.0272 20.4668 5.49153
76.1259 20.4901 5.54085
73.1477 19.6187 5.30767
73.0699 19.9648 5.54676
74.9255 20.6732 5.7367
69.0257 19.2092 5.39354
69.8771 19.4785 5.45586
71.6626 20.1704 5.65099
70.5268 20.3478 5.94388
70.8114 20.0481 5.76733
72.4653 20.8048 5.98601
65.9023 19.549 5.8519
69.2835 20.2263 5.92776
64.9754 19.0799 5.62825
62.7155 18.4951 5.45493
65.8597 19.9975 6.15921
68.4467 20.5604 6.22228
66.8446 19.9527 5.99702
66.7518 20.6407 6.38857
65.8153 20.1628 6.39567
67.9458 21.0787 6.42103
61.0674 19.0271 5.99464
62.022 19.6829 6.32344
64.5983 20.5906 6.65338
73.8214 23.4107 7.46485
65.5005 20.9513 6.73927
58.6589 19.5296 6.57175
64.9038 21.499 7.18169
61.751 20.4522 6.75823
64.6191 21.1045 6.94451
62.0544 20.9761 7.18531
61.6282 20.5734 6.93666
62.4153 21.4151 7.33261
67.6349 22.641 7.73667
60.82 21.1265 7.34716
60.9569 21.1327 7.35948
60.6737 21.8142 7.86556
64.3776 22.6695 7.83064
61.5397 21.6803 7.66224
58.9774 21.1576 7.6233
54.8466 20.1968 7.50252
59.5848 21.4095 7.87588
65.0505 23.1192 8.2922
61.6407 22.6399 8.28878
67.7723 25.3894 9.49852
58.3911 21.4807 8.02243
56.8295 21.1146 7.95468
57.672 22.1326 8.5929
80.2225 30.713 11.6146
56.6724 21.2881 8.19085
55.0885 21.1173 8.19889
59.9996 23.0281 8.82765
56.1233 21.9858 8.67364
62.1166 24.2077 9.43949
58.4805 23.4811 9.50493
58.5355 23.4622 9.36805
59.0508 23.504 9.50699
56.572 22.5384 9.09189
56.0253 22.5487 9.19501
54.7079 22.3855 9.22673
55.8439 22.7101 9.35601
55.5291 22.665 9.36196
53.4736 22.2635 9.38837
56.3282 23.5142 9.75087
49.4317 20.8074 8.87933
51.1843 22.043 9.52634
55.7128 23.898 10.3924
51.7345 21.6668 9.12534
54.052 23.5711 10.2028
50.5196 21.7441 9.43609
49.4468 22.0584 9.84912
51.969 22.7308 10.1428
52.2199 22.6148 9.93987
50.0845 22.5202 10.0731
51.9429 23.1002 10.3748
49.8723 22.4954 10.1319
49.1479 22.772 10.6422
51.5371 23.3923 10.7356
51.0997 23.5202 10.8915
49.8266 23.4646 11.0157
49.1246 22.9334 10.8294
47.7549 21.9534 10.2862
49.3484 23.0453 10.7519
50.0439 23.6728 11.1507
47.6626 22.7979 10.8207
48.6944 23.565 11.3508
48.6808 23.5282 11.4169
47.8797 23.0006 11.2191
47.854 23.7517 11.8477
49.2761 23.7936 11.6832
44.9783 22.303 11.2424
49.0089 24.3403 12.0966
47.8161 23.8187 11.7843
45.9632 23.4073 11.6897
44.6654 22.4084 11.2116
45.82 23.8087 12.2942
44.3234 22.915 12.0962
48.0673 24.1912 12.2232
43.6153 22.531 11.7148
43.6343 22.998 12.3893
50.7845 25.6959 13.085
47.5896 24.9066 13.1789
45.5256 24.0588 12.8471
46.5288 24.7841 13.1892
46.9938 25.2977 13.5121
46.0388 25.0372 13.6265
45.4497 24.2498 13.0763
43.6891 23.9727 13.3371
44.2425 23.9456 13.104
43.533 23.9536 13.4024
43.8294 24.1353 13.4255
40.4108 22.5105 12.6658
46.6317 25.8722 14.5495
41.6238 23.0928 13.1169
42.0103 24.2002 14.0999
43.1242 24.0488 13.5574
45.9332 25.7497 14.668
40.4946 22.6761 13.0048
43.4153 24.8942 14.207
42.4303 24.3187 13.9638
42.6056 24.755 14.3413
42.651 25.7793 15.3028
41.6587 24.497 14.6098
40.807 24.1717 14.3819
39.4181 23.2758 14.0838
40.095 23.8521 14.3252
38.6502 23.6987 14.6192
38.1115 23.5514 14.6857
41.322 24.3442 14.5057
38.8554 23.706 14.7592
39.6856 24.2328 15.1002
38.582 23.4374 14.396
41.4121 25.9776 16.1571
38.9506 24.1466 15.4737
42.2737 25.9142 15.9521
40.8881 25.9404 16.3638
39.2709 24.5148 15.3372
41.6385 26.8377 17.0615
34.9212 22.8287 15.1504
36.9367 23.1191 14.7935
38.1615 24.73 16.2717
40.7981 25.2623 15.8886
36.1988 24.7318 16.838
38.2352 25.2609 17.072
50.8302 33.3372 21.3182
36.2193 23.937 16.0717
37.9791 25.2682 17.0274
37.1171 24.9524 17.1305
35.9199 23.3068 15.4213
34.2572 23.3389 15.7715
34.3168 23.0356 15.9585
37.1214 24.5529 16.3649
37.182 24.9207 16.6109
33.9555 24.615 17.5892
34.792 23.2606 15.9743
36.0256 24.8717 17.258
37.1085 25.8497 18.3803
39.1343 27.4524 19.4109
35.5014 25.2217 17.9238
38.3062 26.9083 18.8255
33.5006 23.4635 16.3993
34.6406 25.5645 18.7235
35.183 25.8055 19.2563
37.18 25.7829 17.9004
33.7353 24.9798 18.4182
33.697 24.1794 17.7347
34.7605 24.8779 17.7394
28.9772 20.9203 15.8637
32.1371 23.6298 17.6449
34.3517 25.9015 19.329
32.8023 24.1474 17.9082
33.2181 24.8609 18.7164
31.3351 22.8026 16.758
31.964 24.0654 18.5195
33.2594 24.4403 17.7085
32.3731 25.6432 20.1801
32.2122 24.1695 18.7138
30.3586 23.2391 18.5207
31.4749 23.8416 18.231
30.9145 23.9118 18.6293
31.9475 24.2615 18.6398
31.0732 25.1559 20.2339
31.0245 24.0243 19.0998
30.9276 24.7134 20.0546
30.9247 23.8401 18.8799
32.9183 25.7792 20.2173
32.9299 26.3649 20.9435
34.1034 27.468 22.1552
30.9664 24.2164 19.5126
30.4056 24.5863 20.0463
32.3342 26.0581 20.6786
27.651 22.8992 19.1001
30.3599 24.9889 20.5255
29.57 24.7282 20.7154
27.746 23.3899 20.3043
30.9758 24.7372 19.9939
30.7614 25.8443 21.6164
31.3064 26.1461 21.665
28.3107 24.3944 21.2181
29.208 24.478 20.9027
29.1311 24.3134 20.4826
27.7358 23.372 20.0796
27.0355 22.6149 18.9513
27.3303 23.7526 20.9427
30.8084 26.0119 21.9548
28.7447 25.2994 21.9453
28.798 24.9735 21.8771
27.1198 23.0237 19.9258
28.3532 25.5799 22.8317
28.6457 25.51 22.6983
27.4438 24.0474 21.6236
28.8411 25.2572 22.682
28.9437 25.6884 23.388
28.3901 25.1497 22.8376
30.3435 26.3761 23.1412
27.4569 24.2999 21.9614
29.2624 26.2472 23.4157
27.9108 25.3733 23.1994
25.7368 23.4528 21.4853
26.8128 24.5025 22.3877
27.7461 25.7572 23.547
25.2002 23.5867 22.4987
27.1536 24.6349 22.5616
25.4359 23.859 22.2014
24.9969 23.6275 21.7672
24.584 23.9244 23.5476
26.9199 25.223 23.8728
28.0638 26.0603 24.1572
25.4352 25.0167 24.6959
27.2982 26.0688 25.6839
26.8111 24.239 22.4981
25.6597 24.8406 24.2305
26.1188 24.585 23.3137
26.3003 25.9355 25.412
26.5854 25.5384 24.7672
26.887 26.4401 25.9594
23.6598 22.6083 22.7576
26.5042 25.7304 25.1693
25.3792 24.5952 24.0661
24.2215 23.7248 24.0775
33.2918 33.2743 31.6027
24.7433 25.1931 25.9198
23.777 23.576 23.7589
23.1237 22.773 23.3569
24.2009 23.8883 23.8643
23.8617 24.2659 24.8857
23.4627 23.8378 24.4554
23.4695 23.8099 24.3538
23.3637 23.1184 23.1558
23.6231 25.472 27.3489
24.7539 25.2542 26.1007
22.6737 23.3039 24.4957
23.6313 24.6096 25.4898
22.7998 23.5782 24.8086
22.2151 22.7675 23.7266
23.5535 24.6777 25.8045
23.4321 24.926 26.247
21.6611 22.9779 25.0667
26.4265 27.7936 28.7556
22.8981 24.7771 26.5273
22.4639 24.5908 27.0576
24.1241 25.7472 27.5927
23.4195 25.1494 27.4601
23.5439 25.0821 26.6061
20.7566 23.5517 27.0196
21.6969 23.2816 25.6336
22.4838 24.2449 26.6432
21.3116 23.5419 26.6357
24.4706 26.7168 29.3063
22.8907 24.8164 27.3305
22.5785 24.4193 26.5992
21.5174 24.5641 28.2041
21.6891 23.9408 26.6806
20.5584 22.8063 26.3402
21.9678 24.1116 26.8743
22.2377 24.677 27.5296
21.6752 24.7372 28.2677
20.714 23.1514 26.5704
22.2078 25.3386 28.7525
21.0157 24.6104 28.8652
20.4304 22.6839 25.8122
19.8363 22.9608 27.2916
20.4748 23.9088 28.4568
21.7109 24.1871 27.3105
20.7868 24.3565 28.4744
21.5751 24.5668 27.752
19.1164 22.8105 27.4602
19.7009 23.3938 28.0294
20.9311 24.4074 28.5309
20.3625 24.387 29.3388
19.6956 23.1863 27.6625
20.3502 24.4691 29.9832
20.9782 24.4151 28.8665
18.7653 21.5592 26.0506
19.702 23.6343 28.1064
19.4929 23.2943 28.3355
18.4749 22.4528 27.5573
18.162 22.0875 27.086
20.0565 24.5559 29.7644
19.5501 24.3911 30.6846
21.0407 25.4775 31.2747
20.1943 24.4941 29.7056
19.3448 23.3965 29.2948
19.5459 24.1934 30.2868
19.4288 23.336 28.4575
18.7865 24.1655 31.7657
20.5748 24.1712 28.3332
17.8645 23.1614 30.0548
20.2006 25.2104 30.9117
18.2768 24.0016 31.2164
18.5501 22.9299 28.6117
18.3683 24.2548 32.2644
18.6719 22.7458 29.1585
18.4341 23.2405 29.1552
18.5538 24.5031 32.3285
19.0199 23.6431 29.9327
19.5166 24.6013 30.8418
17.6004 23.8964 32.4516
19.1315 24.6983 31.7477
17.6995 23.0345 30.4329
17.6845 22.8838 29.8818
18.1667 24.0963 32.1003
18.5143 24.1358 32.0791
17.749 22.6972 29.6205
17.2749 22.5379 30.1842
18.2786 24.4035 32.0024
16.4592 21.8813 29.0779
17.2808 23.1341 31.3109
17.2144 23.0234 31.6716
17.5093 23.2866 31.2246
17.0874 23.0235 31.9298
17.2011 22.831 30.8509
17.2563 23.2564 31.5806
16.2796 23.1902 32.9659
18.0035 24.3578 33.6129
17.1712 23.8718 36.8435
24.1624 31.2033 39.2111
18.2196 24.624 33.2594
18.1907 25.5438 34.5992
15.1498 20.676 29.7791
17.5481 24.3956 33.6631
16.5462 23.4102 33.764
16.8842 23.0372 31.6998
16.5161 23.1459 32.4689
16.1872 22.9036 32.7805
17.9767 25.1068 35.2172
16.4685 22.1557 30.9796
15.7915 22.0425 31.4513
16.2756 22.8117 32.223
16.2866 23.5709 33.3016
16.5903 23.7847 34.2315
15.5966 21.9637 31.977
15.5863 22.1388 32.5275
15.046 21.3774 31.2974
16.4028 23.3498 32.4338
14.9682 22.344 33.328
15.5389 22.2675 32.4753
14.8564 21.7774 32.3677
15.1863 22.2751 33.5846
16.166 22.9215 32.4941
14.5922 21.9166 33.589
15.547 22.6658 32.5221
15.0494 23.0879 35.3384
15.0485 22.3936 34.4904
15.4249 22.0427 32.1895
15.7412 24.0194 36.6249
15.3247 22.8443 35.3583
15.7452 22.8392 34.5129
16.2447 24.1742 35.7867
15.0083 22.1721 33.3093
15.4965 24.355 37.9737
14.9565 21.7035 33.1314
14.389 21.5696 33.1312
14.818 22.2703 33.7151
13.9469 21.4701 32.7566
14.1655 22.5154 35.6844
14.8996 22.5746 34.1391
13.9311 20.911 32.782
13.4851 20.729 33.142
15.4576 23.9223 35.5692
12.802 20.4943 33.2196
13.5782 20.8186 33.0928
13.861 21.7842 34.9247
14.3664 21.8811 34.769
14.2267 22.0428 35.3458
15.1192 23.4821 36.9455
14.5466 22.534 34.6242
13.0715 21.0158 34.9876
14.5869 22.903 35.3466
13.011 20.8164 34.4657
14.609 23.4714 38.0386
14.7709 22.9976 35.8438
13.4855 21.756 35.1732
14.2974 22.8989 37.1262
13.8519 22.6141 37.222
13.6132 21.1062 33.7224
13.0749 21.5889 35.8158
14.0211 22.6145 36.5303
12.9089 21.1332 35.1811
13.45 22.0337 37.1068
13.4114 22.1491 37.836
13.7092 20.9406 33.2554
13.1116 21.8885 36.3884
13.4246 22.4691 38.2506
13.9491 22.9765 37.9038
13.0562 21.0622 36.1855
14.4009 23.7246 37.6504
12.7519 21.1492 35.7849
13.0415 21.5439 36.368
13.0962 21.7338 36.7851
13.1281 21.6255 36.4415
13.8433 23.738 39.5
11.6348 19.3649 34.0628
12.158 20.3684 35.795
13.4368 22.2421 38.0727
12.8727 20.319 32.7695
12.4872 22.5505 39.5625
12.0302 19.9162 34.1096
11.4577 19.3879 34.2418
12.0718 20.3971 35.4238
12.0537 20.9999 36.4826
12.2159 20.514 35.3401
12.91 22.967 39.9285
11.3536 18.592 32.8405
11.8364 20.7611 36.77
11.7498 20.2527 36.5368
12.7549 21.8773 38.4297
13.0399 22.5702 38.5743
12.2373 21.3099 37.5607
11.4486 20.2584 37.223
12.7141 21.8477 36.7186
11.1635 21.584 45.0253
17.4245 29.2648 46.9809
11.9253 20.7956 37.4498
11.9599 21.589 38.8703
12.0285 21.0105 36.8005
11.7819 21.3374 38.7681
11.4016 20.3964 37.2947
11.9386 20.8242 36.9262
10.8655 19.1571 33.9295
10.8263 20.5741 38.0953
10.6779 18.7671 35.0747
11.1219 20.008 36.1299
10.6851 19.5488 36.8295
11.8334 21.484 38.8744
11.7725 21.9275 40.2601
11.123 20.8605 39.4751
11.6066 21.236 39.3521
11.02 20.5854 40.1686
11.555 19.6472 35.1346
10.6436 20.1502 38.0903
11.0918 19.5419 35.224
10.8511 20.7275 38.9152
10.653 20.1185 37.8472
10.9422 20.7512 39.782
10.5725 18.6251 35.4474
11.0023 20.8786 39.6178
11.8251 22.1812 41.3688
11.3364 21.444 41.946
11.2987 20.7575 38.4939
10.47 20.4251 40.7481
11.6511 21.3395 39.1855
10.0901 18.9839 37.113
10.6186 19.8443 37.9401
10.7589 20.3997 39.5919
11.574 22.5386 42.0248
10.0224 18.5132 36.3762
10.2257 19.7921 38.8371
10.5773 19.4576 34.3954
9.38084 20.0265 40.343
9.5699 18.0748 36.5459
9.76758 19.2894 38.2384
10.3205 19.9788 39.9513
10.248 20.7473 44.3397
12.3261 22.7319 42.9889
10.8606 20.6783 39.384
9.89421 18.8397 37.0526
10.1699 21.541 43.5107
10.1233 19.1578 37.6422
9.60343 19.3686 40.6537
11.1905 21.3224 40.5729
10.1642 20.7592 42.5117
10.4703 19.7093 37.5523
9.44888 19.3894 40.533
10.6666 20.1282 37.5914
9.57005 19.8065 40.2441
9.49623 19.3421 40.3425
9.78571 18.9236 39.0321
9.92847 19.6555 39.2112
9.5785 19.1866 38.8825
9.82545 20.6385 43.7543
9.56474 18.6622 40.8592
10.3478 19.7468 40.9026
10.5922 20.4477 40.2725
10.0845 19.8391 37.9315
9.11145 19.0939 39.0973
8.95673 18.8765 39.1493
8.85704 18.5053 40.8316
9.5277 18.499 37.6859
9.42772 19.5624 41.1546
10.1625 20.9999 43.1032
9.55731 19.7073 40.8782
9.15052 19.137 40.8249
9.26482 18.5389 38.279
9.16366 19.3506 40.9821
8.994 18.2381 39.5299
9.6987 20.1011 41.5133
9.48018 20.2051 43.8872
10.1159 20.1758 40.7146
8.68215 18.1595 38.604
8.85753 18.5082 39.1409
9.02408 19.1645 40.0688
8.94918 20.2024 44.4487
9.3289 19.6738 43.6878
9.63195 19.6767 41.9191
9.1865 19.1449 40.9092
8.5639 18.3175 41.6607
10.1437 21.8546 44.9479
8.97497 19.0491 42.518
9.21298 18.7062 40.1224
8.78461 18.7401 39.8972
8.53489 18.8718 41.4154
9.22598 19.697 42.874
9.03364 19.1548 41.5246
9.35947 20.1309 41.7571
8.29988 18.8427 42.728
8.14261 17.7351 40.2504
8.67904 19.9267 51.8962
12.6438 25.4522 48.0136
9.03693 19.7066 42.98
8.70848 19.8313 44.7757
8.71899 18.6703 40.4502
7.92629 17.4577 39.6887
8.73299 19.2944 42.0597
8.5333 19.1021 43.2684
9.03067 20.0758 43.5515
8.09617 17.792 41.8434
8.93242 18.8115 40.9499
8.54972 19.4284 43.7639
8.40371 17.6259 39.4184
8.24254 18.2256 41.2684
8.19304 18.267 41.2307
8.27537 18.3873 41.9068
8.79919 19.7449 44.912
7.98611 17.2596 39.1543
8.1532 18.0707 40.3443
8.07454 18.4158 41.9519
8.01742 18.4576 41.9366
7.60214 17.1087 41.9234
8.24143 17.3401 39.5962
7.76789 17.4332 40.5627
8.39766 18.5294 41.47
7.70002 17.4701 39.0254
7.35466 18.0692 42.7725
7.59463 16.6739 40.4724
7.98478 17.3188 40.6396
8.73967 19.9647 44.2109
7.84212 17.6262 40.7052
7.80654 17.9 41.0018
7.33672 17.1587 40.2362
7.48392 18.176 44.8151
8.3171 18.8902 43.6292
7.3542 16.3256 38.5695
7.54794 17.8062 42.684
8.08454 18.4675 42.1498
7.50925 18.2704 44.8444
8.24944 19.4786 46.7736
8.19083 18.5686 43.3815
7.66599 17.1262 38.8464
6.90053 16.8516 42.6791
7.77123 18.0072 42.4302
7.68826 17.7581 42.8272
7.61567 17.5732 41.4847
7.417 17.4339 41.21
7.571 17.7814 41.4589
7.7133 19.4989 46.5984
7.05435 16.252 40.1128
7.34511 17.2861 41.4885
7.35205 17.4826 40.8937
6.85984 17.324 44.0345
7.57351 17.4224 42.5423
7.55094 18.1993 42.8087
7.11117 17.5658 44.4372
7.7625 18.2379 43.4506
7.11954 16.5228 40.087
7.00264 17.2374 42.1195
7.33283 17.8471 43.1642
6.98518 16.7695 40.1156
