# pn-170911/RbII-17-RbIIR-1280-1959.psd
# Power spectrum* (dif=0,1,2) (really just |FT|^2)
# NOTE: only the first half! (symmetric)
# weeks: 1280-1959
# 158 clock-days, 61 excluded
# PSD: 1441
9071.77 0.386497 0.0187053
294436 4.33645 0.0100245
1.72416e+06 37.8589 0.00942109
228012 7.82472 0.00987875
188226 12.628 0.0101444
76238.4 7.36399 0.0109403
68988.2 8.5029 0.0124459
46869.8 8.35669 0.0113679
51471.8 13.3532 0.0151687
34092.5 10.7722 0.0149969
26354.7 10.0203 0.0134609
24952.7 11.6365 0.0171386
19020.9 11.3419 0.0191426
16904.6 10.5049 0.0209638
13638.5 10.5758 0.0201073
11636.5 10.2726 0.0214619
8657.63 8.68494 0.0189365
8438.91 9.49088 0.0228488
6723.84 8.62766 0.0255741
6262.85 8.43869 0.024794
4617.57 7.67169 0.0258413
5011.89 8.44077 0.0282905
5566.56 9.88503 0.0313652
4312.71 8.21426 0.0298095
3643.23 7.41502 0.0286701
3221.4 7.65483 0.0297395
4011.68 10.4265 0.0406588
2852.74 7.79688 0.0374744
2914.61 9.46621 0.0453587
3195.45 9.50696 0.0465027
2509.74 8.552 0.0440538
2538.24 8.83736 0.0500808
2626.68 9.87841 0.0570362
2421.48 9.65553 0.0612868
2025.2 8.9373 0.0604761
1997.13 8.84833 0.0604547
1693.74 8.2565 0.0626029
1640.58 9.29122 0.0651227
1741.91 10.6334 0.0802551
1567.74 9.05471 0.0730228
1404.37 8.11609 0.0694622
1637.7 10.3418 0.0882613
1447.42 10.2887 0.097802
1063.18 8.02447 0.0821737
1279.78 9.81542 0.099681
1081.7 8.77734 0.0978369
1129.87 8.66483 0.0953275
1165.01 10.0607 0.121756
1147.55 10.8354 0.134785
947.921 9.34554 0.123529
933.121 8.90512 0.113604
1006.52 9.62355 0.133972
869.983 9.60723 0.134836
854.064 9.65643 0.136651
877.633 10.5072 0.15598
811.092 9.30524 0.142189
816.929 9.47679 0.149987
728.844 8.40467 0.144922
850.158 11.8029 0.198751
675.632 9.60501 0.175435
702.875 10.896 0.185487
725.693 9.88373 0.170039
694.969 9.61554 0.177931
660.432 10.467 0.21048
721.929 11.8844 0.242363
639.816 10.9907 0.235195
613.662 10.3044 0.217577
692.747 12.5339 0.284239
543.645 10.0633 0.227049
579.294 10.3267 0.245641
610.621 11.7679 0.283748
593.27 11.8547 0.296113
517.217 11.1383 0.294575
542.344 11.4223 0.299308
472.156 10.3457 0.278246
499.402 11.5235 0.309282
504.343 12.2289 0.362654
545.192 11.4861 0.346608
401.927 9.92994 0.300244
494.844 12.2205 0.371936
471.945 11.7958 0.373265
411.533 11.5094 0.351685
459.8 12.76 0.419718
460.546 12.0527 0.417954
439.493 12.0299 0.408287
477.149 13.1641 0.465064
456.727 13.9133 0.506172
421.981 13.9456 0.50704
340.838 10.5385 0.394176
412.454 13.2539 0.523643
404.336 13.4871 0.537138
340.741 11.6768 0.451605
409.433 13.6762 0.542867
342.909 11.8064 0.473284
336.013 12.0571 0.520683
421.171 15.6952 0.690327
378.086 14.1601 0.61986
361.104 13.9657 0.602789
375.298 15.5611 0.727808
381.86 14.6417 0.681803
380.641 15.4564 0.74411
306.277 13.0374 0.654981
320.645 13.8059 0.699368
294.889 13.1378 0.643368
331.528 14.8923 0.768874
290.142 13.9217 0.742212
294.835 13.4742 0.71235
310.991 14.6419 0.804347
268.941 12.8088 0.731607
299.543 13.7933 0.808478
318.646 15.5378 0.881206
305.259 15.1622 0.934287
288.35 14.5423 0.853428
302.681 15.8573 0.969591
256.729 13.5025 0.851041
263.468 13.9549 0.895148
306.419 16.9561 1.1038
259.293 14.8883 0.964362
272.077 15.8359 1.06713
239.281 14.4544 1.00743
244.588 14.1111 0.976
293.697 17.101 1.19926
245.037 15.0452 1.07625
244.714 14.8596 1.12239
261.078 16.8475 1.2183
242.333 15.5609 1.173
238.109 14.7296 1.1011
234.218 15.6188 1.1928
244.733 15.9796 1.23134
200.332 15.6329 1.23526
203.343 14.702 1.16796
244.255 17.3962 1.44719
191.049 14.9962 1.2485
203.86 14.9859 1.2593
198.148 15.1532 1.29986
205.609 16.2671 1.41083
205.84 15.5248 1.36076
211.853 16.6529 1.49473
201.822 16.6376 1.50006
193.189 15.6284 1.41848
192.837 15.6046 1.45184
191.129 17.2081 1.62163
193.685 16.2124 1.56784
179.213 14.6529 1.4309
192.441 17.4819 1.71208
210.031 17.907 1.73885
188.801 17.6944 1.8005
192.37 17.2957 1.82354
180.632 15.8851 1.65747
181.583 15.9174 1.64703
180.723 17.5384 1.8605
172.212 16.1905 1.77708
172.865 16.8153 1.81812
185.715 19.206 2.13122
172.625 17.2972 2.01886
171.393 17.9186 1.98497
184.688 18.1318 2.08022
160.892 16.1795 1.90489
174.656 18.5212 2.14446
147.885 15.8461 1.89177
134.191 14.3159 1.74399
168.736 17.1144 2.11725
163.49 17.1869 2.09452
144.035 17.2554 2.22591
152.672 16.2692 2.09399
149.66 16.4279 2.12939
177.136 20.6772 2.63487
147.108 16.4916 2.2313
148.898 17.132 2.32851
153.22 17.0852 2.27841
134.605 16.7707 2.26444
133.341 17.459 2.48095
134.686 16.5106 2.29593
144.459 18.568 2.68584
139.882 17.6775 2.5339
129.32 17.2708 2.5299
151.221 18.4497 2.67345
126.959 17.2285 2.51637
147.56 18.8397 2.74869
119.997 16.9971 2.62313
120.488 17.0032 2.51134
142.079 19.6521 3.09754
121.344 15.6643 2.44187
142.374 20.7991 3.26822
125.554 17.554 2.8211
124.694 17.5626 2.82489
118.844 17.8496 2.82279
123.55 19.5857 3.26699
111.26 16.839 2.88533
123.223 18.6568 3.10433
110.445 15.8555 2.74925
116.609 17.5866 3.0057
117.679 17.826 3.1041
108.469 17.2024 2.99976
123.331 17.8745 3.18832
128.488 19.6767 3.47115
93.9272 14.2202 2.53602
107.323 16.5766 3.04268
113.125 17.7545 3.23845
121.64 19.5285 3.54943
111.794 17.9964 3.34525
113.685 19.1702 3.61146
110.765 19.1414 3.72629
112.162 19.3545 3.79938
119.427 19.965 3.78452
96.6059 16.644 3.31341
111.996 20.486 4.12167
91.3157 15.8352 3.20618
105.053 19.5226 3.89853
90.386 16.0257 3.35039
101.059 18.5253 3.80093
94.8423 17.2009 3.57715
110.966 21.103 4.28483
102.334 18.6075 3.98751
100.454 19.1192 3.99506
101.422 20.5129 4.4463
87.9397 17.3515 3.96699
101.98 20.0492 4.33813
88.0081 18.4606 4.16625
95.271 18.5731 4.1935
88.181 16.8732 3.82746
95.4301 18.3219 4.16328
82.8018 17.1597 4.0153
99.4593 21.319 4.83067
84.9464 17.7232 4.22793
85.9489 18.4873 4.30078
83.524 17.9103 4.31181
95.6434 19.976 4.79809
79.7665 17.5135 4.33799
93.8459 20.0465 4.91415
86.9137 19.2387 4.78787
85.7737 19.5025 4.89362
79.1121 18.0902 4.49861
83.6789 19.7206 4.99161
77.6997 17.5666 4.40009
64.4991 15.2555 3.99408
86.2766 18.6295 4.88106
83.5246 18.8383 4.94489
75.5082 17.5583 4.60196
88.4622 21.5751 5.67082
67.1151 17.1402 4.73435
76.0006 19.2195 5.16083
75.1533 18.1131 4.95139
78.1262 19.2362 5.09413
84.0565 20.663 5.74136
72.7269 17.9868 5.01743
77.8474 20.1223 5.76048
68.1034 17.0181 4.6564
75.5652 20.4202 6.0698
84.6655 22.7508 6.44154
70.8222 19.9411 5.73115
71.3019 18.6253 5.5684
89.3686 23.5415 6.85683
71.3737 19.0843 5.66603
74.1183 19.4339 5.82938
73.9639 19.089 5.79283
64.5969 17.5848 5.38264
75.6604 20.2924 6.1768
82.1975 21.5283 6.6145
66.3659 18.3485 5.75954
78.1919 22.5909 7.05052
59.954 15.7203 4.95699
64.8509 18.4569 6.03758
67.824 19.5018 6.15994
65.9465 19.5533 6.18614
68.3337 20.3603 6.54564
75.2709 20.2596 6.59661
68.6632 19.5712 6.46557
73.3333 21.2906 7.20214
56.3855 17.136 5.68834
54.7001 17.159 5.8565
69.4586 21.4386 7.43842
66.4334 19.5547 6.62829
60.0617 18.2333 6.36543
53.6267 16.6502 5.94311
55.4039 16.8937 5.84776
56.1159 18.1619 6.38306
62.1066 20.9932 7.48216
64.3966 21.5669 7.72966
54.6673 16.8481 6.01586
57.6978 18.2726 6.81307
58.8033 19.0858 6.88642
57.1417 18.1641 6.84283
55.8909 17.4814 6.46126
53.0283 17.5841 6.59779
47.7314 15.1821 5.72558
61.9905 20.1418 7.7003
50.6294 17.6925 6.93876
59.9006 21.2149 7.89991
51.8531 17.2763 6.67851
52.9418 18.7707 7.00778
50.0474 18.1443 7.26494
69.3773 23.0671 9.00056
49.55 18.5024 7.23066
50.2906 17.0833 6.79095
53.0396 17.4797 6.91732
57.0621 21.6482 8.97391
50.9576 18.3351 7.57077
49.6124 17.3048 7.25809
49.0942 18.9029 7.72889
51.1023 18.6621 7.67701
44.1294 16.4427 6.841
50.0985 18.1371 7.58891
51.0015 19.0006 7.80453
54.4312 21.9573 9.3365
49.3218 18.6904 7.9116
49.6766 18.889 8.26157
52.2326 19.3981 8.14785
47.1461 17.8494 7.64821
51.7402 19.7263 8.61873
46.2143 18.2113 7.95555
43.4913 17.7895 8.10989
50.2574 19.194 8.57076
47.3409 17.9554 8.25155
52.7904 20.2056 8.67473
44.5029 18.3739 8.40182
53.8415 20.7886 9.60094
45.7701 18.435 8.81438
52.6514 19.9678 8.94865
50.8264 20.7178 9.9118
42.1095 17.3478 8.11088
45.0732 17.687 8.14599
43.8267 17.9144 8.63028
42.677 19.477 9.82814
45.589 19.2459 9.0253
46.5572 20.685 10.0658
45.2046 18.957 8.97472
44.0827 19.0632 9.24569
42.5484 18.8127 9.34811
40.6848 18.0939 8.97422
47.0203 20.3865 10.1656
42.732 20.3352 10.3773
41.8701 18.1038 8.61671
38.1374 18.2159 9.34209
40.3666 18.6759 9.63721
46.5515 21.6323 10.9363
43.7756 20.8692 10.6709
36.806 17.02 8.91599
39.7951 18.4766 10.0603
45.4948 20.4228 10.5002
42.0759 19.9506 10.2897
38.8781 17.7597 9.48766
39.5857 19.4118 10.3744
42.9567 20.6541 10.7551
36.2904 17.6253 9.2746
33.8495 16.3013 8.83062
39.3179 19.5549 10.9545
38.5734 17.8305 9.33509
41.4209 21.0543 12.0493
36.1723 17.0103 9.06906
37.0717 19.2839 11.0985
40.4486 18.7327 10.0674
32.9541 16.1963 9.30396
40.878 20.1794 11.2848
37.3486 19.7347 11.0852
37.0443 20.7017 12.5228
37.002 19.6865 11.4134
36.1668 17.9351 10.2475
33.3111 15.1738 8.41819
33.3598 19.097 11.4537
35.6754 18.815 10.6483
34.8672 19.0079 11.0773
35.4403 18.5965 11.1327
33.5263 18.0026 11.2335
33.8094 17.7046 10.4842
33.0072 17.2554 10.0556
33.8158 19.1459 11.9523
37.0447 18.7975 11.2484
33.6529 18.6381 11.0989
35.5686 19.8951 12.3382
27.6487 16.1038 10.2025
38.9978 20.4407 12.3804
30.1995 16.7749 11.1343
38.5148 21.0525 12.4802
30.7317 17.342 11.3831
35.0077 19.7478 12.4468
33.6612 19.7888 12.4134
33.3395 19.0939 12.0076
29.3414 16.3379 10.2496
30.3182 17.0178 10.9843
32.5051 17.8592 11.9495
33.0575 18.5792 11.6417
31.2521 18.6956 11.9912
28.7939 17.4438 11.7458
28.4249 17.4292 11.5721
29.6508 17.7149 12.1958
30.8855 17.9445 12.2093
30.0658 18.3125 12.5167
30.9163 17.5749 11.2592
27.5538 17.3152 12.3235
29.5997 18.797 12.8205
31.3811 19.1377 13.3091
32.5403 20.1291 13.3531
27.1598 17.755 13.3352
33.8993 20.8175 13.9765
27.9883 17.7521 12.4767
27.6309 18.2006 13.1466
31.2642 19.217 13.659
32.5797 18.925 13.1319
25.1728 16.0317 11.2646
26.7307 17.237 12.5956
27.5985 18.1197 12.9475
32.4652 20.6467 15.0415
29.1006 18.7635 13.6347
28.4013 19.0571 13.9922
24.4066 17.3077 13.0016
29.6345 18.2009 12.6095
26.596 17.76 13.4534
27.957 18.3366 13.7282
26.2879 17.9904 13.4489
29.086 18.31 12.9376
26.7429 18.3574 13.9168
25.4047 17.8894 13.7199
25.2232 17.4616 13.069
25.5274 16.8649 12.7204
23.1176 17.1857 13.2917
25.1135 17.1252 13.3983
27.3356 18.8796 14.8156
27.5183 17.2627 13.1087
26.7156 18.1568 14.3374
29.5515 19.2528 14.5495
25.9811 20.1959 16.4703
26.6874 17.9174 15.0317
28.7123 20.2221 15.7193
28.8195 19.5367 14.8208
23.8851 16.2482 13.1429
22.5803 16.8754 13.4147
24.8299 17.5958 14.6197
23.6656 18.5684 15.1599
24.5421 17.1421 13.5363
21.8384 15.16 12.2627
24.8828 17.9068 14.8228
23.8067 18.7733 15.661
25.8679 18.9078 15.374
25.9445 20.4897 16.4925
24.652 19.6306 16.7859
23.4625 16.9066 14.4235
23.2112 16.1785 13.0996
21.3656 17.6014 14.9531
24.4663 21.4336 19.7703
25.7159 18.0031 14.0431
21.9184 17.28 15.0969
22.8706 18.636 15.8043
23.6298 18.0395 15.6497
24.7994 19.4384 17.0581
20.4413 16.4667 14.2523
25.8659 20.1374 17.9673
22.8731 17.4865 15.0016
21.3151 15.7718 13.9875
22.9776 18.3724 16.7439
21.4161 17.1897 14.1761
24.3382 19.7294 17.0167
25.108 22.0032 19.5791
21.7269 17.6765 16.731
22.5199 18.236 15.9054
21.1292 18.2512 16.5021
22.2641 17.7392 17.8814
23.6741 17.0986 15.0059
22.4274 17.8095 15.9781
21.8327 17.7322 16.4731
21.5797 19.2116 18.0949
22.7314 18.4331 16.9767
18.6911 15.0631 14.0598
23.9477 18.7591 17.8637
20.826 17.1682 15.9236
19.589 16.0106 15.0821
20.2652 16.1784 15.5161
20.1527 17.9624 16.7147
19.2247 16.9506 15.7917
19.3029 16.6265 16.2875
20.2344 16.888 16.9371
20.5943 17.3425 16.9753
23.4789 19.4303 18.2792
20.94 19.2334 18.7467
17.2108 16.2913 17.1997
21.1462 16.8488 15.9761
21.013 16.7874 15.8691
20.7718 18.57 18.1741
19.4382 17.7505 18.6506
17.9762 15.4115 16.1877
20.5066 19.5122 18.7345
18.232 15.271 15.0961
20.1059 18.1144 18.5229
20.2575 17.746 17.0568
19.1885 17.3522 18.745
20.4457 19.5309 18.8852
20.083 18.9286 19.4436
19.028 18.4341 18.9205
20.7211 19.2087 19.0997
16.557 15.313 16.1631
19.2349 18.59 18.6612
18.6224 17.0662 17.942
17.4738 16.7225 17.7783
17.6002 16.6343 17.2833
16.8655 16.5524 17.5989
19.7259 17.8293 17.5752
15.465 14.3289 15.6973
19.9148 20.1976 22.4613
18.8836 15.8688 16.3224
20.5555 19.6313 20.18
20.4209 21.8229 25.4448
19.274 17.8528 18.8226
19.6776 18.6936 19.9853
15.988 15.9028 18.4295
19.8678 17.6759 18.9318
17.0163 15.7526 16.8786
16.6933 16.4581 18.0195
15.8122 15.8009 17.5569
13.7469 14.6433 16.9245
18.0954 16.9807 18.3913
15.8022 15.0639 16.7482
16.3211 16.125 17.9275
18.5005 17.4679 18.7671
15.2514 17.4557 20.9004
17.7907 17.5873 20.11
18.0372 18.2571 20.4575
15.5224 16.5887 19.5515
17.7592 16.7488 19.9291
17.7152 17.5893 20.0853
18.187 17.031 19.3857
15.0259 16.2897 18.9636
17.5529 17.5054 19.8367
16.8644 16.9028 19.3316
16.6023 16.7436 19.0781
15.3077 16.9283 20.5794
15.9811 15.8894 18.3241
17.5286 19.5002 23.2173
13.3738 13.8761 16.4611
15.7071 16.9242 19.9897
17.273 17.1031 18.3464
14.511 18.033 22.7482
15.9155 17.2787 21.4065
17.0405 18.3874 22.0006
16.6437 17.0302 20.6625
14.6575 16.3348 19.9189
16.2502 17.2996 20.9122
16.2186 17.6284 21.773
15.432 16.3596 20.0434
15.1625 16.1524 19.1109
14.1392 15.6229 19.774
16.2605 17.0539 20.3807
14.7243 15.3103 19.7242
15.9723 18.4638 23.5699
15.7286 16.648 20.7824
15.012 15.2562 19.1705
15.5636 16.5464 19.5772
13.8857 16.4186 21.348
16.8488 18.1404 21.272
14.4432 16.6296 20.8157
12.5217 14.0168 20.2215
15.5614 16.5937 20.6954
15.1916 16.5005 20.3712
15.7054 17.5926 21.8196
13.5318 15.721 21.1696
13.4346 16.7717 22.2831
13.8904 15.0208 19.0005
15.9128 18.6371 24.3102
14.2039 15.8077 20.4982
14.9394 17.0661 21.4761
13.7197 15.7508 21.3545
13.4834 15.5244 20.8669
15.323 17.2727 21.8634
13.4371 16.3341 21.4436
13.6436 17.2119 24.0626
14.711 17.0916 22.5166
14.3247 16.8905 23.5058
17.6978 18.9097 24.8394
15.153 19.1293 26.7629
17.2674 20.1973 25.6349
14.7633 18.2262 23.5373
15.794 21.4574 29.8608
15.9287 19.411 26.0941
13.9337 16.128 22.7796
14.1739 17.5472 23.2681
12.885 16.48 23.9728
13.443 16.2629 22.5513
16.3596 20.5869 28.2318
15.594 18.7001 24.7283
13.2041 16.117 23.0559
11.9993 14.6802 21.5205
14.3014 17.8633 24.6432
12.1028 14.5453 20.3072
12.8577 16.7161 24.1582
13.8084 15.3798 21.7852
14.3983 17.3451 24.5135
14.0728 18.1908 25.3484
12.9729 16.1528 23.532
11.445 14.2408 20.5602
12.167 15.7017 23.605
14.1847 16.7528 21.9828
12.7124 17.692 27.3458
12.0076 15.5862 22.1413
11.3336 14.9931 21.9259
12.5427 15.7744 23.0996
12.9111 16.9861 24.7587
12.7852 15.9418 23.5826
12.7774 16.4604 24.6954
12.8725 15.3541 21.2289
10.985 13.9346 21.0648
11.6274 15.3111 23.2781
11.1964 14.2614 22.8118
14.8695 18.1907 25.1713
13.0701 16.6118 24.0298
12.712 17.2393 27.0027
14.3398 17.738 25.9356
12.5352 16.3284 23.6866
10.3997 15.054 22.9932
13.4157 17.4902 24.9717
13.2624 17.9304 26.6928
10.1193 14.609 24.2558
14.367 20.7423 32.2745
12.5981 16.3704 26.181
13.6714 18.0087 27.499
12.7794 18.0434 28.4112
12.6634 16.5016 25.6224
12.3545 15.446 22.9496
12.2399 17.4723 26.4489
10.3305 15.4278 25.4687
12.3404 15.9862 24.9842
12.3261 16.0879 23.5758
11.1019 14.6225 22.124
11.7836 15.7461 24.0958
11.1163 15.656 24.8948
11.8607 16.8465 24.6252
11.7654 18.2027 29.5117
11.8672 16.6643 25.1605
10.5987 15.2417 24.6125
11.171 15.7623 26.0004
13.9792 20.5093 32.3767
11.9558 16.1463 24.3616
11.4425 16.7334 27.4886
12.3921 16.7795 26.7202
10.5292 15.859 28.5922
11.8655 16.1913 25.8984
11.1969 17.0994 27.1873
12.1704 17.8742 28.9727
12.7927 20.3036 32.3887
12.0806 15.9204 23.8795
9.73033 15.1414 25.5325
10.9463 15.712 27.3463
11.0159 15.0798 24.1927
11.972 18.2202 30.7754
10.6298 15.6564 27.8523
11.3506 15.5906 24.8703
11.0826 16.3558 27.5814
11.102 15.4733 26.1978
10.8793 17.0888 28.1783
10.8132 15.5763 26.9426
9.63614 13.7418 24.248
9.90121 13.3065 23.2072
10.3109 15.9387 27.1758
11.1528 17.0768 28.5985
8.62245 14.0058 27.0776
10.4925 15.3017 25.9517
11.0728 15.9337 29.1658
11.8508 17.6775 27.6889
10.501 15.2168 24.6158
9.05905 13.7319 24.6735
10.9826 16.9177 27.9953
11.1212 17.2252 27.4145
9.31047 15.0352 26.1082
9.34625 15.7778 29.6385
11.0123 15.3295 27.2419
11.6931 19.1368 33.4604
12.7054 17.2103 27.5429
10.4183 16.2778 27.6671
10.6046 18.0516 32.8925
10.365 15.3577 27.0947
11.5623 18.5403 32.1771
8.80192 14.6017 26.9673
9.55634 14.9549 27.2394
9.45886 14.8865 26.8678
10.5589 15.4433 27.8058
10.7493 16.7981 26.7541
8.5884 16.0126 30.6334
9.57331 13.7101 25.2165
9.68676 15.4871 27.9599
10.1536 15.547 27.9604
9.05623 13.852 24.2182
7.39453 11.7356 24.2649
9.33953 16.3423 29.9685
9.77804 15.8041 30.9627
12.0255 18.6002 33.3366
9.25869 13.3369 23.3486
8.34589 15.3327 32.393
11.3749 17.6013 30.3607
10.6451 18.3401 34.2047
9.31905 14.2791 27.028
9.25734 15.6578 31.271
9.8623 15.3477 27.2213
10.4903 16.8675 30.8113
9.27023 14.441 27.7545
9.30672 14.0519 24.4935
9.57861 17.8191 31.9995
9.66724 16.8899 32.9595
9.33524 15.0351 26.6536
8.05289 12.8541 25.8798
9.36355 16.9346 30.8933
8.59409 14.3081 27.2626
8.76739 16.007 30.9978
8.60238 13.1513 25.5984
9.65299 15.4389 30.9266
10.4439 18.3479 35.8026
11.1318 17.817 33.0443
9.54633 16.4992 30.4417
8.56316 16.8394 33.8703
9.75187 15.6901 30.7727
10.199 16.0945 31.7384
9.36034 15.4367 29.0006
8.69943 15.0428 29.7448
9.37147 14.9299 27.9452
9.69119 15.9911 30.7859
9.00933 15.8059 30.5848
7.59652 12.6184 24.9402
8.31597 15.2185 30.2047
9.00243 16.1728 33.0277
9.35534 15.2059 28.4149
8.89952 16.3487 35.2232
9.34507 15.7415 31.7316
9.5173 16.9928 32.217
9.77981 16.6012 32.8987
9.47038 16.9723 32.7882
8.70166 15.5461 31.3485
8.89366 15.1608 28.9546
7.71005 15.6105 31.0669
7.98941 15.7389 32.6243
8.99671 15.0855 29.0186
7.47512 12.8926 28.4672
8.95412 16.414 35.157
8.69837 16.148 33.4206
8.97896 15.582 30.5596
8.55641 15.1255 29.2773
7.69551 14.193 31.1323
8.40951 16.6042 34.8078
9.43975 14.6019 28.8787
8.43332 16.8371 36.8328
8.31851 13.8975 29.6034
8.83832 15.4558 33.9748
9.25344 16.6042 34.1971
8.65244 16.0667 33.2963
9.09437 16.5044 31.1171
7.62103 15.2624 32.8369
7.66666 14.0162 32.1008
8.7985 17.4008 36.7619
8.76769 15.0479 32.3517
8.38276 14.082 28.6124
9.04515 16.3061 32.0324
8.09944 16.2256 32.3855
7.80349 14.8721 30.4285
7.07528 14.0094 32.0802
7.5738 14.4177 29.4056
8.2741 18.1607 42.9596
8.66173 14.057 32.5973
8.18219 15.1682 30.7705
7.8319 14.3593 30.0612
8.70873 15.7924 33.1521
8.32862 17.1431 35.7972
9.1848 17.2686 39.4629
9.03304 16.6776 35.9389
8.64602 14.7644 30.1464
8.01494 17.0304 38.2777
8.38413 15.5607 31.3315
6.3605 13.9657 32.9328
7.81791 14.8746 32.0049
7.44049 13.6205 32.3047
9.34727 16.7152 34.0322
8.25859 13.7822 29.9696
8.209 15.1846 31.3869
6.74372 13.4233 31.0746
7.22536 14.7026 32.1029
7.07095 14.2166 37.1212
9.67263 16.9648 34.769
8.49528 15.2205 31.3914
6.65398 13.4066 32.7271
8.13714 15.0689 32.6907
7.05148 12.8644 28.4165
6.87504 12.766 30.4844
8.01147 16.7393 37.522
8.28793 15.3511 31.1908
6.3029 13.2285 31.711
7.63697 16.2326 36.3112
6.55284 11.7469 25.3196
6.52773 13.9024 31.6742
8.60274 16.9107 35.2667
7.61865 16.3787 37.554
8.06857 14.9273 34.8791
6.69081 14.1569 35.0532
6.79933 13.6056 31.8851
7.25259 14.524 29.7707
6.17752 13.0338 31.1194
7.77494 15.0664 33.837
7.1945 14.9839 33.9726
6.9731 14.1864 33.9135
7.48796 15.2426 36.07
6.34183 11.4228 27.4438
6.5779 14.0952 34.2575
7.25817 14.614 35.845
8.35417 15.6228 33.585
6.8049 12.477 29.399
6.65757 13.509 29.2123
6.6325 15.4353 37.0076
7.19431 14.6958 34.6922
6.52574 13.4323 30.1955
5.90251 12.2002 30.1975
6.19577 12.8278 35.2019
8.3776 14.7921 32.5394
7.15517 15.9025 36.6438
6.57272 13.6576 36.482
8.35684 15.7248 35.5151
6.29456 13.5226 33.3091
7.08215 13.7007 29.5042
6.36958 13.9598 32.5413
5.80828 11.9971 33.564
7.27558 13.5402 30.7554
6.59693 14.6789 34.989
7.18401 14.3141 32.3177
6.61149 15.0242 33.6893
6.0683 11.6544 29.9648
6.15809 12.3502 31.8956
6.73994 14.1513 33.128
6.92574 15.9509 35.6163
6.27723 13.5743 33.4277
6.82559 13.5838 33.9572
6.19658 13.2785 32.7462
6.23802 13.2589 36.5148
7.38999 14.9421 36.6076
6.95513 14.6872 36.0733
7.22275 15.6513 38.1859
7.27414 16.0604 41.6196
