# pn-170911/RbIIR-47-RbIIA-1280-1959.psd
# Power spectrum* (dif=0,1,2) (really just |FT|^2)
# NOTE: only the first half! (symmetric)
# weeks: 1280-1959
# 4121 clock-days, 101 excluded
# PSD: 1441
5296.3 0.228869 0.0332448
589151 12.3882 0.0278729
1.73327e+06 32.5137 0.02952
348148 10.9231 0.0301715
228500 13.3227 0.0295964
105399 7.62255 0.0287224
71246.3 7.73796 0.0294838
47502.3 6.83364 0.0290951
37703.6 6.94365 0.0303502
27569.8 6.4155 0.0314068
23404.4 6.36616 0.0313073
18956.9 6.19568 0.032282
15546.5 6.20275 0.0340009
13244.7 6.16226 0.0329773
11817.7 6.46093 0.0345571
10119.4 6.18027 0.0347587
9124.39 6.38339 0.0367921
7974.24 6.43537 0.0367044
7287.39 6.56464 0.0386487
6334.99 6.37159 0.0404414
6025.78 6.83924 0.0404449
5412.41 6.80193 0.0427129
5094.75 7.22064 0.0455757
4697.76 7.30165 0.0466481
4448.15 7.54001 0.0477821
4096.04 7.61148 0.0506252
3828.54 7.75848 0.053695
3528.46 7.84074 0.0546435
3582.63 8.64023 0.0618272
3249.77 8.68629 0.0627045
3132.78 8.89017 0.0659722
3078.9 9.50092 0.0730002
2903.87 9.69471 0.0762947
2758.73 9.73012 0.0792642
2694.47 10.1811 0.0849027
2626.28 10.5284 0.0922203
2497.18 10.8783 0.0958945
2478.69 11.6544 0.105855
2372.84 11.9708 0.109902
2298.14 12.0048 0.116308
2258.68 12.4505 0.122284
2204.75 13.0658 0.132556
2110.7 13.3005 0.138008
2167.5 14.2403 0.151194
2028.43 14.3071 0.159413
1983.27 14.7213 0.167129
1929.65 14.9216 0.178664
1894.71 15.3382 0.189554
1969.05 16.5215 0.210465
1923.17 17.3589 0.226393
1740.78 16.1185 0.222894
1780.67 17.0906 0.238799
1739.87 17.6722 0.256556
1723.15 18.2827 0.270637
1694.7 18.7241 0.289073
1635.67 18.9826 0.298167
1630.04 19.5447 0.318013
1538.62 19.0401 0.327493
1554.87 20.5176 0.360416
1508.23 20.4362 0.368078
1468.5 20.363 0.375554
1445.11 20.9354 0.393186
1418.61 21.5264 0.419734
1382.59 21.3978 0.430564
1366.49 22.0952 0.46041
1357.73 22.6274 0.482696
1300.32 22.6281 0.500573
1260.22 22.6441 0.509888
1203.69 21.934 0.509528
1256.29 23.3893 0.549614
1201.35 23.5195 0.57888
1195.2 23.7676 0.597653
1200.62 25.0222 0.640407
1149.52 24.2056 0.636106
1127.32 24.4599 0.661346
1059.76 23.6767 0.660525
1079.93 24.9641 0.711718
1042.9 24.7531 0.719251
1027.11 25.2425 0.762022
984.733 24.5738 0.75543
979.927 25.3139 0.802072
963.606 25.0848 0.801467
939.78 25.4286 0.838224
904.928 24.9852 0.85001
923.435 26.7545 0.919295
932.427 27.0071 0.960317
883.244 26.0232 0.942365
834.218 25.8943 0.956852
854.408 26.6002 1.00507
820.105 25.8497 1.00349
811.914 26.6392 1.04271
815.703 27.4394 1.10984
759.975 25.9696 1.06858
750.054 26.3647 1.10598
718.216 25.5975 1.10018
736.81 27.2552 1.18976
817.033 30.8206 1.37608
736.063 28.0916 1.2732
695.128 27.1194 1.25134
686.197 27.1554 1.28952
664.601 27.1586 1.31268
667.529 27.3775 1.35754
674.455 28.4711 1.44115
620.232 26.6254 1.36231
632.521 27.297 1.41842
627.117 28.2244 1.5045
593.468 27.08 1.46172
588.459 26.9965 1.49943
576.787 27.4154 1.53788
571.479 27.5112 1.57547
570.304 27.9024 1.62329
548.372 27.0143 1.5983
528.009 26.8927 1.63875
536.207 27.9862 1.72514
522.141 27.4087 1.71938
511.31 27.2737 1.7409
507.553 27.6735 1.7829
468.47 25.5391 1.6762
481.579 27.5234 1.83685
488.314 27.9893 1.90303
485.028 28.1623 1.94169
459.767 27.1401 1.89617
442.848 26.4991 1.88168
456.614 28.2274 2.05538
436.041 26.8586 1.97397
432.266 27.3942 2.03848
427.949 26.9568 2.05036
410.368 26.1454 2.01566
412.669 27.27 2.12265
402.818 26.951 2.15672
386.406 26.3875 2.12738
400.424 27.6218 2.26375
382.292 26.5719 2.21637
377.542 27.0799 2.28241
363.32 25.815 2.20402
368.767 27.2093 2.36805
365.188 27.4033 2.41813
357.779 27.3528 2.44934
358.047 27.0018 2.44889
343.252 26.3679 2.42169
343.085 27.1392 2.53176
338.236 27.2045 2.5909
322.287 25.5897 2.44629
326.923 26.8464 2.62392
321.677 26.438 2.59734
317.057 26.6276 2.65642
309.49 26.6185 2.70539
307.676 26.6294 2.73407
291.744 25.5087 2.64457
302.546 26.8461 2.83808
305.637 27.1276 2.90691
280.073 25.6952 2.78207
283.856 26.2064 2.88741
288.92 27.3355 3.03254
275.753 26.2911 2.96628
278.239 26.9258 3.08766
277.602 27.2268 3.15374
270.559 26.8647 3.12311
266.713 26.6259 3.17209
256.233 26.1293 3.13544
250.514 25.6165 3.1142
255.762 26.2881 3.22857
251.455 26.2935 3.26249
251.18 26.8074 3.39502
243.796 26.3789 3.35696
243.664 26.2384 3.39175
232.318 25.6149 3.34421
238.992 26.915 3.55547
233.755 26.2335 3.5282
233.262 26.5706 3.57045
230.833 26.408 3.61768
224.999 26.2432 3.63187
225.816 26.7184 3.741
218.41 25.9854 3.68878
212.722 25.6873 3.6856
216.525 26.4513 3.82599
214.275 26.4651 3.85037
208.023 26.0997 3.8625
204.981 25.93 3.88861
201.5 25.6497 3.87322
207.5 26.199 3.99858
200.031 26.3809 4.08489
196.948 26.0432 4.07374
201.02 27.0206 4.29622
198.425 26.5078 4.19819
193.155 26.4159 4.2742
196.898 26.6032 4.28637
188.184 26.229 4.32968
187.872 26.5198 4.41712
185.198 26.4129 4.4473
176.824 25.2756 4.31736
172.912 25.2011 4.36491
216.75 33.3515 5.75411
178.433 26.1957 4.56816
172.211 25.6079 4.54161
176.999 26.8425 4.83729
167.41 25.2738 4.56287
169.883 26.1948 4.76732
169.398 26.1475 4.83664
168.176 26.0815 4.84403
163.634 25.9709 4.88406
160.817 25.8742 4.92957
163.36 26.3248 5.02646
156.845 25.9377 5.03847
157.964 26.1712 5.11106
156.859 26.2739 5.21472
158.944 26.8015 5.29605
150.775 25.494 5.14829
151.68 26.1155 5.29473
154.253 26.6153 5.48912
151.134 26.2989 5.4288
145.337 26.0661 5.45402
148.506 26.4744 5.59997
148.327 26.684 5.65743
148.555 26.7921 5.74564
147.125 27.6832 6.00924
144.154 26.6206 5.83765
142.072 26.3365 5.82076
143.634 26.7886 5.92389
141.476 27.1311 6.08965
136.732 26.0332 5.93131
138.581 26.6006 6.09075
132.258 25.9363 6.01559
134.306 26.4143 6.12799
131.901 26.4102 6.17167
131.035 26.2732 6.21114
131.712 26.6852 6.38854
128.664 26.3064 6.33735
130.654 27.0157 6.5882
133.483 27.5093 6.67224
127.597 26.9903 6.69616
127.739 26.8956 6.72181
126.566 26.7577 6.7166
123.49 26.6136 6.81117
126.901 27.1481 6.91708
124.517 26.8206 6.87133
117.507 25.886 6.70365
121.275 26.6858 7.02076
119.288 26.4108 6.97978
117.246 26.8612 7.26093
118.655 27.1425 7.22225
114.573 26.4182 7.16578
112.783 26.2161 7.18529
118.117 27.3675 7.47137
115.447 27.2559 7.58518
113.583 27.0862 7.55509
113.559 27.3118 7.64503
110.355 26.5537 7.60874
112.262 27.3782 7.81658
108.094 26.1454 7.53088
108.238 26.6464 7.7534
107.847 26.4734 7.76431
103.631 26.747 7.91853
105.808 26.6571 7.94661
109.156 27.9303 8.31141
107.439 27.806 8.44118
104.587 26.8237 8.18765
103.607 27.4643 8.41863
104.066 27.2631 8.35537
102.897 27.485 8.61651
106.697 28.1485 8.8571
102.438 27.4577 8.59061
97.0574 26.3783 8.46873
102.868 27.9949 8.97738
100.758 27.8801 9.02694
99.8187 27.46 8.94611
96.73 27.1584 8.94284
99.531 27.9652 9.31624
96.8742 27.365 9.0739
94.4522 26.9962 9.04941
97.2471 28.1837 9.4943
95.6425 27.3862 9.24231
92.6254 27.3512 9.44567
92.9561 27.2494 9.39188
92.3494 27.1061 9.34724
92.1159 27.7819 9.71951
93.5479 27.9437 9.84539
94.7099 28.17 9.98316
91.0471 27.6806 9.89423
89.8182 27.3581 9.85004
89.1859 27.797 10.0783
90.9787 28.4929 10.4016
89.4502 28.0435 10.28
86.5515 27.2371 10.0594
86.7151 27.4755 10.2347
84.5444 26.7828 10.0251
85.2371 27.1625 10.3067
85.2381 27.8812 10.8546
110.75 36.8906 13.7555
84.101 27.9246 10.8307
83.5432 27.469 10.6043
80.7916 27.2702 10.7038
82.9788 27.5995 10.843
83.9307 28.0889 11.0884
80.8055 27.7201 10.999
81.3482 28.111 11.2931
81.1544 28.1047 11.2634
79.8413 27.8378 11.3385
79.3445 27.277 11.098
80.034 28.2684 11.6358
78.4111 27.5891 11.4752
78.4991 27.9888 11.638
78.2461 27.7472 11.5695
76.9235 27.8882 11.833
79.1116 28.3762 12.0142
75.2027 27.4855 11.8254
75.4481 27.9354 12.0405
74.1687 27.3803 11.8405
74.2641 28.0167 12.2262
73.4956 27.1005 11.9389
75.7311 28.1232 12.3495
75.2813 28.2843 12.4842
73.5046 28.0147 12.4204
72.3568 27.7565 12.5214
75.0769 28.2956 12.6577
73.8994 28.8607 13.2707
71.8853 27.9359 12.8484
71.7876 28.3335 12.9443
72.0171 28.4223 13.269
71.916 28.4874 13.2107
70.0778 27.9572 13.0443
70.0933 28.3585 13.378
70.1444 28.4667 13.5838
68.1123 27.6909 13.2006
69.9046 28.1531 13.4094
67.7302 27.8975 13.5807
69.0159 28.6508 13.7627
68.9149 29.0791 14.2083
69.3035 29.2062 14.4049
67.5993 28.3058 13.9735
67.1424 28.6467 14.2771
66.3186 28.2537 14.1418
67.4124 28.8276 14.4125
66.8918 28.859 14.5245
64.687 28.4033 14.5303
65.4685 28.6274 14.6596
65.5854 28.5647 14.601
63.4069 28.1452 14.5395
64.0928 28.0034 14.5909
64.308 28.5267 14.8465
62.2743 28.1735 14.825
62.3338 28.3294 15.2392
64.364 29.2387 15.4206
62.3199 28.4809 15.1783
62.506 28.9591 15.4503
61.096 28.3159 15.4211
60.7812 28.438 15.5092
62.4677 29.1196 15.7804
59.7466 27.9592 15.5365
59.3806 27.744 15.3199
59.476 27.6463 15.3011
58.8554 27.911 15.5554
58.3768 28.0522 15.808
60.9307 28.9339 16.3424
60.7881 29.6027 16.7026
57.4388 28.1098 16.0191
57.2413 28.2279 16.2839
57.7871 28.4361 16.4694
57.7125 28.629 16.5556
56.9278 29.0363 17.1277
56.8917 28.2927 16.6644
56.5814 28.1994 16.6372
58.1882 29.265 17.2942
56.2648 28.7237 17.081
55.9789 28.7309 17.1696
55.0753 28.3949 17.2477
57.0227 29.1909 17.4649
53.8975 28.3369 17.3479
54.0374 28.4674 17.3581
54.9136 28.7886 17.7215
53.5882 28.1293 17.3106
51.7203 27.5208 17.4325
54.4122 28.5118 17.6473
52.2366 28.3107 17.6746
53.351 28.3066 17.9311
52.629 28.7878 18.1447
53.5432 29.3054 18.5119
52.8381 28.8698 18.5479
51.236 27.8322 17.8957
51.1306 28.3763 18.2597
51.7574 28.873 18.7965
51.2086 28.39 18.5902
51.4064 29.495 19.8054
53.5275 30.154 20.0999
66.1434 38.5132 24.4388
48.239 28.0796 19.0211
51.6725 29.4019 19.5597
49.9455 28.9713 19.558
50.6369 29.5314 19.8705
49.041 28.6562 19.5678
50.0779 29.1461 19.7423
48.7857 28.8237 19.8452
47.9367 28.4179 19.5286
47.097 28.054 19.4382
47.6199 28.1091 19.5552
47.4516 28.3816 19.6802
47.477 28.9293 20.5183
47.195 28.3388 20.0393
47.0736 28.2573 19.9746
46.9181 28.3817 20.2158
48.14 29.3462 20.8216
46.5857 28.8208 20.6223
46.7716 28.8926 20.9453
46.2652 28.4164 20.5602
45.9598 28.7287 21.0113
45.5792 28.6981 21.0131
45.4624 28.7625 21.3831
46.3175 28.811 21.0501
44.9897 28.8486 21.5493
45.3051 28.9304 21.4385
44.9454 28.7526 21.689
45.1037 28.6547 21.4653
45.6804 29.7153 22.2529
45.0771 29.4225 22.3369
44.8866 28.9713 22.1464
44.0326 29.0807 22.4242
43.8776 28.7217 21.9503
44.413 29.3256 22.6979
42.1828 28.2018 22.0007
42.2011 28.0258 21.8577
43.2128 29.1403 22.8306
42.2035 28.5373 22.5532
42.5875 28.5295 22.5661
42.3228 28.8029 22.817
41.7759 29.031 23.1293
42.7309 28.729 22.9738
41.8481 28.6041 23.1288
42.7164 29.92 24.094
40.2438 27.4494 22.2373
41.5789 28.9672 23.681
42.4329 29.5823 23.8736
40.8412 28.6143 23.4578
40.8999 29.2255 24.1841
40.0282 28.6316 23.8488
40.6141 29.1738 24.0988
39.6147 28.3226 23.543
40.5698 29.0271 24.5446
39.4626 28.4165 24.0532
39.3988 28.1861 23.7654
39.8101 29.0541 24.5377
40.8887 29.5554 25.1225
39.2113 28.6874 24.5857
38.8285 28.6544 24.8943
39.845 29.2506 25.285
38.2737 28.6267 24.8662
38.0663 28.2027 24.6524
37.3825 28.7703 25.6246
38.7215 28.6451 25.0454
38.0879 28.5872 25.2946
37.8963 28.7042 25.4006
38.6672 29.5739 26.256
37.7816 28.7755 25.6429
38.062 29.6509 26.6738
38.4227 29.1325 26.0205
37.1485 28.7789 26.0297
37.0035 28.6113 26.0661
37.178 28.4258 25.808
37.1492 28.881 26.2038
36.8503 28.964 26.7716
37.1648 29.2338 26.5734
36.7882 29.2338 27.1035
36.3636 28.7744 26.8561
36.3529 29.402 27.2861
35.7073 28.8833 27.1783
36.4339 28.7956 26.9511
36.0003 29.018 27.5253
36.0328 29.3023 27.5936
34.2876 28.0727 27.0013
35.6279 28.5601 27.0329
35.4624 29.2957 27.9834
34.4817 28.9538 27.8043
34.1133 28.6912 27.9123
33.6409 28.3472 27.8
35.569 29.0236 28.0718
34.7222 28.7741 28.0205
35.0172 29.7149 29.5676
34.6114 29.0857 28.8647
34.4983 28.7554 28.6053
34.556 29.4102 29.37
34.113 29.1594 30.2063
44.2482 38.274 35.7991
32.4593 28.298 28.8872
34.4431 29.7532 30.1111
33.4015 28.9238 29.5711
33.4359 28.7452 29.061
33.1511 28.75 29.4043
32.1821 28.0404 28.912
32.9946 28.5866 29.2275
31.965 27.9421 28.8351
32.4581 28.6073 29.5054
32.3155 28.5794 29.442
31.8209 28.3142 29.4321
31.9111 28.5329 29.9848
32.257 29.0939 30.5583
32.0405 28.9478 30.5101
32.3092 29.0252 30.3075
31.5843 28.9184 30.8601
31.9064 28.761 30.782
31.3975 28.4734 30.3954
30.2401 27.5871 29.4123
31.5795 29.1231 31.4476
31.6161 28.7618 30.844
30.5843 28.5423 31.3234
31.1145 28.5927 31.0619
30.3533 28.5422 31.198
29.8577 28.0493 30.6426
30.4054 28.6247 31.4316
30.6735 28.5071 31.5372
30.217 28.4878 31.4141
29.6949 28.0135 30.9201
30.2657 28.9738 32.3346
29.3082 28.4423 32.0078
30.2194 28.9898 32.8101
30.1636 29.0641 32.2781
29.375 28.7902 32.6534
30.1173 29.0402 32.7775
29.1508 28.4746 32.7253
29.847 29.1635 33.5845
29.6202 28.4741 32.3877
28.4021 27.7435 32.0315
28.2139 27.707 32.0307
29.0634 28.1153 32.4681
29.1723 29.3184 34.0514
29.1484 29.0754 33.5952
28.345 28.7755 34.1056
28.0648 28.2004 33.1471
28.2912 28.8465 34.2964
28.3492 28.7396 33.904
28.1839 28.5278 33.744
27.7235 27.8859 32.9555
27.9834 28.9627 34.8521
28.4695 29.2756 35.1721
28.104 28.8951 34.6615
28.2963 29.1355 35.5222
27.5998 28.5327 34.9728
27.7608 28.4104 34.3139
27.2929 28.162 34.4086
27.2025 28.26 34.2866
27.0151 28.4408 34.916
27.8246 28.6352 35.0578
27.7771 29.7602 36.7719
27.0566 28.1746 34.688
26.5411 28.0908 34.8532
26.6312 28.526 35.7305
26.8063 28.9928 36.2236
26.7036 28.673 35.8879
26.342 28.825 36.2103
26.1225 28.2694 35.8506
25.9372 27.9121 35.6416
25.7406 27.8494 35.5032
25.9271 28.1071 35.5149
26.4977 29.2844 37.4992
25.8648 28.4513 36.9181
25.9946 28.2999 36.5783
26.5134 28.7538 36.8987
25.801 28.9019 37.8032
25.8889 28.6308 37.1545
25.8827 29.2275 37.8419
25.3719 28.4775 37.6776
25.6277 28.4753 37.179
24.9096 27.7482 36.3285
24.858 28.3077 37.4796
24.8791 28.1487 36.7858
24.2054 27.2124 36.2204
24.3954 27.6955 37.3162
24.9031 28.6434 38.6303
24.6479 27.2918 36.783
25.0845 28.1864 37.5084
24.388 28.502 38.1954
24.2424 28.1129 37.898
23.5872 27.1125 37.3742
24.5412 28.3977 38.7174
24.1834 28.1798 38.7927
23.695 27.1636 37.5248
24.5125 28.8611 39.8714
24.0786 29.011 42.3799
30.5351 35.5942 45.8748
23.6107 28.2855 39.4895
24.0553 28.2014 39.1133
24.3026 29.0145 40.5507
23.5988 27.8486 39.123
23.4405 27.9867 39.044
23.918 28.4216 39.2738
22.5245 27.1628 38.9193
23.1101 27.9946 40.3069
23.9746 28.3229 39.8251
22.9505 27.6361 39.5283
23.1516 27.6723 39.0966
22.2512 27.6668 39.8895
22.3467 27.3295 39.5123
23.0307 27.7624 39.5541
22.643 28.2153 40.4713
22.2552 27.4167 40.3223
22.8976 28.1503 41.0896
21.969 27.7772 40.7857
22.1168 27.0441 39.7243
22.0334 27.0768 39.7107
22.2333 27.3661 40.0259
22.2283 27.4516 39.9609
21.6731 27.0581 40.0126
21.3009 26.5079 39.2241
22.0258 27.724 41.0953
21.4177 27.1278 40.2527
21.4558 26.7373 40.0126
22.1056 28.346 41.8917
20.9316 26.8237 40.9394
21.2872 27.0218 41.1836
22.3785 28.1128 42.1843
21.4164 27.2376 41.2758
21.2031 27.499 42.2699
21.735 27.9235 42.5502
21.262 27.0726 41.0018
20.288 26.5757 41.5633
20.7289 26.5536 40.8282
20.6285 26.9219 40.951
20.7483 27.1048 41.9127
20.6785 26.9043 41.9055
20.7033 27.1962 42.5181
20.8164 27.3282 41.9503
20.3868 27.0371 41.766
19.9857 27.4304 43.5722
20.8117 27.3384 42.9845
20.4207 27.1704 42.74
20.8217 28.0944 43.906
20.0961 26.7011 42.416
20.0509 26.9644 43.3015
19.5809 26.6581 42.4363
19.5158 26.4447 43.0663
19.9825 26.9133 42.3972
19.9776 26.8012 43.1591
20.36 27.398 43.7684
19.5652 26.7899 43.2689
19.2207 26.5493 43.0704
19.7298 26.6713 43.3985
19.4128 26.8078 43.7133
19.4447 26.7522 43.2506
19.4204 27.2014 44.4791
18.9078 26.1354 43.6442
19.6978 27.0318 43.7999
19.2143 26.6926 44.2512
19.1813 26.645 43.8746
19.0801 26.3848 43.5998
19.0233 26.537 44.0673
19.034 27.0514 44.6292
18.5862 26.5287 45.0204
18.981 26.9039 44.6005
18.7541 26.6989 45.0761
18.5704 26.6209 45.624
18.658 26.4505 43.2956
18.173 25.9135 44.1494
18.2488 26.4302 44.8622
18.271 26.0132 44.4414
19.2066 27.0207 45.929
18.3357 26.2905 44.2489
18.2007 26.6623 45.5576
18.0804 26.3422 45.3451
18.2966 26.9854 46.4992
18.0225 26.0108 44.8733
18.1688 26.8222 46.3596
17.7709 25.7684 44.6231
17.5649 26.001 45.3412
17.6124 26.2685 46.556
18.3902 26.1516 44.9767
17.6112 25.778 45.5144
17.5763 26.261 46.9068
18.328 26.8946 46.5066
17.7479 26.4436 46.8879
17.6917 26.3019 45.8405
17.1911 26.158 46.2742
17.3777 25.9551 46.0711
17.0897 25.2664 45.7197
17.2224 26.3859 52.2479
21.8399 32.5978 52.4076
17.2172 26.1307 46.8625
16.9136 25.2603 45.9913
17.2803 26.157 47.5096
16.758 25.3599 46.1865
17.0511 25.7549 46.8304
17.2074 26.1428 46.8324
16.6636 25.6991 46.9939
16.6825 25.7407 46.8113
16.6792 25.5953 47.222
16.8399 25.8853 47.852
17.3918 27.059 49.2497
16.621 25.5104 47.2025
16.733 25.7745 47.6527
16.5415 25.6768 47.6654
16.9195 25.8559 48.3287
16.8685 26.0491 47.3773
16.2125 25.128 46.8948
16.5345 26.2257 48.8072
15.935 25.3858 48.4742
16.3508 25.4346 47.4473
16.237 25.401 47.521
16.0767 25.708 48.512
16.1488 26.2103 50.2079
16.2814 25.6094 48.2254
16.1035 25.2182 48.0478
15.9195 25.3051 48.175
16.0947 25.8869 49.3997
16.0959 25.5516 49.1052
15.9596 25.3749 48.9385
15.9032 25.4399 48.2894
15.9232 25.4871 48.6318
15.7515 25.8445 50.473
15.9036 25.8604 49.4877
15.5008 25.3104 49.4014
15.4991 25.1327 48.6281
15.4459 25.4901 49.928
15.6469 25.4134 49.6527
15.7287 25.5675 49.9824
15.2438 24.8939 49.096
15.5314 25.2478 48.6267
15.094 25.4694 50.4938
15.0808 24.7022 49.4746
15.1661 24.6535 48.7516
15.3092 25.2273 49.3532
15.1708 25.5422 50.3309
14.9884 24.6403 49.4197
15.0912 25.4306 51.1357
15.2116 25.5941 50.8773
14.7877 24.5974 49.511
14.7391 24.8933 50.0331
14.629 24.2609 48.8673
14.5903 24.6416 49.179
14.5156 24.2577 49.4168
14.922 25.2375 50.7138
14.7505 25.2295 51.2974
14.4362 24.3733 50.4072
14.8449 25.1597 51.2145
15.0561 25.9144 52.5913
14.6419 24.6943 50.2713
14.3208 24.6694 50.2744
14.1324 24.3639 50.5858
13.9594 24.1012 49.802
14.3995 24.6026 50.4547
14.1091 24.0668 50.3983
14.4279 25.1252 52.5535
14.6237 25.4084 51.8122
14.1901 24.1897 51.5118
14.2893 24.6337 51.0303
14.1256 24.4114 50.45
13.9132 24.3235 51.1064
13.9486 24.6856 51.7243
13.9512 24.5798 51.656
13.9567 24.3021 51.3128
14.3272 25.1019 52.5625
13.9165 24.7343 52.3504
14.0794 24.9341 52.527
13.5316 24.2835 52.6088
13.6557 23.7963 50.8704
13.5474 24.1148 51.7336
13.6036 24.661 52.7329
13.609 24.3675 52.642
13.9944 23.9343 50.9937
13.7177 24.1674 51.8641
13.876 24.6466 51.7014
13.386 24.6592 53.8739
13.7046 24.4128 52.6538
13.3799 24.0873 51.9779
13.3763 24.4237 52.6188
13.0067 23.4766 52.3573
13.482 24.6674 53.8657
13.394 24.1752 52.5539
13.0957 23.8103 52.8028
13.3696 24.0775 52.7238
13.1251 23.3843 52.1968
13.0393 24.6719 59.6119
16.4254 29.7546 57.8725
12.8116 24.0777 54.5855
13.0068 23.529 52.3658
12.9247 23.739 52.8088
13.1588 24.085 53.9234
12.8465 23.959 53.2336
12.8765 24.017 54.4995
12.9452 23.4924 52.6435
13.0265 23.7255 53.1811
12.8568 23.5753 52.9778
12.7277 23.5487 52.5013
12.4449 22.9447 51.1785
12.476 23.6661 54.1098
12.8454 23.941 54.4222
13.0301 24.0216 53.1546
12.3265 23.0869 52.7518
12.4327 24.0317 53.924
12.0851 22.8785 53.7333
12.2136 22.608 51.6507
12.3327 23.3563 53.2332
12.1605 23.1531 52.8079
12.1027 22.7794 51.8352
11.9026 22.5807 52.1236
12.359 22.9412 52.0685
11.5989 22.3733 52.0202
11.9294 21.9415 51.1269
12.15 23.4222 53.9907
12.0507 23.0274 53.6447
12.2206 23.579 54.9192
11.8292 22.3642 52.0463
11.647 22.5547 53.5315
11.9423 22.7287 53.4642
11.9752 22.4855 52.475
11.9374 23.1961 54.1543
11.4589 22.2871 52.5398
11.4699 22.6 53.3866
11.413 22.4073 52.4645
11.564 22.6019 53.9442
11.6137 22.5037 54.6351
11.6818 22.728 54.1743
11.8077 23.0244 53.9705
11.5941 22.8143 53.5776
11.0164 21.9687 52.9631
11.528 22.5976 54.4856
11.4068 22.5725 53.7134
11.1802 21.6187 52.3375
11.6837 23.347 56.0156
11.3406 22.3556 54.1337
11.6349 22.5901 53.9294
11.2744 22.9194 56.0706
11.5579 22.4506 54.8658
11.4759 22.4076 53.832
10.9935 22.0457 53.6321
11.1117 22.2723 55.1722
11.295 22.1806 53.9368
11.2349 22.2159 54.4953
11.2703 22.4951 54.111
10.9178 21.7617 53.6825
10.989 22.042 53.628
10.9635 22.094 54.2925
10.7655 21.4426 52.317
10.4371 21.555 54.5137
11.1097 22.1726 54.6256
10.9339 22.2193 55.0258
