# pn-170911/RbIIR-61-RbII-1280-1959.psd
# Power spectrum* (dif=0,1,2) (really just |FT|^2)
# NOTE: only the first half! (symmetric)
# weeks: 1280-1959
# 195 clock-days, 3 excluded
# PSD: 1441
115148 1.98618 0.0292293
3.48172e+06 88.3422 0.0578417
3.88621e+06 62.6295 0.064873
1.28877e+06 23.5328 0.0554402
787799 19.1677 0.0689442
522332 12.3956 0.0562703
350754 10.9892 0.0618151
243332 10.3023 0.0556744
197205 9.54679 0.0663102
163040 9.71322 0.0680002
110717 7.47647 0.0690036
116522 9.21028 0.0579362
76376.9 7.2718 0.0654704
81682.7 7.42905 0.0648782
62592.1 6.59887 0.0765998
63625.6 7.35937 0.0651106
46504.7 6.86288 0.074694
48040.8 7.06174 0.0728656
42554.4 5.73956 0.0747448
37320.3 5.72201 0.0741592
23883.9 6.33106 0.0844966
39845.7 6.53601 0.0754166
31613.9 6.21251 0.0823806
23535.9 6.62339 0.0813329
19706.2 5.63475 0.0777802
19478.2 5.35195 0.0780021
15366.3 7.27275 0.102074
17522.3 5.61358 0.0819756
16388.5 6.76852 0.0835749
14409.3 6.74712 0.0971516
11545.3 5.36355 0.0885345
13562.5 6.4618 0.0955323
12719.6 7.58778 0.090452
10044.2 6.25833 0.0976708
11768.5 5.9393 0.0924101
10590 6.26022 0.0985233
9557.32 6.61329 0.103979
9515.73 7.24773 0.0985186
8588.21 7.27796 0.0998959
8538.4 6.60008 0.124381
7418.17 6.70701 0.125122
6312.37 7.45052 0.108705
7190.47 7.61655 0.121891
6422.61 7.21533 0.154352
5755.72 7.11534 0.139138
5829.62 6.83543 0.130582
6002.91 5.98461 0.103961
6209.33 8.13545 0.155618
4666.47 7.51415 0.159571
5181.53 7.07469 0.154375
5397.78 6.25307 0.150675
5333.98 6.73348 0.139854
4207.64 8.16825 0.176358
4453.56 7.49182 0.190302
4218.27 7.46239 0.149097
4633.13 5.98021 0.136361
4037.74 6.75925 0.174279
4579.02 6.94314 0.187807
4371.1 7.89033 0.190335
3805.69 7.41598 0.21061
3870.39 8.2208 0.200689
3994.72 7.69306 0.204354
3795.75 7.01501 0.212956
4099.45 8.30886 0.243915
3838.87 7.6148 0.230306
3520.38 7.61455 0.234613
3225.42 9.0338 0.314696
3809.19 8.79006 0.273879
2993.92 7.6152 0.292834
2987.91 6.51366 0.228592
2787.93 8.67088 0.299566
2803.46 7.91776 0.289694
2651.48 9.15187 0.324022
2304.65 8.78235 0.328498
2580.61 8.41644 0.301805
2554.01 8.23465 0.306043
2646.8 8.95175 0.300986
2494.39 8.55793 0.357839
2314.98 8.16121 0.310259
2333.75 8.64032 0.372757
2099.66 9.50588 0.404745
2023.22 8.91423 0.343983
2045.61 9.69598 0.42547
1923.23 10.4247 0.494799
1930.1 9.3743 0.413008
2117.15 9.32158 0.366912
1484.46 10.5429 0.450157
1791.5 9.53471 0.469927
1737.61 8.81046 0.400455
1617.61 9.77628 0.475644
1415.03 10.238 0.476526
1789.7 8.58078 0.47378
1587.77 8.70559 0.404948
1482.39 8.01815 0.385506
1651.07 9.02695 0.477228
1747.05 12.9248 0.706487
1396.91 11.503 0.563475
1676.8 11.1204 0.586938
1494.39 10.7359 0.544757
1296.43 12.1952 0.662854
1350.29 11.0233 0.600595
1769.9 8.89311 0.575175
1409.58 11.5646 0.610455
1430.77 9.75638 0.535002
1376.11 11.4882 0.639012
1430.76 11.7524 0.639398
1017.26 9.80425 0.58575
1454.06 12.2064 0.727205
1126.02 10.2047 0.59827
1172.47 10.9585 0.735791
1050.52 12.2046 0.786298
1343.07 11.5793 0.764376
1225.15 9.99558 0.646261
969.996 12.2748 0.884689
1110.78 10.816 0.752531
1246.69 11.4094 0.791755
837.922 13.7472 0.923781
927.711 13.2478 0.939653
1028.65 13.2227 0.948378
1000.36 13.4279 0.970573
1130.6 11.4338 0.818918
797.912 12.5979 0.922268
953.044 12.6843 0.959673
1168.69 11.4891 0.903946
1018.98 13.2373 1.03868
990.776 11.999 0.994647
931.725 11.181 0.931266
759.825 11.7719 0.953749
870.414 13.1785 1.07878
803.454 12.5427 1.03972
830.142 11.7308 1.04037
862.037 14.5045 1.28897
784.606 12.5936 1.21302
844.619 12.3525 1.08575
797.989 13.108 1.15373
928.067 13.4131 1.23537
871.454 13.2336 1.25717
759.846 13.5648 1.26464
745.536 13.1164 1.25087
768.923 13.6667 1.26315
764.297 12.9133 1.32731
791.657 12.7681 1.28687
665.817 13.1043 1.35627
755.458 13.3357 1.35007
716.192 14.2675 1.48926
796.27 14.738 1.51813
635.642 13.3924 1.42685
703.682 12.8858 1.42934
620.69 13.7657 1.51377
720.342 13.2679 1.48215
653.507 14.7254 1.59634
633.816 15.9708 1.83695
720.395 13.476 1.49887
733.942 15.9201 1.83359
602.395 13.4494 1.56269
675.67 15.3016 1.74412
536.178 13.5848 1.60804
660.452 13.7403 1.60331
572.558 13.6015 1.64835
557.728 14.5445 1.84422
532.823 13.022 1.65375
522.922 14.1077 1.80607
579.966 14.0479 1.79464
562.047 13.7203 1.80737
686.531 15.6141 2.04304
695.279 14.037 1.81543
513.24 15.729 2.04197
450.872 15.0213 2.08059
653.274 14.8876 2.02089
509.251 15.2824 2.06678
499.095 14.8461 1.97378
393.554 14.9592 2.17667
380.122 15.5351 2.14189
594.207 15.7757 2.26717
480.095 13.245 1.97198
376.101 15.4755 2.32407
533.039 17.543 2.68876
507.011 16.046 2.40626
453.58 16.6752 2.59278
476.587 15.1008 2.39055
510.919 16.1679 2.46018
573.421 18.0215 2.92037
402.288 15.3031 2.394
542.386 18.7886 2.96985
477.674 16.4084 2.72219
521.383 15.5131 2.6155
503.68 15.3739 2.4485
585.036 18.162 3.06508
421.597 16.7406 2.8491
394.293 15.0535 2.60412
432.34 16.713 2.9389
502.48 17.407 3.12083
394.15 16.4283 2.83469
462.36 15.6552 2.72752
426.402 16.3163 2.97438
443.151 18.2166 3.14423
427.641 15.252 2.7877
510.883 15.2709 2.77945
351.648 16.4273 3.06409
360.351 19.5653 3.69549
420.648 16.6244 3.09448
392.349 17.6024 3.46156
355.904 18.4021 3.4935
465.786 17.3484 3.47536
386.188 18.5222 3.63973
340.002 15.234 3.09668
417.817 18.7405 3.77127
419.814 17.292 3.5397
371.297 16.8601 3.47043
415.745 18.3867 3.78736
376.527 16.1346 3.27385
399.398 17.0603 3.613
378.651 16.0877 3.41385
373.689 16.9787 3.53273
365.111 16.6223 3.55336
345.294 18.8133 4.19101
389.679 16.4033 3.54837
345.951 17.8384 3.96739
318.114 17.6645 4.04333
395.366 17.7062 4.01803
318.144 16.6436 3.97591
380.297 16.3577 3.81088
328.595 17.6104 4.03854
349.966 18.8989 4.5019
371.187 16.4306 4.11514
368.097 17.7927 4.27629
342.381 17.6838 4.28506
328.422 19.4558 4.71495
299.084 17.6393 4.51644
306.568 18.612 4.55579
304.881 16.0631 3.94261
310.016 17.1418 4.40016
314.621 18.1135 4.5367
338.161 17.9252 4.57088
276.35 15.6695 3.98919
303.998 17.3943 4.55667
258.404 20.1761 5.33503
320.195 19.0037 5.04294
295.803 17.0556 4.52209
294.99 19.6366 5.20498
268.868 16.5828 4.55927
283.446 16.3991 4.55105
304.277 18.453 5.10237
262.479 19.0103 4.98753
244.407 18.3876 5.02827
271.566 18.1938 5.12977
273.01 18.6664 5.3104
238.686 16.615 4.79163
252.327 20.8325 6.12324
300.024 20.4554 5.88801
275.233 20.651 5.94803
302.612 18.3949 5.6972
279.316 19.43 5.78752
263.749 18.8386 5.54799
291.175 16.7433 5.1885
224.379 18.7141 5.73124
288.677 18.1634 5.75337
277.489 20.6293 6.5572
271.332 22.7668 7.01616
260.142 20.2318 6.39739
258.682 18.5952 5.99944
237.214 18.9673 5.9331
216.869 19.8983 6.3593
248.815 21.0762 6.63293
246.227 19.8475 6.24964
217.112 19.7394 6.44043
256.263 17.2775 5.89478
291.733 19.5006 6.50406
196.322 20.3694 6.74579
260.18 17.0148 5.81608
261.104 17.7735 6.00645
230.977 18.9932 6.32465
231.088 20.9873 7.26541
222.553 18.2049 6.56975
239.545 17.6906 6.26229
247.489 16.725 5.85754
196.164 17.453 6.14221
248.413 19.5617 7.0242
199.821 18.5128 6.76568
225.815 19.2634 6.99326
213.212 19.8861 7.17962
195.223 19.176 6.98656
198.829 17.1273 6.42148
202.556 19.7129 7.32679
180.915 19.1701 7.19316
159.02 16.6274 6.3625
132.119 19.9626 7.49635
224.669 19.3271 7.37387
162.487 18.8243 7.17491
146.011 17.4034 6.72476
168.075 19.22 7.51014
176.527 19.5901 7.88216
184.769 23.4712 9.04846
199.232 17.5635 6.95845
191.391 23.1117 9.26844
179.484 17.4101 6.86051
215.487 20.5843 8.61191
193.429 20.4687 8.36248
176.564 18.856 7.88595
207.665 17.8321 7.21746
168.342 21.0079 8.7378
193.516 21.754 8.8005
187.309 19.7403 8.53826
192.754 19.6878 8.15877
181.875 18.6884 7.77545
182.226 17.0956 7.38141
171.757 21.5678 9.49655
159.893 19.239 8.3387
150.406 18.7556 7.60762
224.979 20.8591 9.55928
192.277 19.0236 8.36771
155.608 18.3287 8.45675
160.675 19.5197 8.72081
152.583 18.6157 8.41219
143.149 21.482 9.67902
169.078 20.1242 9.32926
161.825 19.9505 9.42067
167.392 18.1209 8.48823
144.234 20.9252 9.85031
193.673 22.1403 10.4831
177.669 21.4235 10.5376
156.369 18.5021 8.38494
187.144 19.6514 9.23851
169.445 21.1259 10.4056
161.449 20.3003 9.75003
165.168 21.9998 10.5635
150.889 19.3257 9.0498
163.149 19.8575 10.0624
158.57 21.6343 10.9401
133.821 22.5203 11.1511
158.557 23.738 11.6757
135.334 19.3755 9.61007
127.515 21.384 10.145
137.35 20.72 10.6353
140.133 22.1205 11.3099
153.508 19.4221 9.72818
127.983 19.6345 10.0811
130.958 20.8842 10.6705
155.095 20.5822 10.8693
159.755 21.0002 10.9079
133.968 20.7348 10.8609
128.076 20.9957 11.2001
129.358 18.4485 10.0736
153.068 20.3878 10.8685
145.089 19.6418 10.3283
153.815 18.1274 9.80886
160.158 19.4712 10.4002
141.138 17.432 9.55704
143.154 19.427 10.8585
153.873 17.9744 10.0914
154.536 22.2546 12.4407
156.4 20.4478 11.3895
131.017 19.6287 11.3833
160.748 22.1885 12.7757
137.729 19.5694 10.9309
176.335 22.8623 13.8032
150.474 20.0983 11.554
158.123 20.6636 12.0641
134.999 18.5003 10.6972
166.654 23.5036 13.3215
141.613 22.116 12.2732
115.64 19.5113 11.328
130.404 17.8321 11.4401
138.321 19.3366 11.5988
138.274 19.6782 11.6022
117.103 21.2915 12.3137
133.932 19.1434 11.4072
129.055 21.3076 13.294
125.254 21.7361 12.8303
124.109 21.9868 13.5962
114.434 17.6367 11.382
121.465 21.5324 13.703
132.827 20.0625 12.2527
135.739 22.1487 13.2734
106.451 18.6392 12.0174
118.793 21.2249 13.3439
136.718 23.5524 15.1026
117.551 18.0098 11.5481
102.673 17.4553 10.9604
118.607 17.3993 10.9495
110.963 19.4323 12.3382
111.053 20.0108 13.2978
122.254 18.6935 12.5917
118.909 21.7677 13.9569
114.026 21.3976 14.2145
117.942 18.8959 12.4861
110.979 18.3779 12.4697
111.944 21.8292 15.2482
114.293 20.956 13.8708
146.046 20.5885 13.9947
120.062 18.9368 13.1305
118.511 19.7686 14.19
118.569 19.3666 12.5546
118.788 18.9025 13.8117
105.15 22.9753 16.3338
121.381 21.5189 15.1986
97.3596 17.8397 12.738
127.571 21.0567 15.5116
113.01 23.2411 16.2221
120.503 18.5826 12.8406
110.218 18.4322 13.584
99.0927 18.8625 13.8681
110.47 20.6941 14.7848
131.412 22.6156 16.6694
103.369 21.5655 15.7773
96.3359 19.8251 14.7857
122.797 21.1857 15.2007
108.876 19.1626 13.6247
101.664 19.3366 14.6702
100.288 18.7407 13.6321
114.727 21.5233 16.0185
124.218 20.7192 15.753
103.933 18.9399 15.1058
115.711 18.3575 13.8299
104.273 15.9427 12.3447
97.1093 19.281 15.2393
100.086 18.5865 14.8564
103.421 18.4062 13.9318
103.846 19.5113 15.2003
91.7346 17.9837 14.064
83.3269 19.7732 15.661
99.9509 22.3055 16.6584
88.7038 19.149 15.5036
95.1975 20.7693 16.7295
101.298 21.3162 17.1263
80.8358 18.3401 14.3722
83.9879 20.4051 15.8299
85.0919 17.7849 14.8537
96.9702 19.6048 16.4553
98.8503 19.0686 15.3511
73.982 19.4069 16.1526
92.9229 18.4751 15.6538
99.6484 19.0124 15.7652
100.47 21.2168 17.4517
86.0122 16.4901 13.4631
95.9664 20.4176 16.6985
87.8714 20.4276 17.5706
90.1735 19.7026 16.6519
94.3016 19.8505 16.3688
89.3309 23.1175 20.5588
105.738 22.2139 17.6928
114.443 18.3346 15.4134
96.1301 21.336 18.5545
106.348 21.9235 18.9754
90.6935 19.3349 17.2968
103.675 21.2132 18.0906
87.2803 18.794 16.2923
83.6551 21.7059 19.0774
85.5078 19.5908 16.9774
70.0276 18.4597 17.5778
96.7458 21.328 17.9793
84.9369 21.8341 19.7842
108.521 21.7236 18.9047
98.214 18.7292 18.0064
67.7793 20.8465 18.2383
79.2103 17.4415 15.8049
115.491 19.994 18.9137
90.2915 21.3924 18.6102
88.7008 19.6491 17.1768
70.7977 18.2858 17.0434
77.6055 20.6735 19.6231
102.418 20.2428 18.9234
77.0899 20.2285 18.7196
83.167 22.5154 20.772
76.1493 19.7833 17.9776
83.4014 17.1266 16.3058
77.1244 17.9882 17.1641
86.273 22.1033 20.8302
76.5351 20.6818 19.5663
96.2803 19.9755 20.0399
67.8152 19.5727 19.0521
82.0818 17.5705 17.5241
84.3218 21.8312 21.1332
86.0217 19.9046 19.0023
84.1712 19.3894 18.8422
76.7931 18.6888 18.3244
76.6635 21.2588 20.5823
72.9159 23.3502 23.5113
83.4006 22.3876 21.5499
88.749 18.1833 18.6306
62.8077 20.8523 21.1103
81.5881 18.5212 17.488
78.2501 18.0005 19.5599
72.8545 19.6996 19.3867
81.2075 19.6848 20.8912
91.0887 18.5435 19.0605
68.7364 22.2443 22.4929
73.4335 22.665 23.6584
71.1761 21.2082 21.7178
69.647 17.8382 19.4741
72.8053 20.6002 21.2828
80.6921 19.0771 19.1047
81.0113 20.5315 21.2168
77.7774 20.0574 20.5223
80.8639 16.5934 17.6329
84.8784 20.8229 20.8174
66.9638 15.9616 18.7672
82.5702 18.5153 20.2929
80.9993 20.2434 20.6034
88.6145 21.7957 21.7741
79.1217 21.2162 24.4703
74.8362 20.3209 21.4428
67.9302 18.7384 20.679
74.0379 20.7382 23.7475
74.1605 19.5923 21.1011
71.1001 18.6181 20.6468
71.1582 20.4794 21.2774
71.3485 21.6097 22.3254
68.5521 19.3994 22.426
78.0218 20.6492 22.2814
61.9722 18.7533 21.6723
77.97 18.2278 19.964
73.8377 18.9399 20.5128
71.2301 19.2567 23.2386
80.2164 19.8446 23.3992
75.5255 22.3743 24.2674
66.5193 18.5897 21.8131
75.6108 20.8422 24.198
60.9473 19.2955 22.2886
70.3329 17.7415 20.3696
64.7601 17.3874 20.9169
83.2617 20.2119 22.6092
64.6937 18.0025 21.4023
65.7983 19.4116 21.1414
64.8785 19.3427 23.3895
72.2863 16.9366 20.1156
62.1557 17.6802 22.6573
78.3963 18.3752 19.6188
62.9557 18.9475 23.1442
75.5805 18.6552 20.5166
65.0912 19.775 23.9822
64.3296 19.7715 23.7605
61.0002 18.1947 21.6211
65.864 18.3553 23.0641
63.6887 19.5049 22.6787
65.9319 19.2697 23.4927
62.041 19.0694 23.9441
73.2891 19.5317 23.7426
59.2276 16.5764 20.7557
76.0368 16.6546 22.1675
61.864 19.1078 23.038
61.1543 18.4344 22.3596
67.559 19.4463 23.495
58.1643 17.4084 22.9129
62.6334 17.2636 21.2209
63.7572 19.7882 25.0029
68.1133 18.6429 22.9907
60.1109 20.2662 25.6652
68.2765 18.8849 24.1925
58.0332 15.7659 20.88
57.5714 18.4959 23.9042
66.9387 20.6603 26.3986
58.5541 21.2077 24.7483
52.7363 17.6937 23.6944
70.0189 20.0863 26.1102
63.1101 16.3785 22.0334
53.3192 17.0906 21.2678
75.6651 19.7973 24.6996
61.6914 18.2963 23.9068
56.7626 19.2022 26.6048
55.3616 19.2802 24.7237
62.0286 17.7995 23.4803
58.6901 19.5556 25.8638
61.7794 18.5711 25.7818
62.6315 17.4996 22.7397
70.0651 22.9994 30.9708
59.8678 19.0741 27.2524
62.5527 19.8555 26.9953
55.5184 20.5723 25.6592
64.7161 20.7122 27.7838
58.1186 21.6031 29.7497
53.3875 19.3557 27.3216
54.1631 19.1177 27.6326
48.5027 22.4937 29.5933
44.2002 17.1611 24.3309
88.4171 20.7559 28.3009
44.2189 20.3875 28.0376
44.3827 20.6128 27.7659
58.6517 20.4282 29.5971
58.2746 20.7062 27.9397
58.6948 22.5545 32.1754
53.4741 16.9936 24.7589
54.8148 17.8197 24.5666
54.654 18.6827 25.4364
56.6179 21.0036 29.4863
47.4871 17.5693 25.9676
52.6951 16.5209 23.191
50.9627 17.2745 25.4083
45.022 17.983 25.8889
54.4301 18.1823 25.0744
50.2933 18.872 28.4805
48.9678 18.2611 24.8352
52.9396 16.7563 24.0396
53.9989 19.0257 27.864
50.0021 18.6605 27.2687
43.1922 17.4582 25.7761
46.8894 18.5259 28.8698
55.7164 16.9817 24.6795
52.1972 16.0245 23.5249
53.9088 17.3838 25.6045
45.6739 16.5138 26.2197
54.4093 19.239 26.7585
46.3885 21.5524 31.5205
49.9946 17.631 28.5393
51.2614 16.7806 23.7174
49.5898 16.8907 24.9494
35.1709 17.9997 28.0357
59.1211 19.8808 28.0396
47.8998 19.5928 29.242
53.2798 17.1474 26.8007
50.0332 19.3733 30.1017
53.1506 19.2546 30.2495
48.2785 17.775 28.1628
48.9022 19.1347 29.199
47.3176 17.9975 27.7603
45.512 16.1085 24.0262
42.4032 17.3475 27.2956
41.6484 16.9601 27.9507
52.6457 19.776 28.1939
40.2402 18.7202 28.2179
48.8226 18.7938 29.5541
49.5113 16.9126 25.407
46.5886 17.9937 30.2724
49.5893 18.8846 28.5043
40.5754 20.999 32.6147
45.1213 17.1967 25.7172
48.6369 18.7723 30.4851
53.3352 18.1313 30.3375
48.0672 21.4891 33.4046
43.7728 17.8883 27.0413
46.6733 17.9634 29.1116
45.3234 17.5487 28.1413
40.8828 18.6908 31.4774
47.1383 18.552 29.0249
52.4816 17.9033 31.5121
46.527 18.8094 30.0855
50.2322 20.2075 33.5868
49.7124 20.6173 30.3894
48.7273 18.5494 32.1581
46.3587 18.053 31.21
40.7998 17.4797 28.2199
48.6818 17.8969 31.0028
45.3281 16.5084 25.7398
47.8836 16.0065 28.1738
45.1274 18.1468 29.5363
48.3509 16.5515 28.5532
45.8513 17.9647 30.6069
54.2919 19.1917 31.1473
46.5641 16.5679 30.7345
36.6696 17.2858 29.6379
49.6262 18.9637 31.4468
51.755 18.5035 31.6526
45.4048 18.5371 33.1095
40.9498 19.2059 31.955
49.3578 19.1422 37.4591
48.5375 22.448 37.7313
52.0747 20.3679 32.6387
40.5589 20.9794 38.8273
48.5607 21.3495 34.7486
47.6323 22.4678 41.4
49.8061 21.0101 33.166
52.9855 20.3586 35.656
39.6672 19.7899 35.5156
54.3645 23.1423 39.3577
47.177 21.2423 35.4781
39.6138 21.4401 37.1646
41.9617 20.631 38.2735
50.3801 21.3471 36.9365
43.6695 22.097 36.5147
39.9363 18.4473 34.825
47.2305 18.2161 33.1978
53.1342 21.2774 35.4073
39.5969 20.144 36.1022
43.9667 20.8162 34.8546
46.7938 19.3657 37.4696
42.8329 19.4848 34.3093
46.3962 21.1407 38.8424
44.1887 18.2845 31.9113
42.9541 20.5033 36.4695
43.3377 19.0451 37.5029
46.5427 22.3641 38.1483
45.6809 22.0904 41.6212
36.5965 21.044 37.8828
41.2738 17.7792 32.6972
43.7077 21.2272 41.4494
45.5135 21.2232 40.3937
38.9043 21.1961 38.9561
52.7733 20.2595 40.7537
47.1111 21.7875 40.5415
45.0763 20.1055 36.1798
46.8897 19.2304 36.9567
43.632 18.3231 35.5462
41.4625 20.5142 36.3085
43.8164 19.2102 31.8078
38.6905 21.2307 42.2354
38.8078 18.8329 33.8382
41.0335 19.6585 39.2595
39.5633 19.5427 37.9303
43.9687 21.6453 39.1703
45.5405 18.6733 36.24
37.9679 16.6825 33.8199
43.3923 20.9793 38.2419
44.108 23.9505 43.1186
43.4107 20.0226 41.3802
43.9352 24.5498 45.0605
44.466 21.4555 44.4891
47.4626 25.5706 45.3764
43.9449 22.136 44.6659
38.8701 20.8187 38.1988
41.7915 19.8878 38.8495
36.2444 20.2803 38.0076
43.6443 20.4818 38.8046
37.6271 20.3961 38.9221
35.1152 19.254 41.1672
39.9764 19.9515 37.0382
39.593 19.7267 37.9581
42.2241 19.9783 38.1276
41.4776 19.7181 41.6101
32.7349 17.7571 36.5342
46.1772 21.255 40.5179
37.2006 20.4272 40.4452
42.9786 18.5369 36.924
38.5229 16.5526 35.1447
33.8895 19.0617 34.8873
37.2383 17.8693 34.5974
37.1548 19.0518 37.5982
36.2527 17.7533 37.9997
41.5744 20.8736 43.6096
38.1043 16.954 32.7332
42.4483 16.3506 34.7808
42.0409 16.5454 33.3446
38.9638 23.0716 45.0007
35.7233 17.1741 35.7734
45.2891 17.1611 35.4111
39.4356 18.8115 39.073
39.0668 19.8945 42.0792
35.4731 18.729 37.6283
38.2032 16.0216 33.7058
37.8967 16.9121 33.6181
34.0161 16.0809 34.3067
43.9464 20.0689 39.329
41.4685 17.6187 38.2652
32.0663 15.4895 31.5589
35.0974 18.7438 40.5854
44.6115 16.2829 35.337
31.157 17.3638 36.4085
35.1665 19.6509 40.7019
30.6765 17.2398 34.6569
32.0466 18.0838 42.1162
35.3889 19.4745 38.7206
34.8609 16.8447 34.842
35.1455 20.0561 44.4616
29.319 16.68 39.7665
37.0729 18.2959 36.6692
35.1041 20.2858 44.284
35.9035 20.1878 41.4575
38.1182 18.5374 38.7259
40.1014 20.9324 46.1351
32.3248 19.7531 40.2442
33.9856 17.3084 35.1206
35.2847 20.0052 46.4867
41.6077 17.6673 34.2097
28.812 15.1876 37.5881
34.3469 17.5251 36.6259
37.9048 16.2039 34.5377
30.8801 16.4774 37.682
37.0032 17.2824 38.7524
37.9923 16.7044 36.2982
30.368 19.4237 40.5267
42.1294 20.2779 40.5828
37.2176 19.645 44.8756
33.2544 19.6762 41.4442
33.8558 17.7138 39.302
40.4215 17.3291 39.9511
34.8304 16.5361 37.4477
35.4393 20.7678 42.4239
33.4134 14.7607 37.1674
38.1129 16.8588 39.8135
30.6944 17.7845 36.1634
40.6285 15.3509 38.1502
36.8053 18.9584 42.544
31.4749 18.8407 41.2308
40.5388 16.8203 38.9299
41.1798 17.8594 39.109
33.9444 17.8474 40.677
42.6423 17.3069 41.7715
36.4389 16.8399 39.6801
45.939 16.7228 37.8979
34.4832 16.5905 34.9661
32.3505 15.8015 37.6835
34.0518 16.9121 40.402
31.7176 18.2021 41.1042
33.5505 16.197 37.6167
32.9348 17.0334 41.1506
31.2628 16.8606 42.6008
34.1076 18.9604 43.3451
35.1742 17.5327 40.9713
29.897 15.3392 35.6393
30.1837 18.2638 41.3429
33.9661 17.2272 42.0897
34.0303 17.9342 37.9823
34.3375 17.4222 42.8492
37.8028 15.6182 34.1659
28.4815 15.3013 36.5248
30.8839 17.2909 45.1847
35.0615 19.7813 43.3841
33.9204 18.0727 40.2575
25.4432 15.1288 38.2398
31.8339 17.2993 42.9795
40.6811 17.8812 40.6711
29.0267 16.5795 39.4173
34.3882 15.4647 35.7889
30.5798 18.6818 47.2041
38.3945 15.9803 39.703
30.2803 15.6904 35.1732
33.6884 15.8281 36.8691
36.7014 15.6841 38.1538
34.05 13.9681 33.5152
30.6076 15.2841 40.2642
33.7795 15.1024 35.7516
29.3701 17.026 40.4545
32.1838 15.8439 36.1852
36.2428 14.2108 34.0944
31.1066 15.9037 36.8986
29.7684 14.5535 41.7504
34.7446 17.0755 40.0024
31.8157 16.654 42.8679
40.5129 17.0618 42.5963
