# pn-170911/RbIIR-51-USNO-1280-1959.psd
# Power spectrum* (dif=0,1,2) (really just |FT|^2)
# NOTE: only the first half! (symmetric)
# weeks: 1280-1959
# 11 clock-days, 0 excluded
# PSD: 1441
244.605 0.176335 0.0140533
13082.6 0.334716 0.0139534
46158.3 1.25556 0.0108741
19993.8 0.711614 0.0153311
26305.5 2.14469 0.0104889
8774.51 0.720249 0.016558
4336.21 0.735557 0.0114301
4143.4 0.72651 0.0121945
5216.75 1.13076 0.0173809
2473.54 1.14056 0.00927451
2582.8 1.01154 0.0164654
1810.2 1.34744 0.00953611
1821.67 0.989022 0.0177599
1108.53 0.558779 0.0119594
1559.65 1.7007 0.0141034
1377.04 1.41571 0.0127608
908.367 1.1026 0.0129201
905.194 1.36578 0.0113313
931.305 1.83843 0.0163105
760.163 1.32896 0.0136375
515.797 1.07839 0.0120699
834.533 1.47078 0.018224
622.15 1.78075 0.0147857
490.816 1.26858 0.0188559
348.924 0.76459 0.0118132
676.015 1.70091 0.0171817
868.053 2.2901 0.0219796
510.159 1.63253 0.0166501
596.77 2.07164 0.0304681
680.074 3.1048 0.0209107
477.119 1.78453 0.0191001
1047.46 4.17782 0.0398176
583.359 3.25371 0.022059
255.203 1.14702 0.0174069
499.842 2.87741 0.0276636
650.546 3.77756 0.01781
832.748 4.56801 0.0569445
601.919 3.87455 0.0308375
576.03 3.91947 0.0417703
616.97 4.265 0.06163
628.989 5.20556 0.0436098
579.934 4.85369 0.0285471
1048.13 9.3623 0.0905099
563.782 4.39735 0.044863
551.532 5.24847 0.0710195
991.583 8.8449 0.0905037
610.217 5.77134 0.069741
693.032 8.4043 0.114766
855.854 8.84387 0.098989
387.924 4.45459 0.0648205
469.56 5.2159 0.0670477
754.774 9.429 0.136388
520.344 6.21553 0.0861621
784.91 11.0555 0.158107
592.169 8.41287 0.131731
889.349 12.2019 0.190873
405.237 5.47361 0.109999
601.182 8.98567 0.156494
746.664 11.0265 0.208524
451.55 7.11197 0.126457
574.112 9.14492 0.176797
698.42 11.7183 0.216271
632.64 10.4205 0.169479
709.599 14.5682 0.294673
319.225 5.11715 0.111669
735.401 15.1913 0.320245
578.448 11.1748 0.255937
447.183 8.91652 0.17273
534.962 11.9042 0.272236
401.85 9.21592 0.21951
323.015 7.38109 0.173159
487.816 13.3164 0.340423
428.652 10.4113 0.298339
253.42 7.20414 0.207076
501.032 10.8882 0.296465
426.334 10.6679 0.294443
497.656 13.968 0.427066
478.911 12.6941 0.389723
513.778 15.8768 0.455773
440.768 13.117 0.392865
267.494 7.17684 0.254312
393.565 12.3653 0.375855
476.145 13.8488 0.471532
352.553 11.4094 0.39479
505.881 16.7202 0.523798
637.154 21.4056 0.773532
405.944 13.1111 0.503331
468.473 18.0328 0.650638
484.342 17.4528 0.60262
206.337 7.78141 0.292608
510.712 18.9484 0.777361
414.918 19.3611 0.739473
308.273 11.14 0.467341
232.214 8.50199 0.392389
200.868 9.48987 0.389007
316.313 13.6766 0.568185
468.534 20.9748 1.06238
265.718 10.5807 0.476554
175.888 8.36708 0.368003
280.533 11.7564 0.524611
222.776 11.4983 0.551569
300.367 13.9022 0.671044
145.851 7.48002 0.464729
275.662 14.3193 0.729677
236.107 11.5611 0.607776
346.566 17.0999 0.926332
239.843 12.4094 0.706565
274.468 12.6058 0.678462
284.348 16.3798 0.851915
289.381 15.0107 0.842214
273.841 14.1596 0.864362
243.557 14.5455 0.909038
245.117 12.9303 0.763849
149.154 9.36887 0.631335
388.499 22.9403 1.41817
153.812 9.15069 0.586111
194.169 12.4683 0.832573
171.192 11.5586 0.810107
130.618 7.22567 0.472933
336.529 23.4394 1.49058
239.217 15.0443 0.925626
197.763 13.5017 1.00147
216.929 13.7288 0.881254
316.552 22.7383 1.59526
367.061 28.9034 2.07721
230.474 15.4586 1.06543
163.909 12.4467 1.03975
159.207 11.6765 0.918435
157.84 11.9555 0.844058
166.362 13.3936 1.04464
131.449 11.1337 0.923308
157.773 12.0156 1.06689
174.726 15.0436 1.28873
126.735 9.54547 0.8501
244.719 19.8852 1.52645
132.584 11.2798 1.02989
227.402 20.4194 1.8195
84.256 5.89795 0.433164
166.183 12.6507 1.06727
101.277 8.11277 0.800198
208.545 17.7172 1.71483
201.355 19.911 2.01035
224.972 20.5095 2.01866
145.661 13.7937 1.29661
75.4991 7.72658 0.742335
218.082 21.0815 2.18733
107.644 11.0009 1.15856
202.858 19.6689 1.83855
177.773 18.1857 1.81222
117.685 11.7204 1.15578
57.9377 7.34022 0.831347
156.821 15.4157 1.64435
152.196 17.6253 1.88975
122.096 14.1141 1.64188
166.405 17.5898 1.94231
139.309 14.7135 1.59053
126.515 13.0746 1.54672
96.058 11.2718 1.26943
148.38 16.4375 1.89852
261.083 30.5787 3.47716
99.6633 11.9475 1.46976
135.604 15.4492 2.1071
175.731 22.2866 2.66886
107.788 13.8123 1.82399
101.898 12.8053 1.48566
125.238 15.0733 1.72843
135.718 17.5491 2.30027
93.4236 13.0359 1.65824
138.196 17.6095 2.43032
182.225 23.2413 2.96298
95.3786 13.2086 1.97096
64.2849 8.65475 1.26884
49.9491 7.24219 1.21376
106.05 13.6219 1.69563
149.173 19.8346 2.54042
113.534 17.9773 2.65161
196.254 29.4598 4.13096
112.663 18.0041 2.74538
115.12 15.8029 2.19005
75.2313 9.01706 1.32786
124.388 18.6287 2.82966
61.447 10.0806 1.59633
64.8499 9.56866 1.38684
115.501 18.9889 3.17265
73.3974 11.8737 2.03452
142.028 22.2037 3.52127
109.66 18.2396 3.05382
102.738 15.3216 2.40029
80.9913 13.4897 2.19608
55.1262 8.99531 1.45931
94.1106 16.4613 2.72917
101.558 18.5539 3.20067
53.6305 8.34075 1.47057
43.0864 7.84797 1.50003
60.8095 12.7227 2.41827
72.5571 12.5727 2.41991
145.285 25.1943 4.38263
90.5514 15.9978 2.81531
67.8451 11.4819 1.97447
120.764 22.5616 4.10188
63.8643 9.6774 1.68343
60.8192 11.4996 2.381
107.26 20.9235 4.0563
119.92 23.3916 4.68322
81.8709 14.3601 2.50306
80.2792 15.9048 3.33109
82.5986 15.8115 2.99278
68.1281 12.6025 2.64666
67.397 13.9565 2.77233
97.3964 18.7365 3.92646
113.351 22.6533 4.36461
101.079 21.7868 4.69174
79.6017 16.2038 3.32649
73.5813 15.8927 3.5878
127.167 27.7771 6.30893
50.7671 11.9259 2.47497
59.5821 13.9346 3.22021
73.1861 15.1618 3.28455
75.934 19.3272 4.99928
116.234 23.7755 5.06518
90.1882 21.2043 4.62399
119.905 24.9423 5.53865
104.92 25.7392 6.42694
64.2574 16.0238 4.03287
135.337 27.3317 5.52559
75.6231 19.4549 4.59937
74.6869 17.6466 4.39867
106.85 24.344 5.29262
61.7111 15.7556 4.11219
39.547 9.17577 2.18975
76.1084 18.6433 4.4996
72.5788 17.7716 4.09706
74.2783 21.0604 5.61164
74.4588 18.7912 4.78993
90.0892 20.699 4.90226
72.2392 18.083 4.57678
66.1913 18.4703 4.63649
55.864 13.9614 3.56825
57.7943 15.07 3.75038
76.3178 20.4253 5.4131
93.715 26.7177 7.1439
41.964 11.5179 3.16749
61.1505 15.1826 4.00876
64.149 21.6724 6.28624
82.2223 21.8337 5.55258
46.2448 14.4844 4.56105
59.6281 15.7597 4.37193
89.1684 23.7872 6.33387
57.2362 16.9575 5.36704
56.4217 15.889 4.57302
82.2256 24.8276 7.67314
96.8757 25.6273 6.83711
21.8601 7.94348 3.05485
95.3827 29.768 9.16238
39.3648 8.96372 2.3065
49.5522 14.4762 4.08038
62.4714 19.5378 6.00528
53.5349 16.0392 4.93905
58.7571 19.3553 6.8257
106.487 32.6519 9.40778
57.1993 18.5316 5.87703
51.9747 16.8383 5.58948
78.5046 26.1045 8.4243
53.7762 17.5339 5.54398
59.9246 23.0985 8.33478
77.2691 23.2448 6.89048
37.8751 12.3261 4.63271
37.9909 11.512 3.80624
87.5097 29.1777 9.29263
79.9338 27.9714 9.99967
57.2128 17.6942 5.89566
62.043 19.8952 6.8396
86.5111 27.5236 8.26586
98.8448 37.8531 14.1819
42.8574 12.1053 3.80658
57.6682 22.2056 8.03453
47.1046 16.3266 5.91271
61.6054 21.3101 7.48859
57.8517 20.405 7.12814
33.5279 12.3987 4.94774
43.9825 16.0068 6.12238
51.9395 18.9946 6.65759
60.5683 19.9149 6.67111
36.7549 14.429 5.6399
61.2083 23.5099 8.61229
47.007 19.1807 8.54121
52.9015 15.719 5.16553
43.9965 17.1574 6.54124
60.8691 24.7502 9.50179
68.4627 24.6892 8.86622
38.4762 14.0413 5.07671
51.0103 19.8452 7.85906
35.4736 14.6363 5.85295
38.4265 16.4012 7.0274
46.4684 20.951 9.48829
40.9913 15.9952 7.01075
49.593 17.0847 6.33681
68.4665 30.0795 11.8294
54.3967 22.0898 9.09378
46.4853 18.1765 7.53344
13.8402 6.42917 3.51369
80.0675 32.8764 13.7791
39.1662 13.7337 5.18545
38.9996 16.8472 7.61801
46.3637 17.7063 8.23856
65.9665 27.1056 11.4369
69.251 28.9343 12.4368
43.6688 15.7243 6.07766
41.642 19.9017 9.08346
56.0713 22.65 9.64856
82.6949 38.8206 17.8158
48.7423 19.7343 8.53162
41.5788 19.3368 8.83984
52.852 22.1473 8.92617
31.3593 14.1311 6.0679
70.8711 39.1015 19.0829
52.9736 20.8284 8.99318
64.6078 32.5427 16.7848
72.7754 29.7274 11.8739
63.219 28.6764 12.4912
40.6195 20.7964 10.9073
45.7507 21.3978 10.174
33.1276 13.1204 6.11488
28.9022 14.5954 7.52645
40.3998 20.0401 10.081
25.5215 12.7134 7.23006
43.4869 18.6154 8.79261
48.7881 18.9461 7.40922
32.3226 14.7705 6.92985
36.3742 21.4567 12.3763
55.1204 24.5314 11.6883
47.0431 20.7814 9.52446
37.9732 19.9241 10.5115
57.666 24.1689 10.7119
66.4636 32.2909 15.8121
39.0903 23.8868 13.9806
64.7138 31.5817 15.9274
54.9269 25.91 11.7639
35.5951 19.2551 11.1399
54.2403 25.9246 12.7548
36.5086 18.2066 9.9218
48.2784 25.1941 13.1466
41.5113 21.4505 11.2453
33.4362 17.9366 9.45743
43.0268 21.7809 10.6729
42.0526 22.733 12.2197
41.8275 25.2678 14.6249
47.6182 27.6787 16.1136
53.9964 30.4026 17.8745
48.8611 22.3368 10.6575
32.6165 19.4595 11.9276
33.6597 18.2584 10.6151
33.0609 17.3804 9.6047
43.9976 26.2458 15.7253
49.2008 26.5269 14.0706
44.1391 23.8366 13.0593
31.2171 17.4309 10.0761
27.2208 18.4313 11.8086
32.1366 19.6172 12.1638
43.0283 25.3968 15.5126
48.5039 29.6297 17.0499
57.3792 36.0583 21.1596
38.3697 23.0603 14.7562
38.1268 28.479 22.589
88.9337 49.0365 28.7435
82.1806 41.5085 19.3482
32.8139 19.7304 12.3286
28.1294 18.2605 11.6793
50.1013 31.7177 19.9908
53.7932 31.5685 18.2154
34.2789 21.2485 14.3296
22.2508 12.5918 7.94934
33.5334 20.5317 12.7614
39.3782 22.2106 13.4816
40.8093 25.8642 16.9247
34.2108 21.5712 13.7567
36.5988 23.5615 15.7101
46.9558 27.0445 15.917
38.9343 22.572 13.5489
63.8815 39.8595 24.4107
30.2358 21.6315 15.1188
35.5806 20.4978 12.4293
22.8176 16.8337 13.2357
18.4216 9.06543 6.37144
39.7225 23.8165 13.918
26.7153 18.8951 13.0279
31.9283 18.3139 10.6236
23.2722 15.6446 10.5568
27.9646 17.8514 11.0001
30.9875 26.7654 20.9054
32.8275 20.0148 12.2253
17.446 10.1566 7.1978
18.6664 13.6042 10.7366
34.6875 21.7078 15.8218
54.9625 34.5593 21.364
47.4735 31.1468 20.5017
48.6769 29.6311 18.0875
35.0546 28.9362 23.242
33.2634 21.4245 15.4413
28.9748 18.5231 11.1304
14.0156 10.8577 7.952
18.2729 16.6869 15.3748
35.5419 25.1194 18.5782
38.0889 28.9696 21.7352
35.5803 21.3135 14.3461
41.7148 29.068 19.9583
22.1393 16.5747 13.0436
33.525 29.3129 24.5839
32.8599 18.2059 11.4787
25.2858 18.0744 13.1782
17.0716 15.0057 14.7044
46.8785 33.7712 25.4165
48.8247 33.8766 22.4271
24.3701 19.4694 15.8414
26.9404 17.6355 12.9315
22.3229 17.4125 12.8987
22.9157 16.7186 13.9076
16.4138 9.91379 7.46465
25.6593 19.6113 15.2527
28.7325 20.527 14.342
29.9296 24.6731 18.1797
26.2668 17.5399 12.7036
19.5721 16.6465 13.8516
24.774 22.0148 20.227
21.5761 13.251 8.89292
36.0745 32.6194 26.5625
22.7173 15.317 11.9264
19.3121 15.9612 13.3387
31.1762 25.8698 19.5572
23.6519 21.0429 18.6857
38.0378 34.6336 28.8432
21.8233 15.9714 13.4062
17.67 16.5686 17.1629
31.2339 25.4652 20.6616
29.4995 22.556 18.0651
30.031 23.1228 17.9803
31.4315 25.878 19.8079
18.4091 15.125 12.4195
14.0987 12.2511 9.65117
13.2606 14.6947 15.7338
30.8487 26.1925 22.8205
43.229 35.001 25.6249
17.3632 20.2568 22.2053
32.6981 25.4877 19.7341
17.1712 15.6119 16.9071
34.6994 25.914 18.882
26.1815 21.6951 17.7278
20.829 17.8665 14.9393
14.4056 14.1154 13.5444
18.0964 16.009 13.9995
39.1786 35.8966 29.9003
6.08406 8.51229 12.6352
30.1246 28.4855 29.2132
39.8536 34.1802 27.897
27.0875 27.6056 26.9651
27.4333 21.4092 18.5008
29.6409 23.4148 18.5099
17.9731 16.7194 17.2482
16.7483 13.8316 11.6995
15.1893 12.6652 10.8224
18.2456 19.2529 19.1794
25.1285 25.1966 24.5562
24.9039 22.2742 20.1831
9.79989 8.34404 10.2584
24.0918 19.287 17.646
24.5683 21.8903 19.1594
11.696 10.6293 12.1987
34.9069 30.8197 26.2371
27.1781 24.3798 20.0471
13.8723 13.5397 14.9101
25.3536 26.7067 26.9812
28.2131 25.6679 23.0801
25.8341 26.5045 26.0866
18.7421 15.9633 14.2841
12.3655 17.5461 25.2717
41.9529 35.9306 30.6487
14.8598 12.5752 12.0073
16.8912 16.7559 16.5162
19.3759 17.9685 18.0832
26.954 25.9561 25.0476
19.0879 18.5763 17.4044
35.4144 39.7376 42.0471
21.151 17.3878 14.504
18.4824 22.326 25.9024
23.9465 17.6158 16.0598
29.4013 29.2476 26.4634
26.158 25.6334 24.5923
24.3253 27.9811 30.86
29.0837 29.4053 29.6225
23.3672 22.4281 22.6213
19.3697 22.966 24.8459
23.065 26.6996 32.2455
29.782 27.1283 25.6128
20.5245 24.6445 28.7463
25.6183 27.0401 29.8137
23.5413 17.7961 12.3262
13.0406 16.753 22.7023
24.5647 23.0167 21.1424
20.6232 25.1926 27.3724
18.1155 18.7203 21.4573
22.3106 23.2782 26.893
26.0372 26.1636 22.8994
12.2809 16.5021 20.5152
14.3119 14.3151 16.0686
25.0283 32.1364 41.6335
25.7687 23.7543 22.5366
21.9494 20.3546 19.7338
21.1747 25.2782 27.377
13.5539 12.2356 12.7455
14.5278 15.3638 14.6421
12.3668 13.7443 13.6476
18.7743 27.2248 34.6294
15.5946 16.3819 20.376
16.5511 16.1659 17.5078
11.8211 13.1463 17.1742
21.4414 22.6592 22.791
23.732 26.5379 28.9655
20.3497 21.7424 22.3308
17.6875 23.182 26.209
10.3782 12.6732 15.6597
9.55462 12.5333 14.5655
11.6725 18.5921 26.5304
15.1454 21.2734 30.621
21.0377 22.9085 33.4389
21.4973 15.3669 12.0692
21.614 26.5761 33.3604
26.2949 28.4174 32.5604
23.3476 23.6969 24.1845
23.1743 26.133 25.5294
14.8637 20.4231 26.2942
21.3143 26.0185 28.4972
9.82493 15.3261 25.6612
16.6839 20.1818 26.6206
19.8403 21.7654 24.3153
14.1903 13.7372 13.6884
18.5556 23.6163 29.533
18.5687 22.4567 28.9738
18.9264 21.3299 21.8356
11.6153 17.7581 26.6857
19.0348 23.925 29.415
14.695 18.1518 24.207
18.2325 21.2962 28.6428
21.7084 24.2642 28.2512
24.8168 35.1262 42.0072
21.0384 26.2792 33.0807
20.2907 24.2389 28.6463
14.0674 15.0527 16.6621
10.2857 15.6154 25.2069
20.2747 21.588 27.1528
18.8851 21.3763 23.3493
13.3702 16.9719 25.5218
24.6318 28.9635 33.9834
19.2844 23.1839 25.9107
10.8778 14.6636 18.5207
18.8361 27.0012 35.9863
17.1545 26.1663 37.6174
13.5382 12.4163 12.8099
17.2428 25.6908 32.9957
9.91662 12.2203 19.0344
17.926 24.7273 33.816
19.252 27.9675 41.7936
16.5829 18.435 25.9825
18.4511 21.0593 25.7286
20.9787 28.0715 38.0388
26.997 36.5337 46.1043
21.0537 27.7575 38.0468
22.2149 25.2207 29.877
18.1157 27.5468 41.1855
17.2393 20.5028 26.5903
12.2637 16.2577 30.3645
28.9667 34.1618 35.3326
11.2505 15.4022 19.782
25.3405 45.2479 65.0169
16.2679 15.0702 17.1893
20.3958 32.1453 43.9946
12.5226 16.9265 30.4935
18.4871 19.4483 25.523
12.4336 13.9283 18.7953
20.0819 23.7298 25.4703
12.98 21.6762 31.5431
12.7946 16.2571 19.7376
11.9684 16.1827 20.2268
7.55687 13.2276 23.2024
11.1054 14.4596 19.1479
13.4758 23.046 40.139
19.4736 23.0963 26.9642
22.5748 31.6379 42.499
20.4384 31.4193 47.0618
20.941 26.9897 34.5284
12.4625 19.5513 29.3594
11.6097 16.4165 23.9044
14.522 22.2422 30.282
8.8143 13.1375 23.5774
18.0606 27.5699 36.0314
15.9671 23.1954 35.6385
15.8335 23.5521 33.8077
13.0186 21.7234 41.576
17.4204 20.0253 25.994
15.8611 18.7426 26.0502
21.8678 35.6632 46.0816
12.757 19.7805 31.7005
13.5487 19.3856 28.2785
13.6531 20.653 33.3486
12.294 18.8206 25.1176
7.0102 11.9292 21.4041
10.471 17.0676 31.2027
15.467 21.0117 32.9568
14.4162 16.7819 21.737
12.3759 23.1696 40.7256
20.423 29.5289 42.9725
14.005 20.7917 37.6085
15.323 20.8152 34.5494
15.4592 20.2028 27.0698
12.074 15.9138 23.3372
12.8417 15.9136 17.685
19.7823 30.9795 35.6902
7.2868 13.7688 25.3634
11.1602 17.3206 26.5699
18.7577 31.82 46.0301
10.7598 16.1665 29.8833
10.5064 12.0807 16.6042
12.6714 20.483 34.01
12.6247 19.9301 30.0973
12.3409 17.6043 23.272
12.3134 23.2474 34.4945
6.94515 13.7979 29.3663
15.7377 22.8348 30.1327
10.1638 17.6929 30.6274
11.9535 19.7768 28.9774
9.86838 20.3766 39.4985
17.2646 21.7374 25.394
12.4492 26.8514 48.7211
13.6613 22.1694 38.2295
9.90012 11.5495 14.7003
9.5871 19.2133 30.7519
9.99153 17.0091 26.549
9.31233 15.0523 22.0953
8.0659 13.241 25.0554
7.89003 11.5212 18.8199
9.40715 13.3896 17.2323
6.47613 15.9299 34.0647
16.0701 25.96 38.8757
9.85493 16.1708 26.7064
12.3023 23.2428 45.4785
19.0749 28.5889 41.902
9.27495 14.4546 25.2913
5.1161 7.71239 18.875
18.9362 31.6436 47.2514
18.6551 36.5406 59.9952
15.0961 25.152 38.1724
6.05787 13.8488 38.3866
19.9739 25.1123 28.3737
12.5831 25.068 44.8176
7.03657 13.5045 35.1651
19.0407 26.6873 33.1075
11.0992 21.591 39.0706
9.60706 16.3824 32.0063
8.98351 16.1997 27.1675
7.37671 15.053 35.8809
14.3523 17.4514 19.2405
10.6442 24.0094 45.4726
14.9393 26.2918 43.1186
6.32498 8.9952 19.0417
7.25169 12.0709 17.9865
8.72894 18.1164 31.868
9.38109 13.838 19.9318
6.95295 17.8821 41.9774
14.9671 23.6688 39.9547
12.3007 15.5625 18.1396
3.71885 10.4563 26.2303
12.5674 25.3642 47.4681
10.1865 14.4919 26.4289
9.10772 14.2854 25.8886
10.8388 17.4943 28.8666
4.62537 6.86906 21.6313
13.5304 19.336 25.4944
13.9962 30.5851 51.2872
7.42949 12.9526 25.9701
10.8888 23.2897 40.1921
5.83707 9.65123 22.0724
11.7442 23.3986 45.5159
14.2515 22.702 33.8173
7.03178 12.4277 27.8391
10.226 19.5954 37.8211
8.16489 11.8237 21.9945
8.33176 17.0112 27.9809
4.44164 6.60784 16.4664
10.7142 22.2017 38.1633
10.2366 18.9535 33.6398
6.96738 13.2031 28.9499
7.02775 11.5746 33.147
15.839 22.6326 31.7678
13.2801 27.6937 46.6826
10.3395 18.0408 30.9338
6.59865 14.8475 37.9172
12.1728 18.9207 32.8661
10.0041 16.4411 21.3717
5.55584 15.377 37.1149
13.1069 22.677 36.4959
7.17783 15.5036 38.4098
14.5748 29.9646 50.7559
7.02907 10.7673 22.3272
8.43265 22.9588 53.6889
10.5241 16.1824 39.3739
13.8361 17.4407 23.1904
10.3873 18.0838 23.4485
10.53 24.542 37.9065
7.84617 19.9534 44.9045
10.457 20.4789 42.284
10.6271 22.6547 48.3553
8.58535 14.046 24.0854
4.2525 10.6257 29.9865
9.85001 15.4909 28.5321
8.16367 15.5665 27.505
6.62693 15.5569 39.676
15.67 30.3847 47.4374
5.30106 7.07112 12.8351
5.01049 13.9341 36.8004
10.7677 22.2953 46.0617
9.01667 14.2255 28.4216
8.55958 15.4797 33.3786
7.08708 12.2117 32.3165
10.1269 13.4232 15.5137
8.484 16.5968 31.3854
9.65799 22.2889 43.1083
9.65731 17.8119 34.3509
9.99774 16.171 23.7596
5.81102 15.9039 30.4438
5.07617 17.4499 53.2694
8.42851 11.2488 16.7722
4.18992 10.0916 21.9416
4.71536 11.1976 31.9762
9.10869 17.6045 37.4271
11.6202 26.2022 51.901
9.30706 16.6046 32.6345
7.36141 11.9118 21.2161
9.89408 24.4126 46.7791
6.87068 15.7757 34.7764
6.79622 13.7117 32.3531
6.66988 13.5681 37.9388
11.5002 18.3306 29.0186
6.76292 14.692 33.3091
8.99127 19.8323 48.1964
12.1612 22.7383 41.564
7.26223 14.8699 37.7699
8.82762 10.6764 16.9764
12.4534 29.5406 53.446
11.7311 27.592 60.1123
7.63106 11.1556 28.0218
10.7464 23.1002 40.8969
8.93644 19.0821 34.203
7.55102 24.1343 61.8286
10.8255 17.4535 26.954
4.40479 10.1049 23.2795
6.35844 13.3184 29.3372
6.78292 16.2155 36.4024
8.10842 19.4698 49.2141
14.5813 30.3253 56.2298
6.61382 13.3306 27.1518
4.54934 6.20392 12.5795
5.23089 13.4328 27.8707
3.63404 8.77716 26.9545
10.1955 21.5218 41.8042
6.24732 12.1892 29.9496
6.79538 15.6463 31.9969
5.94527 11.8936 24.5164
6.66853 15.1528 29.9468
4.34636 13.7265 43.7453
9.75353 16.2648 29.5602
4.07454 7.8056 22.156
8.26068 19.4436 34.0415
5.16392 17.8928 52.7015
12.6329 25.6958 43.5109
4.69851 8.39037 23.2046
6.19266 11.6355 22.008
5.50983 16.8026 42.43
8.5677 19.6987 45.5253
7.31285 13.5688 33.4949
8.13627 12.9877 19.5651
4.55546 15.7521 43.7237
7.97379 17.9345 43.5405
8.31168 14.8885 31.8976
7.50869 15.6966 31.9334
6.49427 12.903 22.0632
4.951 14.8874 37.1448
8.60096 20.8741 40.4748
7.73067 24.3474 62.3651
7.54152 11.3353 25.9719
5.05855 13.075 32.102
5.7272 11.6951 29.8744
7.08405 18.9817 39.4691
5.31559 11.2534 24.6153
3.45998 9.1441 28.8813
6.66447 14.3876 28.1406
4.02534 12.1224 35.5955
7.47541 13.8717 26.6987
3.59747 10.2347 30.5603
4.29537 8.08349 22.4476
4.30066 7.62511 22.5987
5.23113 9.84156 21.3756
6.91982 16.2128 29.1773
5.44036 13.3598 28.8504
4.86311 14.743 39.9907
7.80211 22.7271 56.2994
5.78225 11.7307 41.3261
8.39082 11.5816 19.1149
7.07794 22.491 61.0702
11.3802 22.7158 44.203
4.04117 6.00538 22.0522
6.82236 16.2216 33.2246
6.09258 13.2901 33.1589
6.40727 14.1406 32.6852
5.13728 7.78031 13.7014
5.74361 18.6943 46.0534
7.67751 17.8684 46.6625
8.04012 15.4241 27.3159
4.95514 11.5532 26.917
5.87855 15.4962 32.7185
7.34567 27.1898 71.8118
9.72887 19.2217 43.2891
5.49643 13.4227 38.9965
4.73119 6.38082 22.8683
6.71428 10.9048 17.5986
5.33325 14.0452 29.4669
4.34735 12.3092 32.5628
6.59595 15.1682 36.8355
5.84127 13.9369 39.0334
7.53426 20.6848 55.3656
8.74539 21.0299 42.9589
