# pn-170911/RbIIF-69-RbIIR-1280-1959.psd
# Power spectrum* (dif=0,1,2) (really just |FT|^2)
# NOTE: only the first half! (symmetric)
# weeks: 1280-1959
# 927 clock-days, 24 excluded
# PSD: 1441
362.513 0.0454615 0.0212625
32334.8 0.627733 0.0133173
129522 2.53672 0.0136135
24901.7 0.917852 0.0136026
33613.1 2.41645 0.0132038
8145.28 0.739422 0.013434
7748.71 1.08414 0.0133542
4139.87 0.721882 0.0132669
3782.04 0.948001 0.0131831
2502.22 0.738824 0.0129749
2221.54 0.85014 0.0141494
1652.52 0.731498 0.0127062
1567.9 0.853581 0.0133108
1258.28 0.789153 0.013896
1147.5 0.838533 0.013421
972.135 0.801947 0.0136219
854.873 0.812499 0.0137679
760.299 0.831733 0.0150976
688.644 0.860913 0.0143946
594.088 0.830813 0.0148676
567.482 0.892322 0.0152174
539.856 0.906056 0.0148534
485.172 0.940852 0.0146534
453.473 0.92604 0.0168645
431.19 0.961825 0.0156379
419.331 0.996316 0.0161883
364.558 0.965167 0.0162242
370.064 1.07157 0.0157643
361.628 1.1184 0.0172602
317.752 1.04893 0.017658
332.827 1.23369 0.0187792
303.07 1.16512 0.0184952
301.6 1.22142 0.0194964
281.663 1.25892 0.0193742
292.672 1.36209 0.0212672
259.595 1.31864 0.0203409
251.954 1.27234 0.0211643
247.907 1.39084 0.0214633
238.456 1.44965 0.0233654
237.59 1.45758 0.0244349
219.52 1.45508 0.0237679
220.706 1.56482 0.0263132
211.904 1.56159 0.0261515
210.764 1.66616 0.0271316
221.04 1.84323 0.0301388
198.868 1.64125 0.0300262
205.112 1.77909 0.0318983
195.149 1.82797 0.0326995
202.059 2.01273 0.0364377
182.767 1.85314 0.0344645
189.034 1.99929 0.0361664
180.815 2.01665 0.0376054
178.297 2.0571 0.0388321
179.515 2.17769 0.0419859
178.4 2.25251 0.0460807
168.793 2.28091 0.0473908
171.752 2.31427 0.0491799
161.212 2.3289 0.0512795
176.139 2.59521 0.0549544
171.696 2.69616 0.0571457
159.395 2.47881 0.0537393
154.724 2.54583 0.0570487
157.473 2.68942 0.062709
156.84 2.78235 0.0671376
153.142 2.79406 0.0668885
158.287 2.99702 0.0732481
160.706 3.04719 0.0775224
150.679 2.98635 0.0775834
154.224 3.14325 0.0833639
150.855 3.15496 0.0841005
139.969 3.0568 0.0868228
147.881 3.35658 0.0899229
139.648 3.22869 0.09424
147.414 3.44141 0.101568
139.572 3.49782 0.106916
137.472 3.49971 0.10607
142.1 3.68693 0.115749
134.822 3.61304 0.112286
136.17 3.6514 0.119119
132.519 3.74197 0.129212
128.78 3.7539 0.129941
133.592 3.81941 0.130303
135.46 4.11224 0.144118
130.815 4.06111 0.143766
131.006 4.04682 0.150356
128.146 4.17093 0.159536
137.723 4.593 0.175953
127.616 4.323 0.168286
121.666 4.22539 0.172002
126.114 4.58229 0.183379
130.822 4.75552 0.193629
127.053 4.77584 0.200747
127.898 4.93235 0.209394
129.945 5.05566 0.219435
119.922 4.81845 0.216812
119.764 4.84491 0.222594
123.272 5.20172 0.240719
133.281 5.64012 0.266763
121.027 5.35519 0.259424
114.294 5.1551 0.253943
122.573 5.52889 0.279152
121.885 5.60531 0.281339
121.709 5.78094 0.301684
124.944 6.00214 0.313805
115.174 5.56393 0.29704
115.167 5.76196 0.31634
116.685 5.99712 0.334883
106.871 5.71601 0.321322
111.063 5.89366 0.346768
108.262 5.93654 0.355637
121.262 6.48168 0.383661
112.766 6.26094 0.379529
108.532 6.26295 0.38361
112.288 6.60543 0.412618
117.449 6.92997 0.437002
112.781 6.8236 0.444461
111.001 6.86833 0.453505
111.047 6.96429 0.464171
106.046 6.76438 0.462445
104.701 6.78253 0.464234
112.754 7.47232 0.520526
105.975 7.21747 0.515792
106.439 7.22101 0.519052
102.434 7.18175 0.529311
109.195 7.71096 0.57831
104.084 7.39901 0.563172
108.555 7.91364 0.612492
103.369 7.61074 0.593715
100.305 7.65547 0.60686
101.782 7.80465 0.625167
100.603 7.7896 0.638741
98.1474 7.75248 0.653639
103.833 8.39359 0.703651
96.9853 7.96142 0.67571
96.0996 7.92094 0.690703
101.049 8.60588 0.752938
97.5558 8.51151 0.749901
97.3781 8.38554 0.765883
91.467 8.07613 0.744808
95.5707 8.4572 0.788853
99.7933 8.97039 0.840342
95.4244 8.86514 0.846552
94.9425 8.71264 0.843649
94.2114 8.94238 0.88302
95.7293 9.06659 0.905024
95.48 9.20636 0.924558
92.1062 8.98778 0.91079
96.8758 9.65584 0.994869
91.241 9.1616 0.983243
99.1124 10.1827 1.08281
93.8028 9.63399 1.03035
94.9213 10.0247 1.10439
82.651 8.92382 0.974259
95.8348 10.3519 1.15762
83.1743 9.10498 1.03991
89.3402 10.019 1.15947
87.4449 9.75777 1.12616
85.9586 9.73008 1.14194
92.1084 10.4734 1.24219
91.6245 10.6375 1.27422
88.9955 10.4703 1.29256
86.0786 10.2888 1.27312
85.5301 10.4228 1.29468
92.7523 11.2688 1.40964
85.3292 10.4962 1.33826
90.8962 11.4151 1.47499
83.4896 10.6029 1.39901
84.2037 10.857 1.43892
80.8142 10.5564 1.40565
84.7321 11.144 1.51204
84.8632 11.4455 1.56693
81.5739 10.9171 1.50295
84.4784 11.614 1.62814
85.9919 11.8965 1.69174
85.2265 11.8459 1.7004
79.9606 11.2188 1.63175
79.4192 11.3035 1.62935
77.5606 11.1211 1.65527
78.968 11.5699 1.72186
75.1802 11.1277 1.71213
76.2663 11.3061 1.72439
78.1723 11.713 1.80998
79.9199 12.1355 1.91048
78.7359 12.2019 1.93757
73.8415 11.4868 1.84362
82.9305 13.1957 2.15148
81.7016 12.8923 2.09014
81.289 12.9837 2.11993
74.2186 12.1837 2.05946
79.7747 13.1729 2.21172
73.7092 12.3781 2.12685
75.7434 12.9125 2.27548
78.5493 12.9841 2.22373
74.4885 12.7256 2.21235
72.9326 12.6813 2.27785
72.822 12.6529 2.26102
73.6927 12.9445 2.33557
72.6368 13.0216 2.37815
75.8178 13.6402 2.54044
72.5719 13.1584 2.45702
72.1755 13.1867 2.50644
76.3715 14.0846 2.65191
73.2122 13.7768 2.65628
74.1086 14.1565 2.7661
71.8015 13.8398 2.68459
72.5758 14.2007 2.82558
73.7879 14.4647 2.8862
68.4024 13.4061 2.70193
71.9316 14.3593 2.8947
67.6478 13.6047 2.82411
68.4764 13.7446 2.85734
71.8505 14.5976 3.01112
67.757 14.1486 3.00925
64.6649 13.4911 2.90248
63.4539 13.4907 2.93054
69.0327 14.6235 3.17158
68.2573 14.6913 3.18759
66.2973 14.2843 3.13466
67.9314 14.8555 3.32404
64.1005 14.1611 3.1669
64.1968 14.2698 3.26319
64.5637 14.6853 3.37019
65.736 14.7326 3.39723
62.5611 14.4916 3.38476
63.5549 14.7818 3.50953
65.3034 15.1086 3.53687
63.8042 14.9147 3.57457
61.5055 14.5995 3.55658
63.8512 15.0664 3.65527
63.8289 15.3335 3.75319
61.4997 14.7952 3.64416
60.2911 14.7092 3.65617
61.3376 15.2902 3.85593
62.8694 15.5114 3.92651
62.3165 15.7429 4.05143
61.4125 15.62 4.05548
59.525 15.1377 3.91626
60.8838 15.6513 4.14368
57.9168 14.8927 3.91919
61.7303 16.3242 4.38348
62.0643 16.1341 4.32201
60.7908 16.0649 4.33645
63.3113 16.7756 4.56016
57.6675 15.7198 4.38187
58.6903 15.8257 4.38816
62.132 17.3262 4.8967
58.5327 16.2236 4.56954
59.8795 16.2286 4.52786
60.1149 17.0007 4.8565
56.6386 16.213 4.72373
57.7031 16.7067 4.93926
55.5566 16.1868 4.80846
60.5574 17.4135 5.08809
59.2149 17.4569 5.21068
56.9472 16.7253 5.02753
54.982 16.2917 4.91826
56.0388 16.6494 5.06151
53.3123 16.1346 4.94498
55.4779 16.9526 5.33554
56.8974 17.4066 5.37908
51.6559 15.7717 4.89768
55.2646 17.3593 5.50075
56.4864 17.907 5.66186
49.2997 15.6802 5.06616
53.8322 17.0799 5.49589
53.8926 17.2859 5.6167
51.8839 17.0538 5.64497
53.1941 17.3608 5.71243
50.7884 16.6642 5.55682
52.8051 17.2781 5.79039
49.7504 16.5628 5.62008
52.7827 17.744 6.01718
50.1361 16.9754 5.88993
53.2928 18.0881 6.23043
51.395 17.5288 6.03238
50.5168 17.263 5.97028
49.3722 17.279 6.09641
49.4671 17.2833 6.1273
47.9206 16.6954 5.94719
52.5164 18.8344 6.83073
48.7153 17.2978 6.26671
49.6154 17.9004 6.49297
47.3419 17.4041 6.43704
48.8145 18.2347 6.89562
49.8104 18.0821 6.68418
48.9335 17.7906 6.63762
50.4894 18.7144 7.05446
50.4255 19.0021 7.2167
52.8282 20.0629 7.67416
48.1012 18.1547 7.0262
48.1452 18.3843 7.16062
49.0875 18.7526 7.26766
46.3275 18.124 7.178
45.2 17.719 7.07915
45.1895 17.924 7.26717
46.3165 17.9772 7.1087
46.0922 18.1995 7.23207
47.3724 19.1259 7.71321
45.0309 18.3823 7.58788
44.1972 17.8176 7.39935
44.6857 18.0301 7.49638
46.7352 18.8399 7.7148
46.2085 19.1386 8.03426
44.1314 18.519 7.83276
42.4835 17.8984 7.60533
42.7477 17.9597 7.63816
44.8601 18.9786 8.19905
45.6859 19.3801 8.36662
45.1975 19.505 8.58438
47.4972 20.635 9.02411
45.9979 19.9787 8.85451
44.6509 19.1799 8.30072
41.7775 18.7358 8.54933
44.0767 19.3688 8.68118
43.2323 18.9134 8.39755
43.57 19.7099 8.95757
39.6745 17.8364 8.25192
41.9727 19.1341 8.85474
41.3698 18.7788 8.59355
40.597 18.6654 8.6185
39.1492 18.3562 8.66333
43.1982 20.0114 9.36371
43.3985 20.5353 9.76168
39.2696 18.5077 8.99642
41.15 19.2229 9.09081
37.6071 18.0905 8.85375
39.6301 18.8154 9.05669
39.3201 18.8372 9.15896
41.3748 20.1713 9.8996
38.8808 18.9334 9.40331
41.1563 19.9171 9.75742
39.4286 19.5649 9.75413
37.9488 18.9116 9.60749
39.368 19.6185 9.89833
37.2649 18.6569 9.59186
39.1495 19.7145 9.96062
37.3182 19.1936 10.0005
37.4939 18.8736 9.69117
39.7278 20.814 10.9019
38.4813 19.9474 10.4928
37.0493 19.3205 10.3303
36.9244 18.7568 9.76773
35.9785 18.7694 9.89374
37.0134 19.6654 10.4652
35.6938 18.984 10.3134
36.369 19.2994 10.5402
37.8761 20.2647 11.0122
37.1772 19.9045 10.8675
34.6709 19.0543 10.6498
35.7939 19.3266 10.6569
35.5642 19.6542 11.046
37.5119 20.6023 11.51
38.2917 20.5829 11.2827
37.7146 21.1562 11.9388
36.6889 20.0403 11.0338
34.7698 19.8269 11.3983
34.4291 19.3516 11.074
35.4045 20.4785 12.134
37.0924 20.7907 11.8489
32.3313 18.6132 10.9333
34.368 19.9893 11.7032
33.7791 19.6765 11.5905
34.9242 20.3609 12.0356
33.5984 19.3753 11.4304
33.9231 20.4922 12.4157
34.0314 19.5903 11.5533
34.2112 20.3238 12.1036
32.1791 19.1405 11.5662
32.3646 19.9991 12.412
34.0214 20.6762 12.7315
33.5444 20.0105 12.1458
32.6803 20.2851 12.6102
31.2893 19.265 12.0771
30.0237 18.88 12.1685
32.9358 20.5545 13.1414
32.5442 19.626 12.1525
31.229 19.8037 12.8294
32.7093 20.1957 12.6165
30.3575 19.5148 12.6132
30.1315 19.1861 12.4629
30.1838 19.0919 12.3524
29.9168 19.0176 12.2722
28.5612 18.5954 12.4118
32.2757 21.2069 14.0338
32.0269 21.0449 14.031
32.2308 20.8942 13.7001
31.0868 20.4144 13.6013
29.8289 19.781 13.4303
30.4678 20.2347 13.5283
30.3324 20.3727 13.8839
31.3428 21.1885 14.5057
30.706 20.5403 14.1674
30.7026 21.1198 14.6977
29.9262 20.2083 13.7919
29.4606 20.4847 14.5289
31.0871 21.0769 14.3454
29.5297 20.7143 14.6328
28.5766 19.8899 13.9679
29.0355 20.3787 14.5383
27.6792 19.6474 14.1417
29.052 20.4046 14.5355
27.6017 19.455 14.034
27.9748 19.873 14.4412
29.2614 21.1439 15.4051
29.1499 20.6982 15.0013
28.0695 19.8357 14.2591
27.2392 20.0878 15.0898
29.0589 21.0501 15.3646
28.3858 20.7828 15.0931
26.9156 20.2002 15.279
26.5466 19.7661 15.0674
28.2758 20.5756 15.1642
26.2639 19.5715 14.8699
28.1836 21.0972 15.9228
26.6354 20.2067 15.544
27.1969 20.4953 15.5458
26.3231 20.1224 15.5861
26.7588 20.1183 15.4843
26.8505 20.5109 15.9437
26.2812 20.2753 15.9102
25.618 19.7847 15.5313
25.9218 20.2452 16.1547
26.5782 20.5929 16.1819
25.7166 19.7664 15.5262
25.6716 20.0621 15.8469
25.543 20.3279 16.4011
26.4401 20.6505 16.3561
25.3934 20.3654 16.4465
25.9826 20.7599 16.8708
25.0547 20.0255 16.3634
25.7426 20.7689 16.9515
25.3197 20.4452 16.7861
24.7105 20.2203 16.8236
26.6337 21.685 17.6281
24.3404 20.0076 16.7249
23.8951 19.8503 16.8823
25.0853 20.6996 17.1519
23.9951 20.0976 16.9638
24.0526 20.2755 17.4419
24.8913 20.9316 17.6913
23.2045 19.5556 16.9293
24.5406 20.4079 17.243
23.6314 20.1476 17.5892
25.6773 21.9057 18.6359
25.0262 21.5094 18.5065
22.4539 19.4521 17.0539
23.8473 20.834 18.44
23.0909 20.0154 17.6942
23.9196 20.7895 18.3058
23.1675 20.4931 17.8837
22.1961 19.5869 17.6615
23.329 20.7653 18.7516
23.6214 20.8881 18.7499
24.1782 21.5499 19.6392
24.0605 21.0678 18.5139
22.9018 20.7324 18.9025
22.6107 20.7509 19.2374
23.0884 20.3406 18.3701
23.1769 20.9285 18.9775
22.6529 20.5908 18.8407
21.5651 20.2997 19.5017
23.2886 20.1894 18.2645
22.1042 20.3284 18.9018
22.0918 20.3752 18.9018
21.8871 20.4951 19.7177
22.7936 20.8904 19.189
22.3377 21.1192 20.0433
22.1612 21.3674 20.7524
22.1647 20.6724 19.7985
22.3594 20.9976 19.9983
21.9407 20.6853 19.6875
21.7291 21.1245 20.5752
22.158 20.8553 19.9245
20.2877 20.1208 20.1766
21.3817 20.2807 19.7508
20.4948 19.3843 19.0016
21.2453 20.3023 19.5669
20.6029 20.5805 20.7948
20.88 20.1324 19.98
20.2891 19.62 19.1459
19.7047 19.5935 19.8391
21.5311 21.4319 21.4767
19.6627 19.3978 19.6194
19.9431 20.3534 21.0094
20.7124 20.8595 21.3987
20.2923 20.3856 20.9585
20.3807 20.0466 20.0267
19.8328 19.9623 20.1862
19.5558 20.0997 20.8266
19.6675 19.9599 20.5998
19.3617 20.005 21.0204
20.4965 21.1591 21.5777
19.156 20.3949 22.04
20.0404 20.6306 21.6311
20.4314 21.1489 21.8254
17.9964 18.8548 20.4671
19.7254 20.6094 21.8367
18.6741 19.2189 20.1609
18.9666 20.2003 21.593
18.5211 19.83 21.425
18.3553 19.6379 21.4404
19.2873 20.451 21.749
19.3029 20.8602 22.782
18.3675 19.2498 20.6056
18.5828 20.3091 22.21
17.7268 19.523 22.0865
18.7032 19.7524 21.1915
17.7851 19.8659 22.5451
18.8199 20.2237 22.3634
19.7353 20.9956 22.2276
18.3904 20.8433 23.4795
18.1432 19.9884 22.2986
17.8351 20.039 22.7109
18.0609 19.8633 22.3581
18.8968 21.4026 23.9493
16.9317 19.2546 22.3411
17.4579 19.7511 22.6233
17.5067 18.9735 21.4035
17.2478 19.8106 23.182
17.6115 19.5293 22.1872
17.5282 20.3675 23.904
18.4299 21.027 23.8349
17.0845 19.5356 22.8117
16.8594 19.8323 23.6046
16.954 19.4843 23.1385
18.0407 20.3898 23.6262
17.5956 19.943 22.7102
15.848 19.035 22.7902
16.6394 19.6706 23.5765
17.0046 20.0581 24.0754
16.3657 18.8538 22.5075
16.054 18.4521 21.9253
17.2025 20.6165 24.1782
15.2319 18.2009 22.352
16.867 20.3334 24.5521
16.3777 19.6567 24.0988
16.5455 20.5816 25.8097
17.2341 20.1228 24.2069
17.108 20.8976 25.6856
17.0903 21.2353 26.5255
16.733 19.8302 24.2991
15.8851 19.4017 24.1793
16.2427 19.4801 24.389
17.1742 20.9758 25.3682
16.5572 20.5224 25.3066
14.9304 18.6524 23.6008
15.5487 19.2057 24.2021
15.8167 19.6256 24.801
16.1732 20.1334 25.4502
15.9291 19.6003 24.2816
15.948 20.5814 26.6045
16.7687 21.5569 27.5635
14.9032 18.4504 23.8127
15.2721 19.2233 24.5961
15.3728 19.7459 25.1419
14.8619 19.3926 25.2864
14.0225 18.0563 24.0265
15.0731 19.3355 25.4632
16.3825 20.8615 26.634
15.0584 19.8676 26.5346
15.9369 20.549 26.2082
14.4943 19.4808 26.6714
15.298 19.4696 25.5511
14.6508 19.3612 25.6175
15.0511 20.3582 27.8151
15.7984 20.618 26.9435
14.6312 19.7024 26.6378
14.3406 19.3277 26.4483
14.2405 18.6941 25.4684
14.4045 19.081 26.2501
15.3522 20.249 26.9805
14.9555 20.1671 27.0774
13.9706 18.7042 25.6813
14.6611 19.9956 27.2781
14.0573 19.1195 26.6468
14.7299 20.1784 27.849
14.5979 19.8152 27.1609
14.6616 20.144 28.107
15.7791 22.0721 30.3736
14.5478 19.8826 27.6807
14.2421 19.8644 28.1248
13.9914 18.9655 26.3418
12.8239 18.0351 26.2872
13.97 19.0176 26.4893
13.1368 18.447 26.7306
13.896 19.116 27.0182
14.7734 20.3157 27.84
13.6229 19.5697 28.2846
13.4343 19.0673 27.8129
14.5381 20.4707 29.1796
13.9454 19.7029 27.7927
12.7235 18.2674 26.9808
13.5124 19.3215 27.8116
12.9478 17.9052 25.5549
13.1986 19.4861 28.8739
13.4594 19.0894 28.1102
13.5827 19.0831 27.0401
12.8046 18.5727 26.8351
12.5834 18.732 27.9693
12.3793 17.8847 26.9084
12.9935 18.7298 27.1247
12.1494 18.3368 27.8373
12.6641 18.6163 28.3117
13.6381 20.0008 29.5974
12.6584 18.4053 27.8278
12.851 19.5484 30.3398
13.2438 18.9146 27.9849
13.365 19.7284 28.3625
12.2513 19.2645 30.0448
12.5438 18.8816 29.5107
13.108 19.1213 28.5123
12.1512 18.3514 28.3965
12.3831 18.268 27.7653
12.4316 19.0765 29.4428
12.1697 18.48 29.2496
12.8895 18.5259 26.9728
11.9793 18.9608 29.5078
12.0656 18.5287 28.9783
11.681 17.8979 28.4163
12.1871 18.5825 29.1915
11.5259 17.7416 28.8053
13.2553 20.2801 31.1549
12.4714 19.3175 30.2958
11.6361 17.391 27.4984
12.8138 19.9935 30.4648
11.765 18.8533 30.051
11.84 18.8583 30.0196
11.5992 18.7609 30.0099
10.6358 16.3231 26.5333
11.1608 17.9371 28.9575
11.3503 17.704 28.9987
12.0614 19.1393 30.8766
12.0132 18.8691 29.668
10.8982 17.5545 29.0291
11.8267 19.1983 31.271
11.8352 18.8815 30.1527
11.8656 19.6699 32.9664
12.0894 18.62 29.5768
11.6532 19.3797 31.5481
10.9227 17.7509 29.7889
10.8594 17.8383 30.5794
12.1485 20.2335 33.8105
12.2219 19.7924 32.8689
12.0302 19.4334 31.1523
10.6741 17.6857 29.9887
10.9534 17.6827 29.3149
11.1738 19.0774 31.5686
10.826 17.9082 30.2018
10.6848 18.1336 31.4072
11.1746 18.7216 31.7521
11.2266 19.1887 32.8302
10.9007 17.9864 31.1849
11.5628 19.5603 33.6951
11.7025 19.1701 31.649
10.535 17.6843 30.7799
11.5947 19.5988 32.7708
11.4303 19.8351 34.1893
11.095 18.716 32.5136
11.5975 19.9874 33.7685
10.8313 19.1858 34.2611
10.6438 18.2028 33.0285
11.2787 18.2894 30.4225
10.679 18.6526 33.0426
11.3249 19.5746 33.7488
10.6828 18.3169 32.3016
11.1355 19.6089 33.547
10.9104 19.6946 35.491
10.9694 19.1899 34.8505
10.6217 18.2146 32.5677
10.5298 18.4764 33.1858
10.5304 18.0367 31.961
10.4661 18.4893 33.4218
11.4314 20.1299 35.4032
11.3349 20.2292 35.6412
10.4091 18.5738 33.6159
10.4693 18.8182 34.1098
10.3939 18.2964 33.746
10.6617 18.6 32.6227
10.0828 18.6635 34.9097
11.0767 20.0376 36.6247
10.9485 19.7392 36.08
10.748 19.0725 33.796
10.1051 18.3959 34.2039
9.99054 17.4394 31.7031
9.92812 18.1357 32.9468
9.44762 17.2593 32.6756
9.74155 17.1954 31.2509
9.8498 18.6391 35.0935
9.95423 18.0838 33.4998
10.3681 19.1947 34.9005
10.0844 19.3541 36.6172
9.70725 17.4003 32.3501
9.36193 17.0263 31.3369
9.01427 17.7606 34.7585
9.68887 17.8074 33.3052
9.45152 17.9766 35.0798
9.69823 17.629 33.5255
9.89092 18.1501 33.3351
9.39153 17.8626 33.4453
9.47195 18.7072 36.3224
9.39114 17.0441 32.6756
9.44377 17.7579 33.1003
8.90517 17.2512 34.4938
9.97915 19.0686 36.6717
9.43345 17.4339 33.3479
9.29291 17.7057 33.5015
8.66683 16.7145 33.4064
8.87031 16.9153 33.7661
9.32953 17.9631 34.9017
9.19826 17.1319 33.4276
9.44279 18.2032 34.7044
9.07003 17.8483 35.492
9.11055 17.4296 34.074
9.45346 18.9272 37.3149
9.34643 18.3967 37.3532
9.75934 18.4014 35.8009
9.3921 18.3821 35.8249
8.38966 16.4914 33.1662
8.80864 17.31 35.1547
9.21209 17.9837 35.9765
9.24838 17.9641 35.0732
8.73405 17.5499 36.3442
9.16659 17.7287 35.2887
8.98341 17.5296 33.994
8.50651 17.3179 34.0601
7.73543 16.0484 34.8633
9.03992 17.1607 33.0701
8.59974 17.8335 35.8149
8.39101 17.0634 34.3645
7.92666 16.3394 34.4856
8.11201 15.7512 31.8253
7.86619 16.2186 34.4314
8.31533 16.4367 33.6879
8.39763 16.8485 34.2792
8.17311 16.482 34.4522
8.50874 17.6084 36.8684
8.6908 17.2643 35.0468
8.50235 17.5488 36.3837
8.40774 17.2738 36.716
8.63213 17.5787 36.8503
8.82508 17.7641 35.835
8.25713 16.859 34.9698
8.32378 17.5042 36.5868
8.34651 17.432 37.0235
8.30063 16.6516 34.0116
7.76981 16.7147 36.6232
8.24733 16.7882 34.9805
8.2831 17.5983 36.7075
7.96307 16.7465 35.5631
8.16607 17.3787 36.7571
8.33698 17.6616 37.7282
8.02858 16.475 34.9529
7.80002 16.6679 35.6036
7.50917 16.3012 37.6975
8.59829 17.2385 36.0278
8.21683 17.5942 37.6333
7.86201 15.8853 32.9773
7.76641 17.2966 37.0669
7.83202 16.6516 35.4452
7.06294 15.1697 33.8425
7.7898 17.0395 36.9354
7.55608 16.3444 36.4453
8.03595 17.0733 37.1706
7.85403 16.9939 37.0585
7.81908 16.9721 37.5338
8.12654 17.6925 37.736
7.55777 16.5168 37.5268
7.93425 16.7048 35.9641
7.64947 17.3864 39.1642
7.73497 16.0119 35.1892
7.65842 17.1671 37.8362
6.98005 14.4335 33.1905
7.46577 16.2735 35.909
7.68071 16.6564 36.1372
7.39297 16.4086 35.3588
6.93661 15.4826 34.7678
6.99147 16.1435 37.1422
7.44355 16.7191 38.5262
7.56471 16.6802 37.7727
7.39705 15.6316 34.6914
7.12041 16.2429 37.8957
7.69294 17.0519 38.5171
7.30337 15.5224 33.7946
7.10948 16.6659 37.8847
6.81457 14.919 34.4352
7.24378 16.6077 37.3119
6.94561 15.4918 35.931
6.73833 14.6706 34.2993
7.46666 17.3077 39.338
7.53628 16.7796 37.2303
6.88934 16.2106 37.8982
6.81955 14.8879 34.7786
7.27746 16.9415 37.7236
6.64244 14.8964 34.3985
6.86538 16.4051 38.9645
7.17459 16.0159 35.9472
6.40931 15.1785 36.5648
6.8402 16.502 41.3497
7.86948 16.8366 36.1551
6.52122 15.907 39.1326
6.84452 15.2667 36.4373
6.63045 14.7478 34.8186
6.8919 15.4571 34.9651
6.71201 15.7235 35.3546
6.2971 15.6244 38.896
6.84023 15.4168 37.1451
7.07988 16.3682 38.7294
6.83109 15.4226 34.841
6.22363 15.0379 36.5049
6.5635 15.4379 36.8918
6.17864 14.1998 33.8968
6.1295 14.7343 36.1482
6.6111 15.8337 37.1277
6.30475 14.5109 35.2365
6.56453 15.9607 38.386
6.48251 15.382 37.4248
6.68479 16.2314 39.9933
6.77395 15.5886 37.191
6.39721 15.1178 37.1045
6.5637 15.8283 38.2826
6.6986 16.618 43.1393
7.70963 17.8761 41.4996
6.69299 16.5325 43.0754
7.51213 17.3264 41.0542
6.96552 16.6969 40.7008
6.87713 16.4189 40.045
