# pn-170911/RbIIR-52-USN7-1280-1959.psd
# Power spectrum* (dif=0,1,2) (really just |FT|^2)
# NOTE: only the first half! (symmetric)
# weeks: 1280-1959
# 524 clock-days, 12 excluded
# PSD: 1441
363.075 0.0620441 0.0313678
21505.3 0.458485 0.0519732
88810.5 1.83151 0.0510064
15281.7 0.547302 0.0494919
58455.1 4.45575 0.0536565
5484.21 0.545499 0.0539412
5678.87 0.803279 0.0516104
2837.39 0.511521 0.0541424
4768.96 1.32409 0.0497543
1725.64 0.543418 0.0497339
1722.45 0.704094 0.0521263
1130.77 0.52503 0.0535652
1420 0.755133 0.054572
938.434 0.627381 0.0538896
890.902 0.725469 0.0535045
747.779 0.658893 0.0534752
835.106 0.901628 0.0523649
556.347 0.667099 0.0538804
603.072 0.761688 0.0547331
548.081 0.783149 0.0570817
498.927 0.84286 0.0570434
433.272 0.770744 0.0529222
457.079 0.885763 0.0564554
383.107 0.815405 0.054296
388.346 0.902543 0.0554839
397.406 1.08275 0.0521875
346.493 0.985746 0.0543637
319.426 1.0193 0.0584072
303.124 1.01062 0.060826
339.993 1.21478 0.0529944
304.864 1.18932 0.0571747
255.814 1.1087 0.0554928
275.368 1.18328 0.0573403
295.01 1.3699 0.0603602
268.349 1.36354 0.0653524
276.715 1.44348 0.0638424
260.071 1.49538 0.0633455
239.349 1.47147 0.0629865
226.576 1.48834 0.0609683
236.126 1.58911 0.0657492
228.156 1.66474 0.0620404
235.427 1.72545 0.0710634
225.694 1.76709 0.0688109
215.533 1.82055 0.0673114
237.049 1.98592 0.0671389
205.661 1.80401 0.0740778
210.622 2.00683 0.0675861
218.526 2.14098 0.0761037
246.585 2.56564 0.0765669
208.964 2.14366 0.0772237
226.168 2.52169 0.084367
189.562 2.27999 0.08288
204.888 2.52523 0.0889987
228.418 2.86128 0.089711
199.085 2.70945 0.0847358
201.421 2.69927 0.0902735
187.089 2.65237 0.090147
191.941 2.8159 0.0936182
206.767 3.15066 0.107386
193.584 3.05233 0.104454
196.341 3.19283 0.109632
190.09 3.19905 0.0982721
199.295 3.41418 0.117536
170.474 3.21315 0.113576
180.844 3.35366 0.121352
175.717 3.39109 0.123885
174.975 3.40588 0.128767
200.613 4.17562 0.14786
173.914 3.75999 0.139509
188.894 4.09945 0.138654
183.652 4.15331 0.150133
183.922 4.31323 0.160262
181.358 4.27923 0.160064
173.613 4.20331 0.162224
155.653 3.85325 0.149533
157.452 4.23244 0.159963
195.197 5.29699 0.201359
172.518 4.7147 0.184332
190.799 5.30092 0.209153
164.99 4.80298 0.192571
165.845 4.98233 0.206894
169.15 5.10549 0.212101
170.024 5.25559 0.204193
170.591 5.45663 0.222287
169.744 5.67596 0.236466
162.12 5.36608 0.22292
153.499 5.29424 0.23625
162.477 5.68697 0.264555
158.84 5.51593 0.246231
161.09 5.96992 0.268431
152.561 5.63007 0.24943
194.854 7.54875 0.340294
153.457 5.95468 0.280497
152.819 6.13535 0.297506
134.035 5.60479 0.2942
153.181 6.33776 0.320968
210.566 9.14495 0.43506
156.121 6.75889 0.371536
151.345 6.74741 0.364202
148.086 6.85737 0.361896
154.464 7.31709 0.408063
133.943 6.37784 0.358632
139.263 6.75413 0.378133
154.572 7.52892 0.42
129.057 6.50171 0.390971
151.176 7.71999 0.428709
135.658 6.99495 0.422127
136.997 7.32878 0.45259
155.422 8.51656 0.534385
148.274 8.06102 0.489624
139.069 7.71044 0.494087
143.781 8.31161 0.525964
138.092 7.97758 0.522218
127.833 7.62883 0.504765
142.311 8.39152 0.552253
144.195 9.0386 0.614217
150.56 9.46353 0.654797
131.987 8.41995 0.570755
122.666 8.0455 0.572003
135.177 8.97686 0.654482
135.734 8.99928 0.663239
120.688 8.02755 0.586481
122.316 8.54193 0.651753
122.606 8.813 0.646419
129.066 9.46356 0.711731
122.522 8.86198 0.690963
135.646 10.0387 0.785144
145.849 10.8853 0.858666
121.667 9.37548 0.790407
134.182 10.2584 0.836464
127.644 10.1242 0.852087
139.818 11.3103 0.959552
122.745 9.84723 0.857051
144.251 11.9804 1.02314
113.081 9.41474 0.833004
114.778 9.84089 0.890078
122.47 10.7262 0.955712
120.866 10.8056 1.01274
120.188 10.5652 0.967612
116.894 10.5565 1.00164
107.227 9.87476 0.935007
107.636 9.73344 0.938909
110.664 10.3828 1.01253
118.002 11.2839 1.11175
148.901 14.7722 1.51229
117.475 11.0243 1.09758
119.86 11.7139 1.2056
112.535 11.5271 1.24395
120.897 12.795 1.38597
106.694 10.544 1.12495
115.758 12.1693 1.32253
111.953 11.8903 1.3419
99.6628 10.717 1.1897
110.976 12.3526 1.39991
114.08 12.5183 1.4407
124.215 14.3844 1.70553
128.819 14.2054 1.62264
107.679 12.2871 1.4421
105.679 12.168 1.45484
102.29 11.8788 1.43237
101.99 12.1999 1.46184
111.438 13.682 1.70507
110.01 13.2633 1.60863
102.904 12.5444 1.59573
97.8047 12.3178 1.60355
107.669 13.5699 1.76325
100.1 12.9151 1.69956
113.931 15.0511 1.99194
116.507 15.5709 2.06297
105.329 13.6343 1.84335
100.798 13.4557 1.85432
86.2981 11.7001 1.64238
100.736 14.1547 2.02199
95.8506 13.0632 1.86725
103.46 14.8544 2.16299
99.3082 13.8792 2.01853
109.364 15.6991 2.27012
99.4854 14.5616 2.1853
97.5224 14.6051 2.21268
108.53 16.1032 2.43336
99.0446 14.9289 2.26933
97.6101 14.8282 2.30084
93.2128 14.5763 2.25476
91.1957 14.2235 2.20355
89.1546 14.2653 2.29403
97.3277 15.7803 2.61733
102.953 16.1254 2.56834
90.7508 14.8637 2.45862
91.4174 15.0048 2.48986
89.2339 14.8246 2.49879
89.2085 14.7433 2.46383
87.6727 15.1627 2.68586
130.303 22.0645 3.76969
98.7784 16.6848 2.87791
89.1701 16.0386 2.90788
91.6053 16.3039 2.93789
96.7657 17.0884 3.02973
98.0295 17.6187 3.18411
84.9949 15.7029 2.96888
96.0173 17.1272 3.09503
83.1133 15.5643 2.95622
77.3944 14.565 2.79021
94.1286 17.9844 3.49715
96.1775 17.8644 3.43729
81.2138 16.0695 3.23154
94.2197 18.0184 3.51179
86.7805 16.9499 3.35962
86.129 16.731 3.35404
79.9444 15.9663 3.24703
80.4853 16.1219 3.23865
74.9049 15.5313 3.25276
82.1676 17.5073 3.68266
80.3404 16.6447 3.4928
78.7006 16.6102 3.54129
80.0144 17.098 3.64794
78.2625 16.9642 3.82629
83.7064 17.4909 3.74939
76.9947 16.8314 3.7574
79.0132 17.4816 3.90854
82.8827 17.9881 3.98784
79.3467 18.0425 4.08045
82.3848 18.4095 4.12394
83.0022 19.1066 4.45552
86.9832 19.7601 4.56488
70.2906 16.5703 3.97838
75.6892 17.6861 4.16464
71.7542 17.2149 4.18664
80.0149 19.081 4.58786
81.1149 19.5163 4.75268
78.6033 18.6861 4.49084
75.2877 18.1993 4.52709
76.6056 18.7352 4.65672
75.9815 18.6218 4.59462
72.6108 18.1854 4.65892
77.0627 19.2335 4.87051
77.0462 19.8341 5.07986
75.6701 19.4301 5.00192
65.1184 17.0343 4.51487
71.9148 18.6865 4.89848
67.6667 18.1341 4.92938
75.3308 19.9816 5.27746
68.5203 18.0771 4.90169
68.0976 18.0174 4.8581
66.9801 18.512 5.03627
70.7074 19.522 5.39557
71.9075 19.7643 5.51261
68.6782 19.3099 5.54045
74.6796 20.6849 5.77858
65.4556 19.0857 5.57898
69.5947 19.7602 5.65499
66.5803 19.0691 5.50445
67.6134 19.7904 5.81459
70.9442 21.1782 6.38226
76.1053 21.7525 6.22261
72.5901 21.4361 6.26174
62.6229 19.5041 6.10277
70.7282 21.0134 6.28379
64.8879 19.3322 5.86606
59.9041 18.4471 5.62501
60.4841 18.7704 5.93014
64.2644 20.1633 6.32429
65.2788 20.809 6.63594
65.1887 20.0151 6.3356
64.8767 20.7812 6.76604
69.276 21.6402 6.9045
61.2238 19.5712 6.31243
58.1182 18.9642 6.13507
60.3399 19.5283 6.38157
56.3644 18.9039 6.41241
57.6585 18.8552 6.28366
60.4573 20.1127 6.80726
66.2551 22.1377 7.46175
57.1262 19.4571 6.72706
58.5107 19.875 6.85926
59.2782 20.5268 7.1007
63.1624 21.901 7.78961
63.1878 21.5006 7.2985
56.0053 20.1198 7.26461
61.2927 21.3976 7.5779
53.9196 18.8763 6.67925
60.1658 21.6308 7.7049
56.612 20.7369 7.66898
57.8959 21.1104 7.8872
58.7 21.2435 7.70791
53.4942 19.7994 7.50426
54.2154 19.628 7.20051
52.2767 19.496 7.48012
58.5202 22.1004 8.57162
82.6479 30.9941 11.5333
56.6731 21.446 8.12679
54.373 20.7231 8.1301
53.7913 20.5363 7.91291
51.8753 20.2778 8.14997
55.4686 21.9363 8.75556
51.8508 20.1728 8.03852
53.8578 20.8758 8.17989
50.5184 19.9727 8.02586
48.3572 19.4354 7.93381
51.7308 20.4888 8.16011
49.6656 20.7842 8.63158
50.0163 20.9613 8.84799
56.0131 23.0879 9.65752
52.0258 21.3091 8.81042
47.6455 20.0469 8.50848
49.2956 20.5184 8.72473
48.7023 20.6005 8.82101
48.2329 20.3183 8.63795
52.2582 22.1301 9.33872
45.4923 20.0654 8.98943
49.5159 21.444 9.37871
49.5513 21.2272 9.24433
46.5526 20.6715 9.34545
49.4737 21.5484 9.50101
48.7088 22.0272 10.0519
49.1122 21.4993 9.5225
46.0356 20.9806 9.60586
44.8867 20.3904 9.49573
47.0894 20.9975 9.52533
45.0699 20.6942 9.61585
49.461 22.9719 10.626
47.0923 21.7358 10.069
42.9971 19.4929 9.03783
41.3216 19.8358 9.47467
48.2119 22.4639 10.5475
45.1825 21.5424 10.4562
47.0372 22.5443 10.6743
43.246 20.9688 10.2345
40.612 19.7501 9.78311
41.6854 19.99 9.73514
42.6838 21.2104 10.7049
49.0032 24.3097 11.9494
42.1399 20.8683 10.4586
44.8467 22.2307 11.159
41.9207 20.8146 10.5101
43.1002 21.3754 10.6982
41.751 20.9179 10.575
44.3117 23.0787 12.0444
44.8823 22.9061 11.8346
41.3381 21.3354 10.9409
40.7975 21.3181 11.265
42.0532 21.4943 11.0368
41.1023 21.3138 11.0312
40.3404 21.4721 11.5559
42.5317 22.6395 12.1352
41.5184 21.984 11.9184
42.7106 22.4728 12.0415
39.4815 21.2621 11.5483
39.9818 21.5014 11.6191
36.9785 19.8721 10.697
39.4123 21.8721 12.0677
38.8748 22.1224 12.5243
38.7612 21.2758 12.0054
38.6717 21.6462 12.2352
37.8739 21.0629 11.876
39.2718 22.1187 12.5456
39.5971 22.0766 12.3151
39.2357 22.3571 12.8578
39.7213 22.3619 12.7511
38.1349 21.9551 12.7603
38.2298 22.1092 12.8518
38.923 22.7817 13.3161
35.1228 20.3364 12.0546
35.479 21.5208 12.9685
38.4134 21.8722 12.7997
38.2703 22.9823 13.8263
37.9846 22.4833 13.4276
36.5356 22.3165 13.687
34.7147 20.2739 12.1274
35.9213 22.0485 13.3899
35.3639 22.0081 13.7059
35.815 21.2948 12.7812
37.249 23.4362 14.7613
33.5853 20.9807 13.3463
38.4389 23.1555 13.9477
36.0451 22.9962 14.4729
33.9962 21.7634 14.0104
36.1378 22.6348 14.3804
36.1011 23.2282 15.1422
34.9482 21.9661 14.0628
35.6013 22.6917 14.5552
34.0469 21.6465 13.8
34.3362 22.2591 14.5305
31.4695 20.4803 13.6436
34.2806 22.571 15.3926
46.5136 30.4455 19.3162
35.7919 23.5612 15.8093
34.6878 23.4355 15.6901
31.9071 22.1019 15.3534
32.4559 21.3151 14.2342
33.017 22.1659 15.0775
30.5107 20.5268 14.0961
31.9609 21.7678 14.9209
33.8971 22.5529 15.2067
32.8714 22.6128 15.7281
31.6455 21.7846 15.3039
33.9696 23.164 16.007
31.3355 22.0326 15.5578
29.6093 20.537 14.6996
33.5545 23.2739 16.4504
33.4773 23.2044 16.0285
30.6463 21.6418 15.4494
30.6049 22.0548 15.9542
30.8539 22.45 16.2543
29.409 21.1834 15.8694
33.5156 23.1844 16.4871
29.9683 22.1977 16.2369
31.9803 23.052 16.8093
28.3694 20.6527 15.2346
28.7658 21.4053 16.0433
29.0481 21.649 16.4778
30.3352 21.8647 15.8459
29.2489 22.0373 16.6383
29.8283 22.4418 17.3645
31.0488 22.3727 16.3151
29.542 22.0386 16.6488
30.6063 23.6479 18.1741
29.1915 22.5117 17.5167
29.4554 22.3689 17.2741
29.3047 22.5675 17.5832
29.4511 22.3687 17.1328
26.627 19.968 15.5979
30.5298 24.3421 18.8901
26.6994 21.7842 18.0386
29.8163 22.4871 17.4077
28.6615 22.5537 17.8535
28.7091 22.3444 17.8667
30.7286 24.5107 19.5883
27.4701 21.901 17.5416
24.6905 19.9748 16.7271
28.2514 22.5189 17.9844
27.2351 21.9561 17.895
25.9535 21.2567 17.5221
25.3481 20.9552 17.5697
26.4375 21.2213 17.502
27.291 22.2418 18.5336
27.3962 22.1803 18.0203
24.7434 21 18.0587
25.9674 21.6823 18.3857
26.174 21.3129 17.8767
25.4862 21.3928 18.1862
25.0945 20.651 17.5086
26.7979 22.4971 18.6615
26.5495 22.1282 18.5491
24.2092 20.5959 17.6146
24.9098 22.2012 19.7544
27.1612 23.437 20.2933
23.646 20.5892 18.3425
25.7511 22.7691 20.1882
25.3328 21.6617 18.9387
25.2235 22.3562 19.7026
25.6424 22.4676 19.9285
23.9236 20.8895 18.9272
25.5579 22.4976 19.8713
22.8843 20.3656 18.6115
23.691 20.975 19.1662
24.6317 22.3105 20.427
25.8204 23.0572 20.5503
24.3246 22.156 20.5372
24.8779 22.7812 21.2542
25.2482 22.4649 20.3837
25.8328 23.8472 21.5889
21.5254 20.0437 19.3628
24.9013 22.4817 20.8885
24.5803 22.5 21.1315
25.41 23.4009 21.7077
22.7539 21.0306 19.6403
25.4989 23.9055 22.0452
22.7291 21.9029 21.4692
22.3875 20.7703 19.7012
23.1955 21.3794 20.0001
22.986 22.6932 21.9598
21.1116 20.3194 20.1302
23.7145 22.4887 21.5407
22.5716 21.9851 21.2008
23.0317 22.791 22.4569
23.2832 22.6375 22.6994
23.9158 22.6437 21.773
20.8563 20.6466 20.9941
22.7726 22.5437 22.4396
21.2489 20.722 21.7962
31.9026 31.1002 28.9616
22.1704 22.4968 23.3254
22.8212 22.5963 22.6795
21.6851 21.5283 21.7861
22.806 22.9481 23.1202
20.435 20.7795 21.7294
20.1043 19.9433 20.8569
23.758 24.1062 24.0745
22.1452 22.2151 22.4875
21.8636 22.027 21.975
20.6861 21.877 22.8665
20.2411 21.2721 22.3055
20.1546 21.1838 22.4077
20.8969 22.1824 23.8063
19.9837 20.2063 21.2567
21.2652 22.2407 23.5805
20.8172 21.6781 22.931
20.8992 21.4802 22.3224
19.1103 20.5675 22.5508
20.5569 21.116 22.1171
20.4115 21.86 23.2974
20.9915 22.4194 24.0309
20.7665 22.3293 23.9124
19.614 20.8503 22.3719
19.111 20.9462 22.9192
19.2142 21.1935 23.5288
19.9312 22.1097 24.1315
18.8198 20.5796 23.2304
19.6815 21.4719 23.7863
18.8108 20.2155 22.3413
19.5413 21.7344 24.1802
19.8989 22.0375 24.0463
17.4218 19.7354 22.8135
19.0637 20.8803 23.1044
18.7841 21.8739 25.566
19.8048 21.2454 23.3084
19.1615 21.8951 24.8418
17.8168 19.8684 22.632
18.2699 21.0541 24.326
18.3964 21.428 25.4019
18.2748 19.9526 22.7291
16.9003 19.7014 23.4498
18.6203 21.0482 24.0617
18.7069 22.0596 25.608
18.8654 22.227 26.2946
18.5786 21.3497 25.6234
18.235 20.2326 23.3129
17.7422 21.1855 25.8406
17.8214 19.9086 23.0261
18.4772 21.9841 26.2622
16.9046 19.1284 22.3219
18.2824 22.4097 27.2124
18.2641 21.6733 26.3016
17.7243 20.0825 23.5397
17.2481 21.4304 26.8144
17.7605 21.0822 26.3256
19.6058 22.8592 26.7161
17.497 21.3576 26.7319
18.7426 22.5933 27.3766
16.5319 19.5792 24.0288
17.0885 21.0583 26.3855
17.4843 20.8804 25.1726
16.3965 20.0562 24.6477
16.5199 20.5915 26.1374
16.3722 19.5728 24.3406
16.6599 20.4674 25.6962
16.9989 21.1598 26.2809
15.0391 18.8099 24.5315
16.8163 20.9566 26.5294
16.5517 20.7309 26.5465
15.9174 19.0862 23.8434
16.3411 20.4806 25.6416
15.0156 19.2119 25.3829
17.9132 22.9421 29.1972
16.1719 20.2259 25.8473
13.6268 17.3334 23.8223
16.841 21.4782 27.352
16.1618 20.7446 27.081
16.2849 21.1053 27.9029
16.1316 20.2741 26.1326
16.0104 20.7039 27.0221
16.2002 21.393 28.1043
15.1497 20.1987 27.2662
15.5217 20.9103 28.496
15.6596 19.5108 25.5357
14.7704 19.8912 26.6733
15.4434 20.7419 27.9678
16.691 22.7159 30.5933
14.7589 19.1588 26.3083
15.4005 20.1432 26.9883
15.3194 20.5214 28.6775
17.2655 22.7536 30.0636
16.2038 22.0339 30.1362
15.2451 20.0645 27.3708
15.3127 20.1545 26.7645
14.9908 21.0722 30.9709
20.039 27.4723 36.3665
16.4304 21.8023 29.8099
15.0848 20.2737 27.6908
15.6361 21.6167 29.9904
15.5161 21.7308 30.6272
15.8556 21.692 30.0754
14.529 19.96 28.4635
15.6467 22.2968 32.2153
15.2824 20.6387 29.2282
15.4042 20.5931 28.1003
14.1616 20.3182 28.7576
14.3613 20.6177 29.5409
14.274 19.9801 28.1647
13.9866 20.5616 29.566
13.9055 19.6032 28.4332
13.3894 19.2862 28.3626
13.7629 19.0264 26.9475
13.2493 19.2301 28.0956
13.9711 20.2859 29.4822
13.5215 19.477 28.1731
12.7502 18.7188 27.9568
13.7913 20.6485 31.282
14.0792 20.3875 30.4705
13.0051 18.1896 27.9255
14.9981 21.155 29.8719
13.3977 19.76 29.3307
12.9321 17.9756 25.8487
13.0373 20.1749 30.7501
12.9714 19.2877 29.5055
13.5974 20.2313 30.6932
14.1808 20.3421 29.6834
12.8348 19.1833 29.1201
13.9004 20.7879 30.9443
12.898 18.9196 28.4924
12.577 18.9877 29.3687
13.0956 19.5888 30.0924
13.1314 19.9827 30.9487
14.0805 20.4042 29.1548
11.8414 18.4572 29.3917
13.2399 20.4582 31.1869
12.4494 19.0683 29.8914
12.4543 19.0817 30.1487
12.913 19.8054 30.8401
12.2116 18.9234 30.0989
12.0034 18.1102 28.6007
12.6842 19.8585 30.9056
11.9408 17.9303 27.9781
12.5861 20.5 32.7502
12.2619 18.8478 30.1647
12.8118 19.9076 30.8136
11.5531 18.0564 29.4477
11.5661 17.5943 27.7932
11.7769 19.3002 31.4341
12.0808 18.6328 29.8428
12.5494 20.3347 32.4393
11.033 17.5274 29.5739
12.0527 18.8327 30.9798
12.7025 19.4633 30.8215
12.0677 18.8995 30.0579
11.5899 18.5181 29.905
12.3623 19.9045 31.4206
11.1389 18.7878 32.1988
12.8316 19.8854 31.1187
11.5089 19.1266 31.7014
11.731 19.2004 31.3432
12.108 20.6386 34.3832
12.7417 21.4399 35.8527
12.4329 20.4472 35.0677
12.2167 19.9563 32.4323
11.1863 19.0323 32.4233
11.4886 18.5799 31.1143
10.986 18.3247 30.9387
10.627 17.5396 30.5437
11.5716 18.5447 30.3329
11.3652 19.3873 33.9236
12.4215 20.1055 32.695
11.7198 20.4911 35.4768
12.1183 19.8504 33.0691
10.7021 18.0501 31.0583
11.3076 19.6458 33.7733
10.7434 18.2048 32.2909
11.3724 18.7784 32.3263
11.5144 19.4544 33.5267
11.7237 20.1943 34.2657
10.6875 17.7545 30.0464
10.5288 19.0085 33.7756
10.0502 17.0803 31.239
10.8738 18.2897 31.8296
10.5786 17.6748 30.7493
10.7731 18.6548 32.4812
10.5675 18.354 32.6557
10.8933 18.6675 33.2029
10.9194 18.9315 32.8616
10.5961 18.4942 32.0579
9.58033 17.1756 31.9115
9.79986 16.9756 33.4184
14.4426 24.2787 37.6137
9.77259 18.4022 34.0849
10.3348 18.1041 31.9365
9.4048 16.7235 30.9554
10.3326 18.4185 32.647
10.14 18.6216 34.0407
10.2497 18.1532 33.5659
10.1287 18.2755 33.525
9.68754 17.4514 32.7909
9.72055 17.2634 31.6721
9.65508 17.0097 30.8367
9.45216 16.6936 30.7746
10.2262 19.0884 34.6147
9.51804 17.5275 32.7061
9.26195 16.5854 32.0982
9.88593 17.4861 32.6923
10.5037 18.7897 32.8249
8.73149 16.0472 30.5931
9.08457 16.5751 30.8529
9.38756 17.6663 32.9358
9.23005 17.7053 34.2015
9.23526 17.4866 35.2086
10.2766 18.007 33.2076
9.51104 17.2106 32.4066
9.73642 17.85 32.7377
8.76196 16.6812 33.3174
9.75421 17.1219 30.6521
8.88805 16.5389 31.5707
8.87783 16.8221 32.0917
9.0065 16.9354 31.8455
9.19195 18.0128 34.3508
8.72443 16.4962 31.9195
9.16302 17.6452 34.0334
8.55659 16.4168 32.2135
9.03799 18.2836 37.7864
9.86165 17.4302 31.1967
8.06323 15.9877 32.1712
9.00619 16.9148 32.1447
8.35131 16.2673 33.71
9.05019 16.6308 32.1805
8.99806 17.0104 32.2065
8.70776 17.1297 33.266
9.0138 17.8366 35.482
8.928 17.3382 35.7628
9.56966 18.4581 35.4581
8.17809 14.8609 29.3443
8.28423 16.8222 34.0836
8.68679 16.7168 33.7608
9.26757 17.9757 34.6637
8.8329 18.1122 36.455
8.45493 15.8034 31.5631
7.77467 15.2053 31.0793
8.32139 16.5318 32.9089
8.41595 17.0486 34.6399
8.52214 16.7733 34.921
9.19703 18.0558 36.0323
8.75695 16.7928 32.8663
7.97027 16.1449 32.43
7.83812 16.4086 34.7498
8.32211 16.5898 35.1238
8.75535 16.86 32.6331
7.9531 16.7458 34.7444
7.69308 15.4744 33.2687
8.3164 16.8632 35.2257
8.41329 16.8854 35.1606
7.83698 14.908 30.5348
7.82633 16.0517 33.5214
7.95342 16.1719 34.5166
8.46516 17.3055 35.3043
7.9097 16.141 33.6622
7.77588 15.8426 33.5476
8.58067 17.4652 35.0244
8.0719 17.1347 34.6478
7.3928 15.7185 34.2662
7.71606 16.1751 36.1829
8.58133 17.2926 36.1012
8.2188 16.2986 33.455
7.9791 16.6233 34.5708
7.46903 15.3169 32.6942
7.69115 16.4518 35.6572
7.96266 16.8576 35.4891
7.89852 16.4145 34.8784
7.49132 16.002 35.0291
7.26956 15.6038 35.5565
8.58145 17.3117 35.2497
7.65141 16.6136 35.8625
7.10319 14.3101 32.9709
8.42341 17.1423 35.1588
7.47951 15.9469 35.0539
7.58985 16.4333 35.1826
7.08668 14.4297 32.0745
7.57237 16.4916 36.2325
7.1277 14.7094 32.948
7.64842 16.1404 34.581
7.15884 15.3192 33.1673
7.02283 16.1828 40.939
10.1003 20.7174 39.8787
7.00506 15.1511 34.8919
7.30942 15.4686 33.2576
7.05413 15.4063 34.6392
7.19494 15.4189 34.0269
6.99744 14.7162 33.0746
7.14991 15.5128 33.4572
7.03079 15.6107 34.8708
7.06463 15.1961 32.4052
6.88396 16.3541 37.8197
7.17558 15.8758 35.8623
6.57761 14.869 36.1836
7.5296 15.6358 34.3891
6.77805 14.6354 32.472
7.00754 16.6422 39.2346
7.42768 15.2591 32.6975
6.51641 14.5953 34.065
7.10744 16.1677 37.0612
7.04212 14.9727 34.489
7.52203 16.9321 37.4908
7.08156 15.5444 34.6881
6.83503 15.5236 35.2181
6.52159 15.1382 35.6856
6.58989 14.202 33.2889
6.62171 14.6648 33.1285
6.60951 15.5959 35.8547
6.66507 14.8025 33.6379
6.37568 15.0073 35.8372
6.7676 15.3185 35.9331
6.48155 14.6044 35.041
6.57476 14.7212 34.2503
6.24555 14.4362 34.1923
6.49103 14.6558 35.2031
6.81258 15.3842 34.6296
6.21818 14.5796 35.2745
6.57622 15.8253 38.2563
6.80644 14.711 34.2842
6.5691 14.5582 33.7101
6.76818 15.8849 34.7168
6.05446 14.7139 36.1964
6.69872 15.6714 36.996
6.56193 14.8632 34.618
6.17766 14.3352 34.3771
5.91311 14.1509 35.4556
6.64853 15.2248 35.1878
6.02178 14.0441 33.7211
6.20441 14.1854 33.3449
6.32253 15.9561 39.2668
6.3433 14.3339 33.1601
5.71211 14.2494 35.8619
6.44277 14.4189 31.6589
4.96285 12.2226 32.5201
6.06584 14.5794 35.9058
6.17853 14.6425 35.2089
6.02833 14.6015 35.1739
6.12469 14.2689 33.6535
5.77742 14.2807 34.8038
5.64461 13.615 34.9649
