# pn-170911/RbIIR-41-USN3-1280-1959.psd
# Power spectrum* (dif=0,1,2) (really just |FT|^2)
# NOTE: only the first half! (symmetric)
# weeks: 1280-1959
# 3529 clock-days, 67 excluded
# PSD: 1441
390.237 0.0570043 0.0191743
20940.4 0.489829 0.0112761
64472.2 1.26432 0.0112648
16971.2 0.549276 0.0115247
22732.9 1.5977 0.0114612
5144.23 0.480957 0.0116609
3896.89 0.516683 0.0116407
2734.76 0.476171 0.0116754
2720.94 0.650904 0.0116879
1680.75 0.499626 0.0117839
1529.11 0.57727 0.0116262
1149.67 0.509359 0.0118099
1128.2 0.60577 0.0119109
865.017 0.546932 0.0120762
906.898 0.685718 0.0120957
692.046 0.568538 0.012563
722.074 0.71998 0.0128643
569.69 0.622841 0.0127234
597.215 0.767545 0.0131077
491.099 0.688054 0.0130054
527.686 0.844496 0.0131892
435.318 0.757185 0.0131492
466.211 0.913306 0.0139214
384.073 0.813793 0.0137737
434.899 1.03736 0.0146864
341.694 0.868625 0.0147728
416.517 1.13948 0.0161437
327.184 0.970152 0.015349
365.557 1.20398 0.0163735
306.853 1.08773 0.0164605
335.994 1.28932 0.0175425
292.736 1.17089 0.0170154
327.821 1.43304 0.0195215
279.627 1.25724 0.0194196
318.417 1.60555 0.0214753
269.793 1.40175 0.0206533
292.543 1.6201 0.0222134
263.262 1.53996 0.0223334
291.178 1.81828 0.024778
253.042 1.68002 0.0241884
287.434 2.04482 0.0286117
252.224 1.83152 0.0265177
275.668 2.14096 0.0306122
247.399 2.02539 0.0302317
276.721 2.38982 0.0344344
240.49 2.14433 0.0320414
258.654 2.40902 0.0359617
236.648 2.31155 0.0363009
264.315 2.71943 0.0426234
226.305 2.41098 0.039851
246.272 2.78754 0.0453996
230.602 2.68008 0.0453071
250.185 3.03742 0.0514542
226.993 2.85522 0.0501546
240.175 3.18936 0.0558433
223.168 3.0123 0.0557336
236.08 3.37611 0.0629039
215.576 3.14629 0.0599356
229.29 3.47954 0.0678147
215.886 3.41584 0.068208
218.974 3.57874 0.0740764
213.845 3.57863 0.0754085
236.938 4.17051 0.0876918
207.83 3.73057 0.0824113
223.439 4.19109 0.0946092
212.17 4.05578 0.0932965
214.167 4.24735 0.098929
201.845 4.12925 0.102403
202.357 4.29166 0.10599
209.239 4.54309 0.114728
205.42 4.61823 0.120806
198.411 4.61907 0.121783
201.191 4.85066 0.131643
195.084 4.73379 0.132627
196.714 4.91949 0.140325
187.75 4.84006 0.140757
191.171 5.08372 0.151821
184.633 5.0768 0.154541
193.914 5.4285 0.168996
191.559 5.50232 0.1762
189.318 5.55663 0.181333
184.331 5.58544 0.186609
186.001 5.77217 0.194727
173.423 5.51504 0.193059
175.113 5.708 0.203912
175.042 5.84978 0.213087
179.179 6.11468 0.228255
179.356 6.2655 0.234544
176.771 6.27919 0.244598
169.371 6.19736 0.24638
176.011 6.5701 0.266715
173.541 6.64527 0.273995
167.622 6.59818 0.279601
160.62 6.36737 0.272598
164.035 6.7128 0.292469
164.502 6.87484 0.309087
208.755 9.0436 0.411872
166.048 7.13899 0.328756
157.341 6.99929 0.329729
150.963 6.85041 0.330611
155.154 7.15253 0.350091
162.77 7.63111 0.384801
162.115 7.83726 0.400067
153.889 7.52615 0.390184
152.918 7.68579 0.410393
153.491 7.80084 0.414868
150.018 7.82164 0.427467
148.024 7.86072 0.440954
148.976 8.07961 0.463038
147.968 8.13065 0.473399
149.003 8.32763 0.490954
140.17 8.00755 0.481992
140.078 8.16047 0.501454
149.288 8.86403 0.552046
147.038 8.96996 0.570577
144.608 8.81295 0.564177
139.358 8.64237 0.558541
131.92 8.36848 0.556493
140.475 9.11235 0.616115
135.362 8.89821 0.607716
137.828 9.25288 0.640633
134.177 9.05032 0.635981
125.758 8.69319 0.625486
133.848 9.4308 0.690527
134.864 9.63144 0.712123
130.224 9.48365 0.715834
132.305 9.83887 0.754765
128.643 9.60293 0.747756
127.269 9.69283 0.764961
127.62 9.81993 0.783866
125.483 9.82739 0.791025
129.63 10.4374 0.86105
127.095 10.2874 0.861864
125.793 10.3692 0.882317
125.341 10.3723 0.891989
122.459 10.3148 0.901558
122.044 10.4919 0.929514
120.836 10.4684 0.945705
119.292 10.6133 0.974854
113.699 10.1448 0.942146
120.679 10.9649 1.02939
115.843 10.7287 1.02019
113.225 10.532 1.0105
118.659 11.3702 1.11796
115.014 11.0163 1.09304
110.005 10.7152 1.07569
106.103 10.5842 1.08605
111.949 11.1787 1.15129
110.508 11.3048 1.18541
110.259 11.303 1.19024
112.836 11.9137 1.2895
109.79 11.5641 1.25315
108.545 11.6509 1.28155
106.936 11.6797 1.30333
107.072 11.7578 1.32379
103.921 11.6122 1.33051
108.247 12.1122 1.39644
104.281 12.002 1.41475
105.815 12.3319 1.46655
105.675 12.342 1.47727
102.579 12.0826 1.472
102.346 12.2669 1.51399
101.311 12.2739 1.52237
103.414 12.794 1.62677
103.168 12.8904 1.631
97.7332 12.3606 1.60199
98.9989 12.6301 1.65206
103.053 13.3316 1.76618
97.0081 12.7283 1.71491
96.9528 12.8472 1.74783
99.8262 13.3761 1.82146
95.8689 12.9484 1.79075
98.4111 13.5677 1.89591
94.8559 13.0827 1.85505
92.9263 13.0301 1.88157
96.4368 13.6224 1.97727
92.1939 13.1785 1.93267
92.4719 13.4211 1.99052
93.345 13.7678 2.07481
92.9385 13.8971 2.10495
91.8725 13.7367 2.09495
91.7719 13.9247 2.16704
92.1196 14.0049 2.16615
89.3323 14.0175 2.23391
92.4583 14.4307 2.2993
88.3003 13.9762 2.26535
87.6244 13.9533 2.27238
85.1284 13.8234 2.29401
89.227 14.5482 2.41716
84.8625 14.0087 2.36132
84.0849 14.0215 2.38884
86.167 14.7799 2.59511
109.157 18.5943 3.182
82.3579 14.1817 2.48604
81.8627 14.3264 2.55503
80.7078 14.2239 2.55649
82.4694 14.6994 2.66819
85.4452 15.1905 2.75316
81.8793 14.8278 2.73923
80.8153 14.7786 2.7516
81.0113 15.0338 2.84043
80.0433 15.0197 2.86521
82.3085 15.4948 2.9732
78.0847 14.8902 2.89242
81.7364 15.5802 3.0141
76.9349 14.9957 2.97682
76.6982 15.0498 3.00539
78.0026 15.4906 3.13334
77.2669 15.4313 3.14812
77.0324 15.5181 3.17727
76.4586 15.4289 3.17654
75.4022 15.6065 3.28359
75.8882 15.705 3.30735
76.1542 15.9589 3.3835
74.2295 15.7592 3.39708
75.4544 16.1982 3.53718
77.6271 16.6336 3.63762
73.6836 15.9656 3.51837
70.6609 15.5379 3.47346
71.8089 15.9705 3.58639
72.4846 16.2973 3.70346
68.2641 15.33 3.53622
70.1918 15.8897 3.66641
72.225 16.5459 3.8422
71.2385 16.5043 3.8739
69.3268 16.0511 3.79478
70.3158 16.642 4.004
67.7827 15.9797 3.8514
68.3579 16.4414 4.02242
70.739 17.0571 4.18553
68.6103 16.6753 4.10326
66.0515 16.123 4.01874
66.1376 16.5023 4.15809
66.1551 16.6442 4.24608
67.6319 16.9594 4.32189
65.1 16.5839 4.29908
64.5892 16.5613 4.32429
65.5681 16.8319 4.37816
62.7366 16.3034 4.31645
65.4917 17.3643 4.63711
68.1441 17.9325 4.78755
62.9399 16.7522 4.53428
61.7704 16.5897 4.5367
62.5786 17.073 4.72762
61.557 16.9 4.70422
62.5135 17.3409 4.87284
62.2033 17.1832 4.83051
61.1539 17.1135 4.87722
61.5424 17.3682 4.95587
60.5272 17.2927 4.96842
59.1397 17.1829 5.02898
60.9689 17.612 5.15318
58.1731 16.9618 5.04177
59.9708 17.5669 5.22521
58.3516 17.2945 5.19553
57.1424 17.1068 5.20724
59.4395 17.6615 5.33781
58.2888 17.7418 5.49106
58.4623 17.6411 5.4146
57.6618 17.7696 5.53507
57.6854 17.9427 5.64806
57.2502 17.7736 5.58868
57.0865 17.9883 5.74288
54.6884 17.4292 5.64325
56.5525 18.035 5.84025
56.0641 18.0038 5.87259
56.597 18.0559 5.83823
53.1579 17.5157 5.842
54.7824 18.1103 6.05208
55.2131 18.1715 6.09963
57.2513 19.106 6.48251
55.0276 18.3537 6.22762
54.9102 18.4796 6.30424
53.7177 18.3938 6.34341
52.9251 18.0965 6.26978
52.6771 18.2605 6.42827
54.8856 19.1683 6.77794
52.4005 18.2505 6.47337
52.1752 18.3263 6.52216
51.2457 18.4218 6.69634
52.6023 18.7808 6.76842
49.8214 17.9399 6.60066
53.0015 19.2101 7.04845
49.9695 18.159 6.71432
49.3278 18.0875 6.74069
49.2731 18.2616 6.86108
48.4445 18.3065 6.97571
49.6247 18.7796 7.2956
65.3361 24.3788 9.0651
48.732 18.5837 7.20678
48.227 18.3518 7.09677
46.6463 17.9963 7.01336
47.3449 18.5227 7.34733
49.7828 19.3057 7.5594
46.1485 18.1127 7.25055
47.6684 18.9743 7.63182
45.8025 18.2995 7.44109
46.0242 18.3573 7.46966
48.893 19.6013 7.95281
46.1523 18.7117 7.69863
44.5321 18.106 7.46748
46.4784 19.1759 7.99539
45.2463 18.6166 7.76622
47.0349 19.6237 8.25957
45.7062 19.3086 8.2543
45.9703 19.4498 8.29803
45.2175 19.1134 8.21186
43.9234 18.7588 8.1184
43.0617 18.4702 8.06068
44.787 19.2966 8.41599
45.3066 19.8401 8.75484
41.8216 18.3731 8.2595
44.1445 19.3813 8.65592
44.6596 19.7892 8.81541
42.5458 19.084 8.63251
42.6339 19.2291 8.76918
42.2585 19.0618 8.73278
42.5702 19.2891 8.83103
42.2545 19.3607 8.99682
41.9127 19.3434 9.04478
42.2465 19.5074 9.08128
42.5124 19.8432 9.33818
40.8315 19.3408 9.2673
42.2456 19.993 9.54741
41.465 19.6824 9.48165
40.5815 19.3134 9.25087
39.2004 18.7753 9.16493
38.8316 18.6759 9.15413
40.6556 19.7214 9.62335
39.4683 19.1828 9.46619
39.4882 19.5072 9.74269
39.8401 19.6109 9.7933
38.7792 19.1041 9.54436
39.0676 19.7097 10.0596
39.0755 19.5549 9.95353
40.2317 20.2574 10.3096
37.7753 19.3225 9.9593
38.4871 19.6387 10.1738
37.3384 19.0215 9.85728
37.4892 19.4064 10.1494
37.1866 19.3894 10.2655
39.0966 20.3144 10.6593
38.1911 19.9853 10.6033
37.9519 20.0671 10.7814
35.9041 19.1381 10.3217
36.8758 19.627 10.5875
37.0378 20.0873 10.9855
36.5391 19.7581 10.8721
35.0885 18.9053 10.3972
36.5691 19.7691 10.8481
35.6301 19.5253 10.8447
35.2463 19.3233 10.6756
34.691 19.5922 11.1383
35.7712 19.7589 11.0986
35.2534 19.7731 11.2263
34.5203 19.6163 11.1899
34.7861 19.6484 11.284
34.8178 19.6162 11.2203
33.4615 19.4267 11.3988
33.455 19.1785 11.2358
33.2455 19.1915 11.2648
34.5131 20.104 11.8417
33.4922 19.4304 11.4628
33.6493 19.8679 11.7934
33.0803 19.6264 11.7968
33.0042 19.5372 11.7091
33.4728 19.9807 12.0562
32.4877 19.5455 11.8919
32.6824 19.6341 11.9547
31.8758 19.3945 11.9348
32.1181 19.5843 12.1108
32.8454 20.1634 12.453
31.4763 19.6366 12.3996
31.2738 19.3043 12.0321
32.1279 20.2793 12.8975
31.8655 19.9826 12.722
31.7026 19.8201 12.5868
31.7054 20.1065 12.8478
30.3153 19.3403 12.5102
30.5668 19.2881 12.3338
30.969 20.0407 13.0806
32.2166 20.9367 13.6443
29.9201 19.6109 13.0065
29.8872 19.6231 13.4376
39.9419 25.9294 16.5543
29.5206 19.2899 12.9211
30.7994 20.2992 13.5243
29.8177 19.8117 13.3455
30.5139 20.3867 13.6955
29.3149 19.6329 13.3581
29.3562 19.77 13.4621
29.5824 20.0519 13.7544
29.738 20.3381 13.9432
29.3803 20.1531 13.9433
29.7287 20.504 14.299
29.8004 20.6226 14.4877
29.3571 20.286 14.2089
28.4298 19.8092 13.9732
28.1335 19.792 14.1227
27.8384 19.5119 13.8825
28.6488 20.1547 14.3673
27.8935 19.7334 14.1592
28.6488 20.5414 14.7954
27.4607 19.6152 14.1871
28.0377 20.2418 14.7531
28.1342 20.4643 15.0092
27.4781 19.8385 14.5759
27.0249 19.8138 14.7792
27.7048 20.2821 14.9778
27.1147 19.9669 14.8512
27.0115 19.8379 14.696
27.0334 20.3191 15.2983
26.3433 19.7657 15.0433
26.5867 20.1436 15.4503
26.3538 19.8144 15.1287
26.3785 19.9502 15.2525
25.1743 19.2133 14.9569
26.3448 19.9384 15.3752
25.403 19.1327 14.8238
26.0028 19.9514 15.4293
25.8675 20.1165 15.8869
26.272 20.1655 15.6363
24.9839 19.6783 15.7314
25.0105 19.3836 15.2302
25.2139 19.8991 15.8098
25.2689 20.1229 16.2487
25.1995 19.8022 15.781
24.9109 19.9497 16.009
25.1891 20.3768 16.6275
25.434 20.4067 16.596
25.3534 20.425 16.599
24.5893 19.9299 16.3241
25.0641 20.5738 16.9701
23.6559 19.3251 16.0094
24.0853 19.7569 16.35
24.0469 20.0533 16.8795
24.3401 20.0741 16.8341
24.0137 19.8657 16.6172
23.8184 19.9646 16.8899
23.3624 19.7969 16.8731
23.716 19.9846 17.0406
23.1957 19.6023 16.7324
22.5594 19.339 16.709
23.5797 20.2762 17.6146
23.2448 19.7984 17.0859
22.9647 19.7473 17.0373
22.6653 19.9485 17.7035
23.1819 20.0449 17.5673
23.1193 20.2147 17.8226
23.098 20.1716 17.7995
23.0226 20.2717 18.0153
22.5557 19.9589 17.7901
22.6007 20.1355 18.0493
21.9077 19.7678 18.0119
21.8057 19.403 17.6094
22.7733 20.2982 18.3925
22.4945 19.9417 17.907
22.0114 20.2946 18.7361
22.234 20.3042 18.68
21.5967 19.5898 18.153
21.9367 19.9627 18.4109
21.5808 19.8929 18.4657
21.2746 19.5288 18.2046
20.8848 19.3002 18.222
22.0763 20.5459 19.1418
20.877 19.3675 18.1449
20.9153 19.6981 18.7261
20.8312 19.6816 18.8
20.8224 19.8022 19.2198
21.1616 19.7899 18.7494
20.9304 20.0508 19.2004
20.6159 19.8229 19.155
20.1236 19.3549 18.9284
20.3969 19.5306 18.9389
20.1019 19.5652 19.2071
20.1828 19.5978 19.2312
19.8081 19.369 19.2088
19.6129 19.1948 19.1725
20.5255 20.3037 20.127
19.3357 19.4196 20.2828
25.3961 24.64 23.473
19.7651 19.5373 19.6376
19.347 19.4922 19.9023
19.5843 19.6228 20.0881
19.752 19.9695 20.4792
19.816 19.6349 19.8077
19.5798 19.6685 20.0033
19.4679 19.748 20.2463
19.4482 19.6811 20.1682
18.9916 19.5948 20.4809
18.8808 19.1662 19.8482
19.4595 20.1353 20.99
19.6302 20.4634 21.3737
18.8354 19.4559 20.5117
19.1844 19.8744 20.7218
18.5358 19.5633 20.9528
19.2774 20.1283 21.1029
17.8465 18.9095 20.5
18.8431 19.6358 20.7877
18.3745 19.5862 21.0131
18.2168 19.4001 20.971
18.4052 19.7324 21.3754
18.8374 20.4452 22.275
18.3368 19.6974 21.5656
18.0006 19.0797 20.6792
17.9737 19.347 21.0638
17.8925 19.3565 21.1967
17.9265 19.6317 21.6282
17.9295 19.8008 21.9698
17.7058 19.5937 21.8422
17.1777 18.9625 21.3544
18.0075 19.9041 22.1669
17.5 19.3757 21.6171
16.9125 18.9229 21.4746
17.303 19.2871 21.7971
17.1422 19.4565 22.3656
17.2695 19.3486 22.0261
16.708 18.6231 21.2776
17.0776 19.4044 22.0679
16.3211 18.489 21.3631
17.3563 20.0611 23.2045
16.9805 19.4292 22.5353
16.66 19.0941 22.1183
16.8791 19.6153 22.935
16.585 19.1659 22.386
16.2761 18.9884 22.5263
16.4999 18.9995 22.2817
16.1404 18.8561 22.3481
16.0973 18.8261 22.3169
15.9821 18.7885 22.349
15.7574 18.6939 22.6325
16.4926 19.669 23.665
16.3704 19.1353 22.6886
16.3042 19.6003 23.6096
16.06 19.3848 23.6246
16.0633 19.2324 23.4198
16.0246 19.3695 23.6453
15.7412 19.0648 23.4456
15.9039 19.1304 23.5339
15.979 19.2898 23.5335
15.6678 19.1163 23.3607
15.2466 18.8235 23.5019
15.4822 19.0094 23.7187
15.6831 19.247 23.7566
15.2032 18.8309 23.6033
15.7978 19.8812 25.0467
15.1531 18.5902 23.2957
15.26 19.3389 24.6776
15.1683 18.748 23.5155
15.0262 18.7367 23.7478
15.1827 19.2182 24.2581
14.8695 19.0228 24.6234
14.8614 18.827 24.4583
14.9267 19.0792 24.6921
15.0461 19.1281 24.8326
14.8489 18.8911 24.5081
14.7518 18.905 24.5675
14.772 18.9632 24.72
14.6499 18.7906 24.293
14.6711 19.0801 24.859
14.4565 18.9225 25.0733
14.4616 18.8437 24.9088
14.4224 18.9768 25.1777
13.6385 17.863 24.1975
14.1639 18.5867 24.8435
14.312 18.5292 24.2987
14.1455 18.8979 25.4226
14.0904 18.6094 25.0639
13.9257 18.4067 24.7425
14.3959 19.4156 25.9643
13.9162 18.7227 25.589
14.3091 19.1643 25.835
13.5863 18.2911 24.9237
13.8687 18.9573 26.1768
14.0285 19.3114 26.8696
14.0608 19.327 28.3125
18.4024 24.3996 31.261
14.4075 19.8164 27.1156
13.3762 18.5302 25.8833
13.4599 18.9401 26.7404
13.3402 18.4907 26.3301
13.8844 19.2133 26.701
13.1207 18.1167 25.6379
13.5725 19.1623 27.0459
13.0588 18.3759 26.4829
13.3693 18.6003 26.1198
12.5358 17.6108 25.4535
13.2609 18.6762 26.7059
13.2047 18.4855 26.2504
12.844 17.9471 25.3941
12.4538 17.7776 25.5026
12.3671 17.8594 26.2381
12.965 18.473 26.6469
12.8927 18.5091 26.9269
13.091 18.7062 26.837
12.5978 18.2586 26.7233
12.5078 18.2098 26.766
12.6865 18.3241 26.8636
12.4295 18.0468 26.5822
12.5559 18.669 27.9588
12.5721 18.1541 26.6804
12.3601 18.1905 26.9262
12.3538 18.0657 26.7958
12.207 18.1083 27.0231
12.1071 18.144 27.4017
12.0392 17.8657 26.9935
12.1721 18.1284 27.3858
12.2502 18.3044 27.6525
12.1558 18.2908 27.808
12.015 17.8556 27.0899
11.8745 17.9706 27.4511
11.8538 17.8026 27.3396
11.9584 18.0369 27.5972
11.5925 17.2883 26.4627
11.5841 17.6024 26.9123
11.4993 17.866 28.1678
11.9532 18.0699 27.873
11.8686 17.9765 27.4504
11.5815 18.1187 28.4786
11.5532 17.6693 27.3096
11.4745 18.1202 28.5358
11.2825 17.5457 27.8434
11.2867 17.4954 27.5569
11.4321 17.9254 28.3522
11.1839 17.4584 27.6276
10.998 17.2199 27.6967
11.3038 17.5495 27.7864
11.5317 18.2193 28.7055
11.3535 18.0384 28.878
11.0043 17.3603 27.7274
10.9605 17.4211 27.7424
10.7744 17.5519 28.6346
10.8409 17.2079 27.7816
10.6175 17.1433 28.0891
10.6611 17.1381 27.9821
10.9109 17.6084 28.8735
10.8415 17.385 28.6932
10.9101 17.651 29.1062
10.8121 17.3921 28.6165
10.8324 17.524 28.9988
10.8563 17.5436 28.9182
10.9483 17.7745 28.9281
10.5306 17.4353 28.9794
10.622 17.4629 29.1769
10.3038 16.9422 28.5967
10.6129 17.3278 28.8117
10.4174 17.2895 28.9235
10.2938 17.1441 28.8701
10.1152 16.7954 28.4125
10.5093 17.5858 29.2882
10.0919 17.0537 28.9443
10.0897 17.0314 29.3244
10.1946 17.0279 28.9887
9.88231 16.6972 28.751
10.226 17.3067 29.5239
9.96534 16.6393 28.4984
10.067 17.2112 29.5418
9.80943 16.7978 29.1812
10.1739 18.0143 32.2272
10.3059 16.9828 29.2252
10.0027 16.8877 28.995
9.75146 16.7556 29.0876
9.70521 16.6096 28.8991
9.75095 16.9823 29.706
9.66809 16.9328 29.9767
9.60298 16.4866 29.084
9.69212 16.6006 29.1295
9.88126 17.4002 30.4259
9.45196 16.7071 29.935
9.65802 16.9886 30.4024
9.68747 16.9464 30.2186
9.40431 17.3049 34.3379
13.0646 22.0939 35.7125
9.7228 17.1447 30.491
9.24611 16.6928 30.3713
9.39658 16.7149 30.3589
9.35974 16.6157 30.0261
9.06149 15.7823 28.311
9.04631 16.5525 30.5033
9.17679 16.2856 29.2399
9.01067 16.4233 30.1501
9.11759 16.5169 30.2885
9.08059 16.2974 29.8569
9.03724 16.3108 29.8111
8.96661 16.2615 29.6442
8.81143 16.0611 29.5645
8.77364 16.3381 30.7581
8.95075 16.218 29.7901
8.61795 15.9894 29.9158
8.67188 16.204 30.8683
9.17341 16.8211 31.4435
8.87177 16.2444 30.5325
8.74643 15.9558 29.6852
8.59265 16.1233 30.6438
8.7549 16.1519 30.4268
8.77003 16.3767 31.1785
8.73999 16.0299 30.0366
8.55873 16.203 30.66
8.61984 16.181 30.7603
8.52264 16.1777 31.2905
8.82203 16.4245 30.5615
8.2969 15.8339 31.073
8.71386 16.3322 31.1434
8.48438 16.1469 31.2266
8.54817 16.0406 30.284
8.15529 15.7324 30.603
8.25183 15.6927 30.3529
8.24783 15.9261 30.8633
8.31721 16.0032 31.0064
8.12401 15.9565 31.9123
8.50483 16.3229 31.9055
8.29564 15.6546 30.4566
8.17747 16.0455 31.3526
7.93357 15.299 30.5317
8.16892 15.8088 31.2327
8.29199 16.0905 31.6125
8.25467 15.9982 31.2068
7.90052 15.5148 30.6629
7.6225 14.838 29.9603
7.82167 15.3977 31.344
8.40314 16.4603 32.0646
7.92382 15.805 31.5763
7.72428 15.1802 30.7926
7.93428 15.7333 31.5471
7.92744 15.8313 32.177
8.06261 15.9217 31.8277
7.90331 15.8955 32.0393
7.72447 15.3991 31.246
7.70104 15.4062 31.2763
7.63175 15.5555 32.1005
7.92465 16.0459 32.9343
7.88996 15.742 31.8595
7.57211 15.3352 31.4622
7.53017 15.474 32.3082
7.66761 15.3046 31.1404
7.58872 15.6468 32.4922
7.67413 15.5725 31.7841
7.42819 15.1706 31.6223
7.56993 15.5739 32.1654
7.36111 14.9637 31.2581
7.41076 15.3179 32.158
7.42798 15.156 31.4302
7.30151 15.1685 31.9312
7.46608 15.5992 32.7287
7.41036 15.4608 32.7733
7.43108 15.2292 31.4883
7.07231 14.9253 31.9357
7.15021 14.8558 31.5685
7.16452 14.9938 31.6917
7.07491 14.7823 31.5095
7.12341 15.1621 32.5471
7.07745 14.8638 32.0029
7.1079 14.9549 32.0145
7.27107 15.3531 32.7115
7.06541 15.0349 32.2718
7.01376 14.8358 32.3345
7.17699 14.9877 31.8823
6.97302 14.8215 31.803
7.0144 15.1187 32.4865
7.0026 15.0747 32.5039
6.7445 14.6518 32.6718
7.04277 15.056 32.9291
6.97209 14.9038 32.6765
7.05381 15.0247 32.2979
6.82562 14.9856 33.2292
6.94679 14.9392 32.7222
7.04155 15.4017 33.505
6.74015 15.4593 38.9994
9.30744 18.9918 36.8066
6.93763 15.3122 33.5158
6.77061 14.9148 33.0441
6.55926 14.3938 32.4461
6.66658 14.4207 31.9394
6.64026 14.754 32.9421
6.72945 14.6839 32.7975
6.65397 14.4766 31.7168
6.45429 14.5348 32.8362
6.56248 14.6588 32.8296
6.51903 14.6374 33.4983
6.7347 14.9287 33.2315
6.3384 13.9579 31.7465
6.32801 14.1188 32.1936
6.54377 14.7821 33.4352
6.56551 14.9385 34.4707
6.73137 14.725 33.043
6.40709 14.4212 32.472
6.05919 13.6726 32.2376
6.43087 14.1969 31.4816
6.12968 14.0971 32.4547
6.24282 14.3592 32.9528
6.18011 14.1661 32.7083
6.12967 14.1246 33.2024
6.33607 14.4202 33.4144
6.2422 14.2135 32.9693
6.23705 14.2516 33.0786
6.20945 14.2978 33.2376
6.22598 14.3414 33.6868
6.12417 13.8391 32.6292
6.22435 14.2439 33.1467
6.29903 14.7517 34.8933
6.23804 13.9255 32.0982
6.09479 14.317 33.8676
6.09648 14.0432 33.2197
6.10253 14.082 32.7581
5.8895 13.9234 33.5415
6.18676 14.3665 33.704
6.04574 14.0978 33.3604
5.96225 13.6954 32.5182
5.9735 14.053 33.389
5.95433 14.1494 33.99
5.98108 14.0077 33.5657
5.91358 13.9948 34.1883
6.03751 13.9473 33.4188
6.01044 14.1238 33.2537
5.75479 13.4396 32.0884
5.7324 13.9108 33.6023
5.77011 13.8137 33.8669
5.96069 13.8739 32.0649
5.45378 13.2476 32.704
5.73109 13.8339 33.4964
5.71418 13.6429 33.223
5.65631 13.6044 33.3588
5.65882 13.4092 32.8547
5.64155 13.7176 33.9878
5.84667 14.1354 34.3079
5.73006 13.7546 33.5388
5.57132 13.5001 33.0361
