# pn-170911/RbIIR-47-USN3-1280-1959.psd
# Power spectrum* (dif=0,1,2) (really just |FT|^2)
# NOTE: only the first half! (symmetric)
# weeks: 1280-1959
# 3521 clock-days, 80 excluded
# PSD: 1441
1056.45 0.137773 0.025012
77075.2 1.95073 0.0168181
161937 2.74542 0.0176496
47556 1.3759 0.0179511
53712.2 3.60073 0.0176107
12243.6 0.904181 0.0179626
9461.16 0.949202 0.0171544
6081.12 0.734392 0.0164253
5398.67 1.00499 0.0176528
3450.08 0.702218 0.0177785
3012.25 0.749097 0.0175232
2430.22 0.788743 0.0170876
2168.21 0.869197 0.0184572
1873.03 0.877073 0.0171851
1714.8 0.951441 0.0180328
1600.73 1.06078 0.0188237
1506.47 1.19925 0.0197321
1395.66 1.27944 0.0189963
1347.72 1.44006 0.0198946
1294.42 1.56728 0.020504
1244.15 1.77219 0.0208547
1170.87 1.85639 0.0215063
1211.26 2.14621 0.0228809
1198.01 2.35329 0.0223272
1185.5 2.65906 0.0235432
1152.57 2.78852 0.0257476
1194.63 3.18579 0.0275746
1171.61 3.44059 0.0295447
1221.54 3.91796 0.0317155
1123.56 3.97335 0.032902
1155.21 4.33019 0.0365051
1240.09 5.07478 0.0418683
1169.07 5.14421 0.0419041
1169.73 5.41037 0.0460663
1207.24 5.99782 0.0501238
1178.61 6.15569 0.054992
1157.03 6.57544 0.0584707
1232.99 7.45569 0.0658025
1217.34 7.72489 0.0701089
1190.15 7.99993 0.0750792
1228.24 8.67946 0.0817146
1200.71 9.00415 0.0895253
1169.9 9.28704 0.0948783
1234.84 10.2942 0.105594
1248.98 10.9508 0.116159
1218.68 11.0613 0.121702
1138.19 10.923 0.125729
1161.81 11.5427 0.137261
1232.96 12.7681 0.158039
1218.55 13.2734 0.166315
1128.06 12.7437 0.168231
1157.16 13.7112 0.18544
1125.64 13.8804 0.199634
1168.31 14.9165 0.211886
1168.73 15.4498 0.230438
1085.49 15.0793 0.230854
1131.76 16.1108 0.256018
1088.29 16.0406 0.269976
1094.36 16.9764 0.289162
1053.2 16.7672 0.296126
1043.61 17.1114 0.307708
1038.89 17.7858 0.327932
1067.32 18.8886 0.358334
1000.1 18.2652 0.3632
1009.15 19.0827 0.388738
1027.82 19.8654 0.415585
980.199 19.6359 0.426749
957.62 19.6977 0.435697
896.477 19.0997 0.438489
921.231 20.0477 0.464318
901.253 20.2068 0.487702
883.265 20.5042 0.50688
917.709 22.0579 0.553402
877.823 21.3273 0.550205
868.072 21.7982 0.584978
791.185 20.5126 0.5637
828.701 21.9499 0.620119
799.342 21.781 0.622384
809.27 22.6702 0.67517
771.644 22.2202 0.671998
757.191 22.4365 0.704556
749.332 22.4744 0.712714
729.737 22.5542 0.730741
717.526 22.6971 0.758292
704.189 23.088 0.787586
725.839 24.0891 0.849753
685.153 23.2946 0.831551
674.668 23.5132 0.862726
673.077 23.9133 0.898695
637.236 23.1343 0.890312
639.568 23.8713 0.922678
643.419 24.5366 0.98659
604.179 23.5037 0.957902
587.082 23.3002 0.966718
577.2 23.4938 1.00214
590.797 24.6047 1.06519
667.256 28.4406 1.26183
590.366 25.5396 1.15085
542.355 24.1344 1.10909
547.749 24.5608 1.15891
537.623 24.7947 1.18477
528.956 24.7327 1.21773
533.888 25.647 1.2923
484.771 23.6784 1.202
501.868 24.7661 1.27858
503.645 25.6152 1.35696
468.803 24.2568 1.3025
454.575 23.8446 1.32069
454.277 24.5923 1.37017
451.554 24.4985 1.39912
450.446 25.1278 1.45748
429.617 24.1589 1.42369
414.476 23.919 1.44799
424.709 24.9833 1.53083
407.177 24.3199 1.52366
397.521 24.1784 1.53529
400.075 24.8331 1.58988
359.712 22.552 1.47328
372.974 23.9917 1.59053
387.993 25.402 1.71651
378.594 24.9445 1.71354
355.841 23.7936 1.65154
350.375 24.1044 1.70779
360.73 25.2606 1.83565
346.458 24.3348 1.77413
343.066 24.5899 1.82002
323.626 23.4851 1.78386
317.644 23.3537 1.79371
319.458 23.811 1.85243
308.064 23.5721 1.88624
298.044 23.0987 1.84512
308.429 24.3777 1.99526
291.992 23.1107 1.92263
293.582 23.8652 2.01128
279.087 22.7764 1.9417
289.698 24.3036 2.10192
283.599 24.1264 2.11602
272.962 23.677 2.11462
272.09 23.6019 2.13224
260.999 22.8887 2.09354
265.914 23.9226 2.22147
257.939 23.7517 2.25914
247.927 22.5244 2.14304
253.356 23.699 2.30543
243.073 22.8429 2.24118
244.968 23.3355 2.32708
241.051 23.3772 2.36869
230.822 22.8115 2.33432
223.22 22.2393 2.30174
233.832 23.7392 2.49915
226.63 23.2748 2.49328
215.879 22.5855 2.44927
211.558 22.2681 2.44714
216.31 23.0293 2.55378
208.893 22.5318 2.54263
211.203 23.0433 2.6136
211.672 23.6143 2.73313
204.805 22.7855 2.64442
200.315 23.0051 2.72496
200.123 23.0362 2.75965
189.724 22.1646 2.68542
190.413 22.4395 2.75558
188.83 22.4022 2.77966
190.006 23.1518 2.92072
187.655 23.0414 2.92469
182.262 22.7177 2.94157
176.694 22.1757 2.885
181.773 23.1634 3.05038
172.857 22.1221 2.95998
175.492 22.5796 3.02349
168.518 22.1865 3.04737
168.786 22.5669 3.11492
171.3 23.0362 3.21579
162.137 21.9882 3.10921
152.79 21.1089 3.04142
161.878 22.4744 3.2386
160.264 22.5173 3.28077
156.868 22.4014 3.31157
154.666 22.2161 3.32357
150.878 21.9605 3.31256
148.743 21.6516 3.29912
150.36 22.2982 3.44283
144.887 21.981 3.43714
147.999 22.9086 3.65261
149.44 22.745 3.59185
142.775 22.3888 3.61775
141.688 22.0679 3.55466
140.364 22.2926 3.68309
138.384 22.0864 3.67615
135.915 22.1403 3.7222
130.193 21.473 3.67247
128.505 21.3252 3.68503
170.758 28.559 4.925
133.501 22.3162 3.89802
126.441 21.5722 3.83381
130.091 22.3262 4.02021
126.661 21.8093 3.94727
124.877 21.8319 3.97288
123.078 22.15 4.08667
122.515 21.7167 4.02497
122.68 22.2458 4.17388
118.493 21.7547 4.14324
121.088 22.2605 4.25159
116.659 21.7351 4.20514
117.944 22.2397 4.3581
117.423 22.36 4.42464
117.853 22.6282 4.48155
112.435 21.7534 4.38753
111.976 22.0601 4.48758
114.021 22.5423 4.63601
110.346 21.7315 4.47486
108.846 21.6624 4.53484
110.658 22.5199 4.77188
109.2 22.194 4.68051
107.984 22.3289 4.80329
107.258 22.6505 4.92805
105.844 22.3615 4.91005
104.622 22.0988 4.883
107.286 22.7378 5.01885
101.256 21.9091 4.94089
100.536 21.7513 4.93642
98.9738 21.9729 5.03134
96.7062 21.501 4.99545
98.0709 21.9697 5.09183
97.94 22.0969 5.1441
96.2526 21.7852 5.15032
97.3443 22.4483 5.39772
94.5442 22.0166 5.31701
94.5298 22.2481 5.41353
98.8179 23.0018 5.5638
94.9361 22.7998 5.643
93.7249 22.5066 5.63299
93.5911 22.508 5.64568
93.7459 23.0344 5.91571
93.2962 22.8206 5.80046
91.7128 22.5971 5.79672
86.6559 21.8236 5.66676
87.2995 22.053 5.80378
88.2405 22.5321 5.93669
88.017 23.0051 6.22461
88.9933 22.9519 6.11144
86.0129 22.3362 6.04094
82.482 21.8149 5.99615
87.3871 22.8445 6.22251
84.2812 22.8672 6.38091
84.242 22.7705 6.34837
83.5308 22.7086 6.37854
80.768 22.2713 6.37753
84.1749 23.1495 6.59898
79.1702 21.7188 6.25929
78.1975 21.9073 6.37529
79.387 22.4079 6.56882
77.2609 22.0945 6.52714
77.1973 22.264 6.64633
80.9493 23.4606 6.96289
79.1586 23.2464 7.07624
77.1003 22.3971 6.80827
75.3595 22.2573 6.80076
75.4904 22.6125 6.96689
75.5126 22.8938 7.19633
77.504 23.4848 7.4225
74.8567 22.4635 7.01699
72.9693 22.2759 7.1135
75.822 23.6112 7.57516
75.4401 23.5499 7.61575
73.4329 23.259 7.56432
70.4786 22.3031 7.33772
72.6821 23.4009 7.81711
73.9496 23.4082 7.76229
70.2587 22.6701 7.63342
72.8338 23.6408 7.94238
69.4578 22.7395 7.69079
68.9024 23.0681 7.96671
69.804 23.0632 7.93741
68.6295 22.6042 7.77731
68.6739 23.2825 8.1393
66.1612 22.5961 7.98354
68.9832 23.7058 8.39047
67.332 23.0164 8.19659
66.1855 22.913 8.25832
66.144 23.4284 8.4596
66.6353 23.6576 8.65474
66.9393 23.7152 8.68144
64.8398 23.2267 8.61614
63.4832 22.7419 8.44861
61.0985 22.1094 8.27748
61.9041 22.508 8.51276
63.6812 23.7205 9.27016
86.1132 31.5499 11.7284
63.6648 23.3775 9.00578
62.0786 23.0804 8.92192
61.5794 23.1834 9.06037
60.8936 22.897 9.00355
61.2358 23.743 9.42864
60.7955 23.1326 9.14425
59.8409 23.2593 9.3706
60.2887 23.4803 9.42504
59.0186 23.1667 9.43411
58.7755 22.7932 9.23718
59.2082 23.6384 9.75781
56.9538 22.8841 9.48348
56.7957 22.911 9.55838
57.1334 22.9727 9.56178
57.0173 23.3774 9.94697
58.1435 23.7537 10.1071
56.1191 23.141 9.92487
56.6014 23.4401 10.0921
54.6519 22.7635 9.86671
55.2778 23.3806 10.2268
54.846 22.9736 10.0814
54.4786 23.385 10.3078
56.0956 23.6273 10.4272
53.9529 23.336 10.4259
53.4497 23.2021 10.4816
54.9427 23.4872 10.5018
55.0453 24.3409 11.1813
52.9335 22.9666 10.4912
53.6151 23.7976 10.8847
52.6287 23.7598 11.1176
53.2845 23.8288 11.0124
52.0632 23.6286 11.06
52.0652 23.6785 11.1161
51.9979 24.1545 11.5215
50.3372 23.173 11.0441
51.2191 23.6761 11.3407
50.3264 23.2429 11.2912
51.7824 23.9105 11.461
50.681 24.1358 11.8421
51.3073 24.5065 12.0654
49.5031 23.4695 11.5394
49.851 24.0058 11.9596
49.5132 23.9752 12.0559
49.5144 23.8994 11.915
48.9796 23.9875 12.1318
48.0004 23.6889 12.1442
47.9469 23.8114 12.2511
48.8886 24.1207 12.3542
48.4791 24.1844 12.4491
46.1266 23.1796 12.0747
48.211 24.1164 12.4951
46.0497 23.4704 12.2679
45.7683 23.6899 12.7494
47.5953 24.5169 12.9838
46.531 23.8895 12.7228
47.0636 24.5752 13.1652
45.8469 24.2291 13.147
44.6129 23.5 12.8207
46.0619 24.363 13.2385
43.6927 23.335 12.9996
44.3311 23.4499 12.9901
43.6535 23.1476 12.7771
44.0554 23.5194 13.0681
42.6694 23.1749 13.0895
45.029 24.4267 13.7875
44.4955 24.4656 13.8233
42.81 23.5133 13.3412
42.0318 23.675 13.6734
42.4561 23.809 13.8261
42.6271 23.8712 13.8284
41.9505 24.2929 14.3824
41.8295 23.5617 13.9361
41.6521 23.3679 13.7053
42.6677 24.3617 14.3872
42.6455 24.1831 14.3044
40.7806 23.8101 14.3206
41.6523 24.2755 14.6354
41.9058 24.547 14.8186
40.3827 23.616 14.3842
41.2553 24.2929 14.7573
41.0434 24.4137 15.064
39.7265 23.6708 14.5384
38.4116 23.4873 14.8273
39.7841 23.7412 14.7258
39.7018 24.2629 15.1771
39.6476 24.0686 15.2209
39.2569 24.009 15.1341
39.1226 24.0457 15.2063
39.4914 24.5893 15.7623
37.7451 23.2236 14.9277
38.8412 24.2034 15.548
38.1454 24.1355 15.7689
38.5888 24.1602 15.7358
37.2935 24.2788 16.3538
39.4891 24.9626 16.7819
53.0381 33.8097 21.3918
35.7769 23.1624 15.6772
38.5456 24.6652 16.4188
37.2395 24.0739 16.2073
37.5331 24.4754 16.5133
36.9068 24.2983 16.4975
36.7219 23.9616 16.2351
36.3742 24.3103 16.735
36.3155 23.9667 16.3915
34.6418 23.368 16.247
35.4314 23.8108 16.5626
36.0043 24.3497 16.904
35.0879 24.1563 17.112
34.9275 23.9778 17.0581
35.0089 23.799 16.8821
34.9134 24.1726 17.2248
35.5829 24.2741 17.1311
34.8032 24.4333 17.5678
35.0841 24.3118 17.5648
34.0584 23.7853 17.2204
33.9231 24.0922 17.7085
34.127 23.8889 17.3402
33.1788 23.8774 17.8247
34.6499 24.4896 17.9919
34.1785 24.4089 18.0115
32.9769 24.0947 17.9583
33.1418 24.1112 18.2359
33.0212 23.537 17.67
33.7102 24.8407 18.6466
33.1952 24.3814 18.5599
33.0928 24.1551 18.3506
31.8494 23.7709 18.2666
32.5247 24.146 18.4919
32.143 23.9992 18.4819
31.1098 23.3794 18.1484
30.4374 22.8838 17.9623
32.2316 24.2458 18.9212
30.9032 23.8346 18.9743
31.2819 23.5587 18.4936
31.2956 23.8568 18.8437
31.34 24.4152 19.4805
31.2676 24.0302 19.3288
31.3769 24.2323 19.5402
31.6856 24.4803 19.5289
29.9306 23.3411 18.8887
30.3747 24.1384 19.6844
31.0087 24.4046 19.9064
30.2156 23.9709 19.6837
30.3015 24.2541 20.0099
30.3288 24.5278 20.4297
30.8116 24.6007 20.3073
29.1164 23.3418 19.3656
29.4861 24.1463 20.3812
28.7637 23.6625 19.9827
28.7775 23.5457 19.9469
29.8932 24.6504 20.8687
29.9358 24.6876 20.9804
28.7092 23.6778 20.3342
28.6842 24.0629 20.9748
29.7065 24.3991 20.8595
28.2075 23.9809 20.8109
28.6207 24.1728 21.0274
27.741 24.0518 21.5802
28.9766 24.2633 21.199
27.8286 23.6072 20.8537
28.6936 24.643 21.9073
28.6426 24.6127 21.9112
28.3689 24.3768 21.7032
28.7055 24.9811 22.3996
28.4755 24.3096 21.7332
27.5763 23.9845 21.561
26.583 23.5942 21.6936
27.2615 23.7893 21.6905
28.0678 24.3788 21.9549
26.8943 24.1818 22.451
28.0504 24.9497 22.6667
27.3848 24.6729 22.7536
26.7605 24.2952 22.7506
27.464 24.7989 23.0949
26.9113 24.3662 22.8138
26.3057 23.753 22.3862
26.8856 24.4722 22.9719
26.1761 23.9503 22.5393
25.423 23.4383 22.511
25.9937 23.9156 22.7054
26.1889 24.4306 23.5965
25.98 24.249 23.2481
25.4613 24.0065 23.3351
24.5205 23.1288 22.6144
25.9534 24.2923 23.6002
25.3717 23.7849 23.1157
25.2476 24.2892 24.0928
25.5443 24.2536 23.9656
25.4343 24.3685 24.1109
25.2452 24.48 24.6335
24.4186 23.8347 25.2661
35.231 33.1362 30.7702
24.0687 23.445 23.7916
25.4995 24.9187 25.1133
24.4356 23.9028 24.4324
24.139 23.6025 23.8926
24.3521 24.0706 24.6132
24.0129 23.6207 24.155
23.6469 23.5499 24.1101
23.2997 23.1753 24.1252
24.1713 23.9534 24.6382
23.8728 23.8017 24.4383
23.5785 23.8909 24.9316
23.3231 23.7032 24.8871
23.7752 24.3704 25.7552
23.5619 23.9241 24.9849
23.6412 24.2971 25.5343
23.2071 24.0296 25.7833
23.1127 23.6882 25.4011
23.2607 23.8229 25.4643
22.9626 23.4275 24.8539
22.8695 23.7849 25.7743
23.3373 24.1953 26.0038
22.8616 24.3658 26.8396
23.3339 24.3259 26.1605
22.6551 23.9463 26.1491
22.2784 23.6116 25.8102
22.1112 23.5469 25.9143
22.1976 23.5191 26.1777
22.3536 23.8133 26.1698
21.6724 23.1407 25.3899
21.9024 23.7663 26.6758
21.737 23.6699 26.6948
22.2684 24.2161 27.2611
22.3606 24.0646 26.7965
21.4622 23.7876 27.1888
22.0298 23.9877 27.2092
21.3469 23.5343 26.8607
21.6383 23.9474 27.5059
21.5304 23.5148 26.6872
20.4542 22.6569 26.367
21.3806 23.5416 26.7909
20.6029 23.1209 27.044
21.3666 24.2002 28.1719
21.6387 24.1242 27.7226
21.0009 23.9521 28.2613
20.321 23.2851 27.5424
21.0754 24.0626 28.6969
21.0666 23.7158 27.9241
20.7951 23.4863 27.5215
20.1747 23.3351 27.7678
20.501 24.0466 28.9411
20.9123 24.3006 29.2755
20.3718 23.5617 28.4289
20.7467 24.1189 29.1027
20.0708 23.5101 28.6681
20.1965 23.5912 28.8496
20.4868 23.9075 28.9401
19.9218 23.6096 28.8807
19.7322 23.1564 28.3945
20.0576 23.9427 29.2887
20.2472 24.3484 30.1803
19.4649 23.1799 28.8675
19.726 23.5107 28.9204
19.6882 23.8119 29.4744
19.3254 23.6812 29.7683
19.515 23.7354 29.9824
19.511 23.7596 29.6519
18.8294 22.8539 28.8965
18.4354 22.73 29.215
18.8585 23.1643 29.5977
19.1405 23.2707 29.3908
19.3306 24.1002 30.8222
18.5897 23.1688 29.9829
18.9935 23.2026 29.7266
19.1195 23.8022 30.7182
18.8278 23.8132 31.0456
18.8937 23.7028 30.8062
19.0406 24.0647 31.1393
18.7343 23.9918 31.5523
18.228 22.8632 30.1802
18.2839 22.7342 29.6874
18.3457 23.6467 31.231
18.1836 23.1829 30.4497
17.4322 22.3536 29.7926
17.5635 23.0804 31.193
18.3795 23.8797 32.2075
17.2928 21.8272 29.3511
18.0391 23.4892 31.4666
17.8083 23.3301 31.3744
17.9487 23.4447 31.1769
17.1923 22.9097 31.6723
17.7399 23.0138 31.4075
17.4542 23.1592 31.9862
17.5724 22.9364 31.4715
17.7298 23.5744 32.6224
17.6627 24.257 35.859
23.237 30.2701 38.4378
17.5608 23.5267 32.7766
17.4949 23.3678 32.383
17.411 23.6506 33.0134
17.0412 22.9568 31.9991
16.9835 23.2549 32.9813
17.4444 23.498 32.6459
16.5713 22.5505 31.9666
16.6237 22.8004 32.6066
17.085 23.1534 32.4498
16.3789 22.6693 32.3503
16.7037 22.9775 32.7799
16.3847 22.4927 32.0967
15.9492 22.2933 32.6274
16.7374 22.9426 32.5874
16.5063 23.244 33.4499
16.0619 22.6974 33.3537
16.5702 23.309 34.0039
16.0889 22.4735 32.9308
15.9431 22.4224 33.0514
16.2078 22.7778 33.3973
16.3939 23.1656 34.014
16.2059 22.6828 32.8541
15.3209 21.7655 32.1502
15.4865 21.936 32.4161
15.309 22.1197 32.823
15.3936 22.1017 32.9709
15.4434 22.1406 33.0895
16.0218 23.3601 34.6299
15.0203 22.0522 33.7668
15.3287 22.3225 33.8611
15.5537 22.7488 34.5025
15.3981 22.4077 34.1139
15.405 22.605 34.61
15.8341 23.203 35.2828
15.435 22.647 34.0666
14.6926 21.9483 34.2912
14.8512 21.7837 33.6511
14.9978 22.1669 33.8293
14.9968 22.2249 34.4234
14.7796 21.9021 33.6276
14.5457 21.6981 34.075
15.0817 22.3218 34.2378
14.673 22.2487 34.5749
14.3667 21.9111 34.6424
14.9691 22.6832 35.6139
14.4503 21.5966 34.029
14.8688 23.0091 36.2211
14.6799 22.2972 35.34
14.565 22.1929 35.391
14.3093 22.1057 35.4044
13.9658 21.4045 34.9515
14.4637 21.7954 34.1722
14.087 21.9543 35.3399
14.3144 22.262 35.5209
13.775 21.6292 35.0888
13.7008 21.2055 34.3347
14.047 22.1298 36.0027
13.8903 21.8223 35.628
14.0338 21.9223 35.329
14.0241 22.2817 36.5311
13.5684 21.1919 35.1783
13.8233 21.922 35.7333
13.7569 21.6931 35.5517
13.5634 21.5207 35.0648
13.3861 21.6689 36.2382
13.5854 21.5557 35.6861
13.3863 21.6073 36.0072
13.3019 21.6763 36.684
13.7459 22.2279 36.7696
13.3812 21.811 36.8397
13.6067 22.3966 38.1428
13.3808 21.3077 35.2207
12.7204 20.7353 35.3828
13.0678 21.3253 36.2313
13.278 21.6289 36.8374
13.2277 21.5623 36.2262
12.8927 21.2672 36.059
12.8629 21.3768 36.5612
12.7316 21.205 36.5436
12.8779 21.6361 37.2258
12.7138 21.2951 37.0971
13.0364 21.4863 37.1483
12.7605 21.1308 36.0566
12.2134 20.6363 36.4524
12.7521 21.4458 37.3575
12.8097 21.4145 37.0445
12.376 20.9497 36.8868
12.4036 21.2999 38.3646
13.1428 21.9305 37.8673
12.4184 21.1274 37.3338
12.481 20.9374 36.5882
12.3332 21.2309 37.2817
12.1915 21.3096 38.1051
12.032 20.6435 37.5529
12.1798 21.5515 42.9673
16.6032 27.4872 43.8035
12.4209 21.5891 38.2222
11.5496 20.1967 37.3296
12.2234 21.1263 38.0179
11.9842 20.941 38.1221
12.086 20.8047 37.6439
12.3169 21.4369 38.5471
11.774 20.8397 38.4688
12.0141 20.9208 37.9554
11.7152 20.5499 37.7771
11.9029 21.0768 38.4955
11.924 21.0384 38.5295
11.4593 20.3515 37.5592
11.581 20.4478 37.7675
11.4697 20.485 37.7834
11.3552 20.1744 38.1672
11.7472 20.6382 37.6561
11.1882 20.072 37.3103
11.444 21.0471 39.3675
11.1524 20.2227 39.0011
11.6655 20.5662 38.6004
11.5347 20.5491 38.1109
11.3578 20.7868 39.0945
11.1685 20.4552 39.1097
11.4998 20.7048 38.6369
11.1286 20.5589 39.4822
11.2094 20.3677 38.4534
11.1685 20.9338 40.4941
11.3708 20.5666 38.9172
10.7405 19.9382 39.0414
11.3719 20.8654 39.5403
11.0968 20.5312 39.302
11.0329 20.6158 40.1428
11.2167 20.7778 39.9772
10.9618 20.5583 40.1104
10.9621 20.2933 39.6094
10.9086 20.3246 39.3789
10.7986 20.3334 39.4553
10.5793 20.0571 39.6877
10.6079 19.9533 39.4463
10.7026 19.9773 38.7628
10.834 20.8913 40.9376
10.3864 19.5179 39.1495
10.6268 19.6732 38.1861
10.2643 19.4261 38.0352
10.2148 20.2038 40.0238
10.1852 19.7741 40.0113
10.5127 20.3129 41.0996
11.1287 21.1742 41.0411
9.88132 19.0226 38.9429
10.2148 19.8034 39.8056
10.0379 19.1022 38.892
10.3278 19.6949 39.1287
10.0419 19.5902 39.7723
10.3358 20.091 40.7558
10.4157 20.3716 41.1098
9.82809 19.3254 40.2701
10.2352 19.9019 40.7189
10.4018 20.3041 41.3751
10.2206 19.7483 40.0346
10.0771 19.7344 39.9581
9.76095 19.5047 40.4734
9.82065 19.4107 39.9772
9.97189 19.747 40.4202
9.66053 19.4187 40.9737
9.97084 19.8907 41.7514
10.0796 19.8865 40.5329
9.72285 19.3955 40.7574
9.81461 19.4853 40.3531
9.63288 19.0399 39.7626
9.59696 19.2717 40.5667
9.7137 19.8414 41.7881
9.71997 19.5967 41.17
9.54391 19.2514 40.7787
9.85527 19.7874 41.313
9.64087 19.8028 41.8045
9.75119 19.8336 41.6679
9.36664 19.3225 41.7104
9.38406 18.5435 39.3534
9.26525 19.0588 40.7776
9.37323 19.46 41.3965
9.33423 19.2138 41.6419
9.33663 18.4981 39.3663
9.19147 19.2276 41.2574
9.49931 19.6409 41.913
9.48298 19.9467 43.1463
9.21005 18.8896 40.9851
9.21476 19.1322 41.0829
9.15523 19.4109 41.8946
8.84628 18.5931 40.9527
8.95566 18.7322 41.1287
8.96367 18.877 41.4122
8.93018 18.7629 41.467
8.966 18.8489 41.799
9.00005 18.8184 41.894
8.81507 19.4027 48.5972
12.2822 24.508 46.2312
8.51999 18.7892 42.7136
8.72324 18.3757 40.8747
8.69243 18.4336 41.4676
8.99181 18.7632 40.9942
8.59095 18.6983 41.7841
8.6633 18.6859 42.3625
8.79088 18.6435 41.8655
8.89084 18.8321 41.8923
8.77074 18.6287 41.3393
8.56755 18.2768 40.8755
8.50554 18.4084 41.0998
8.40943 18.3667 41.7539
8.56603 18.49 42.1386
8.74513 19.0853 42.0464
8.22367 18.0465 41.6424
8.40385 18.49 42.0073
8.20584 17.9748 41.8789
8.24659 17.5952 40.205
8.3366 18.3967 41.8477
8.16092 17.7419 40.2481
8.05924 17.7156 40.8831
8.13745 18.0055 41.3773
8.16251 17.9421 40.2523
7.57926 17.1135 40.4129
7.92161 17.4987 40.5609
8.15959 18.4459 42.7198
8.09352 17.9873 42.1142
8.10745 17.977 41.8028
7.90856 17.493 41.2217
7.93186 17.6788 41.9246
8.1362 17.9268 41.4712
7.83871 17.2067 40.1704
7.96724 18.1517 42.3317
7.68009 17.3255 41.4063
7.96978 18.1484 42.4552
7.70093 17.1143 40.258
7.81439 17.7788 41.5547
7.59664 17.1107 40.9335
7.64358 17.483 41.7053
7.74299 17.3474 41.1415
7.67243 17.3772 40.681
7.34691 16.8288 40.5185
7.74188 17.8177 42.2195
7.33167 16.9924 41.4832
7.47402 16.9065 40.6607
7.53963 17.6123 42.3158
7.44964 17.1749 41.4458
7.48912 17.3514 41.8899
7.47552 17.5344 42.9253
7.4794 16.8818 41.2992
7.50272 17.4274 41.8443
7.42987 17.3557 42.3507
7.33434 16.904 41.8392
7.48319 17.0236 41.2627
7.3909 17.1276 41.3548
7.19662 16.8425 41.3933
7.20171 16.5888 40.4967
7.09728 16.5864 40.0878
6.9611 16.5816 41.1228
6.96487 16.3925 40.4981
7.03624 16.6996 42.2636
