# pn-170911/RbIIR-46-PTBB-1280-1959.psd
# Power spectrum* (dif=0,1,2) (really just |FT|^2)
# NOTE: only the first half! (symmetric)
# weeks: 1280-1959
# 8 clock-days, 0 excluded
# PSD: 1441
2411.54 0.119507 0.0336789
49823.7 0.316236 0.0262687
422777 9.96844 0.00803347
29506.4 1.3519 0.00533451
41030.2 2.27421 0.0221574
4787.39 0.276513 0.0451214
9684.16 1.60018 0.0491126
8464.97 1.20308 0.0302618
5577.32 1.07828 0.0102984
2122.25 0.661977 0.00739044
2132.46 0.960272 0.0247265
1136.52 0.442674 0.0464043
843.524 0.664272 0.0404158
1053.38 0.492971 0.022149
2192.1 2.14188 0.00675032
797.971 1.0862 0.0108625
2213.5 2.0822 0.029813
1193.77 0.925365 0.0401628
737.144 0.73092 0.0303672
729.504 1.16715 0.0123406
951.826 1.82923 0.00730021
717.536 1.3638 0.0348588
395.955 0.712733 0.0524564
441.529 0.444989 0.0550146
552.987 1.0655 0.0396011
334.031 1.07833 0.00950842
884.234 3.00278 0.0128863
513.398 1.29813 0.0279427
443.417 1.41043 0.0445588
350.676 1.63105 0.0523128
999.375 3.4878 0.0225002
250.781 1.47702 0.0134826
917.826 3.13473 0.0319224
883.152 3.6978 0.0536353
764.221 4.61844 0.0746178
405.29 1.92272 0.0448663
256.475 1.70484 0.0219691
496.159 3.11146 0.0304056
369.007 2.57211 0.0271013
342.969 2.22233 0.0674322
417.554 3.51054 0.0821245
378.927 2.34102 0.0411953
407.559 3.63512 0.0498859
391.427 2.87578 0.0321501
347.31 3.40497 0.042875
574.434 5.85743 0.0632477
281.552 2.83846 0.0723565
147.192 1.43214 0.0269093
335.958 3.38562 0.0388139
385.81 3.85875 0.0631084
613.888 5.71867 0.113935
325.802 3.76767 0.0805201
473.878 6.40102 0.0877396
385.84 4.69524 0.0715976
441.581 6.4197 0.0984211
209.354 2.64659 0.0547945
499.186 7.68016 0.0886431
153.35 3.84309 0.0976772
366.591 5.62458 0.152143
355.548 5.89915 0.121392
414.325 6.40754 0.133013
336.504 5.61997 0.127806
458.45 9.05414 0.145051
418.666 8.351 0.190316
460.876 7.9598 0.141862
303.191 5.47434 0.114394
101.323 2.50123 0.0569726
294.306 7.08682 0.195944
535.965 11.2786 0.249297
620.556 13.5736 0.30428
227.209 5.10967 0.169635
200.425 5.36816 0.111466
339.478 8.75668 0.237102
385.295 9.83335 0.316976
499.81 13.2807 0.359802
290.802 7.79138 0.249235
292.11 8.83373 0.249752
207.412 6.17626 0.18928
513.513 13.4677 0.433923
375.533 10.8801 0.393691
178.067 6.075 0.186567
237.049 6.98602 0.322415
243.195 9.88903 0.330262
188.62 6.12554 0.225681
286.707 8.34444 0.30707
230.093 9.34669 0.331613
460.261 16.5252 0.468433
354.974 13.2678 0.451694
257.058 9.23303 0.356165
508.039 17.6318 0.667103
225.035 8.41801 0.385867
291.699 10.8501 0.471819
181.33 7.84868 0.302387
120.519 4.41799 0.262939
147.429 5.97093 0.271701
149.627 5.38187 0.200086
513.281 22.7151 0.969408
310.67 14.3855 0.641959
187.87 9.7019 0.491485
333.866 15.5301 0.770648
187.374 9.10081 0.41354
229.698 10.5394 0.576613
271.188 13.2704 0.708522
199.85 9.81979 0.569532
420.469 20.7075 0.969004
203.388 9.3048 0.51224
348.709 19.9933 1.17834
363.211 19.9466 1.14085
301.813 16.6264 0.805122
272.162 16.7564 0.942786
196.753 12.2385 0.717597
194.273 10.2397 0.616633
404.997 23.9889 1.41421
276.175 17.3928 1.064
185.987 10.6677 0.694094
165.84 10.6127 0.654732
180.407 9.98334 0.58796
192.332 11.9705 0.682909
113.929 8.69244 0.452827
201.86 13.5532 0.938453
136.766 8.7707 0.441778
262.959 17.8274 1.40409
132.736 9.31508 0.614968
203.415 15.122 1.11629
246.631 18.6189 1.37002
171.191 12.9274 0.878537
232.061 16.5871 1.31475
289.149 20.4383 1.50658
201.372 17.0586 1.28553
198.392 17.418 1.37077
156.044 12.3802 0.955396
198.252 16.1114 1.30109
119.113 8.26497 0.853142
153.892 11.4256 1.03725
135.892 12.8563 1.03539
140.103 10.3901 0.964022
114.52 9.30299 0.754102
123.265 9.81181 0.854337
106.269 10.241 0.945476
120.714 10.9177 1.0528
130.317 11.9939 1.11385
96.9401 8.06011 0.758234
232.293 19.4021 1.81715
100.278 8.25055 0.729816
236.358 23.8934 2.39472
311.118 28.1545 2.5507
191.894 16.7403 1.76734
94.1552 9.40993 0.984947
145.81 14.1857 1.37247
145.798 14.387 1.706
250.662 26.6505 2.79969
139.05 14.8234 1.90107
120.451 12.0528 1.27537
157.723 18.3987 1.79129
158.567 17.6966 1.7678
78.7622 9.75014 1.10886
87.4827 12.27 1.51479
138.917 17.3559 1.98166
95.2088 9.63621 1.15103
169.305 18.3304 2.02065
117.435 13.8913 1.65122
65.5195 8.62905 1.16268
61.9399 7.72229 0.996503
229.421 27.2583 2.95671
97.0823 13.2023 1.62385
92.7139 12.1529 1.443
217.75 30.1696 4.21607
200.717 25.3374 3.144
90.1078 9.26737 1.18494
108.907 15.3827 2.0555
146.628 21.3556 3.00361
114.07 14.4305 2.11274
143.879 21.1466 2.8407
148.125 21.7353 3.12707
151.265 20.9814 2.939
165.078 20.4583 2.9196
126.234 18.3377 2.88331
85.7381 11.0051 1.64935
60.1785 8.25298 1.44617
105.092 16.6135 2.70363
93.88 14.9973 2.11534
112.899 16.2839 2.49118
98.2371 14.1787 2.02585
93.9158 17.3473 2.7522
58.1488 10.332 1.70325
60.7848 7.58241 1.17202
62.1672 9.75899 1.78962
179.217 28.2345 4.34457
132.187 23.5375 3.76144
78.4913 11.0926 1.77913
160.763 26.5591 4.55302
145.927 26.864 5.02469
323.531 56.5908 9.6044
173.282 32.1201 5.57999
62.9587 10.9015 1.75912
118.93 22.07 3.67405
89.6544 14.1514 2.68972
127.732 24.0021 3.95688
144.655 24.73 4.35829
72.9398 15.7057 3.41933
47.4746 10.0756 2.11087
201.207 36.3237 6.49824
142.691 28.1134 5.5783
168.746 36.6298 8.1944
125.14 19.736 2.9509
67.2036 12.7819 2.48522
105.748 19.924 3.86324
116.671 20.7617 4.14456
93.7014 18.0833 3.70914
89.4605 16.495 3.40293
74.0771 15.3648 2.86577
97.8743 22.2965 4.22011
104.276 25.8586 5.66317
56.0489 13.1868 2.61923
60.8429 12.658 3.06233
66.8416 16.2224 3.736
68.5886 15.5864 3.67852
71.3855 16.1422 3.63095
92.8533 22.2981 5.35063
90.6082 17.9257 3.78272
70.0807 16.9127 4.48464
103.127 22.4935 4.62154
58.0587 15.1605 4.21216
131.737 27.5811 5.7316
65.5113 13.6672 2.69018
97.0625 23.3237 5.44345
120.733 34.1977 9.43034
145.537 25.7677 5.13396
100.575 22.047 4.9331
85.8652 21.021 5.08899
110.107 24.0927 5.48003
68.691 16.7131 4.25809
55.8928 15.2026 4.18659
64.3249 17.0153 4.07471
115.072 29.606 7.2116
39.1832 12.532 3.62583
70.5569 16.6686 3.87541
97.3139 26.5651 7.2277
75.3987 16.9593 3.99053
47.1895 12.8822 3.39449
79.0881 23.4821 6.00715
118.03 30.4128 8.0863
52.253 14.8438 4.42606
112.258 29.2685 8.11337
70.0497 19.8422 5.69568
34.5794 10.9643 3.29397
49.7117 12.9528 3.58611
114.044 30.1164 8.06062
27.1564 8.04281 2.34027
92.211 26.8628 7.33638
53.297 15.7134 4.07748
81.8744 25.5611 7.38815
64.672 23.5741 7.68289
77.3677 24.3673 7.80841
117.797 36.7083 10.6382
145.187 39.3609 10.9065
61.6054 21.9813 7.29669
85.6197 25.6195 7.52172
60.0006 15.7666 4.74111
83.3539 26.6173 8.72784
77.6551 23.3366 7.01593
46.198 15.5095 5.22524
101.463 34.8634 12.5069
88.9817 24.0879 6.90166
86.5069 26.279 8.21722
66.1567 21.587 7.20323
60.0892 18.9303 6.36552
63.464 19.2918 5.89798
60.9679 21.0841 7.58777
68.3542 22.213 7.44543
82.5736 28.9377 9.26061
97.7376 31.6298 11.2881
31.8732 11.696 4.08151
73.5443 25.1278 8.75534
64.805 18.8798 5.44399
52.6803 16.4228 4.88452
25.097 10.9658 4.38413
55.2403 20.6842 6.86359
64.0585 21.9424 6.97866
54.8572 19.9366 7.24347
51.3601 17.73 5.30257
63.4005 22.8679 8.28417
101.538 41.1721 15.3344
46.6207 20.0989 8.36299
56.617 24.06 10.2626
61.5978 21.6445 7.92296
79.0449 30.9578 12.0835
59.3775 21.1306 8.92705
123.963 45.685 15.8951
26.2368 10.9483 4.77724
69.3005 24.6346 9.182
59.2558 21.0815 7.09353
62.3005 26.9616 11.2111
57.4638 21.1828 7.92934
40.6367 15.264 5.85182
37.4711 17.1815 6.62181
31.2664 12.1627 5.51829
52.4947 19.1963 7.77446
34.886 15.3163 6.83618
31.1417 15.2157 7.6283
106.867 38.9567 13.7771
70.8575 33.4555 14.778
45.0244 17.5901 7.91028
73.4707 28.1406 11.6992
48.7862 21.9081 8.9474
58.8547 26.7897 11.3516
50.7802 23.7569 11.3357
63.5479 25.101 10.4617
76.7824 37.0594 15.6859
42.6621 17.617 7.49831
22.8345 10.3731 5.34211
46.5954 18.6948 7.99808
38.2736 17.0033 8.05692
73.2319 30.9004 14.1787
49.1497 17.9359 7.72067
65.9501 25.7838 10.9931
46.4066 18.2947 7.06301
33.8711 16.6213 7.59227
47.2216 22.7877 9.81067
28.7965 16.0131 8.15053
29.5342 13.6541 6.24091
16.0206 6.97656 3.68054
31.5841 13.0396 6.19827
45.9186 22.4196 12.0741
63.9004 28.5015 13.1261
41.7346 20.3665 9.12758
37.9929 16.0547 6.37703
35.97 19.6196 9.91941
59.1758 29.5508 14.2411
21.0187 8.11281 4.13846
44.9611 22.564 10.8593
22.3941 12.9439 7.90098
42.0885 18.4739 8.68353
53.5217 26.0778 12.468
27.4092 11.5058 5.50196
50.8107 27.2001 13.7793
84.3378 45.2908 23.2809
61.7241 35.1726 19.6315
32.3232 11.7572 5.15054
53.5118 25.1627 12.4244
38.7191 18.4219 10.2789
54.3544 28.8149 16.5388
62.4549 34.5078 19.6485
36.6894 19.8931 12.8033
33.7219 15.6776 7.90802
66.2133 31.8001 13.8843
29.2808 20.2072 11.5368
54.2632 31.3912 17.8011
29.7651 13.0165 6.38504
57.7039 34.8534 19.2574
49.3092 28.489 15.8331
34.8524 19.0811 11.0786
58.3949 31.3156 15.9542
20.0056 12.6841 7.73424
50.6558 34.2626 21.4378
27.0342 11.8201 5.61966
30.9174 20.4901 12.5949
66.2957 31.8463 16.3469
32.0975 16.847 9.81913
52.0509 29.3174 16.8863
45.8742 27.7914 17.732
39.0088 20.5222 11.3184
55.5065 32.6882 18.6506
29.991 18.9457 11.3976
24.9102 17.0613 9.3363
19.7938 16.3312 12.0832
40.2334 19.9919 9.91293
45.8958 34.3269 22.7851
69.3843 41.9942 26.7656
31.363 15.3187 9.64815
52.6545 34.7794 21.5182
28.9912 16.5034 10.1411
35.4778 22.1648 15.7329
36.8219 20.2781 10.9933
32.8005 19.9854 12.2434
42.5535 26.191 15.6715
51.385 36.5419 24.1108
19.3545 10.6188 7.20907
33.0865 22.0725 15.5533
42.7384 24.3422 15.5458
30.9724 16.9057 8.91134
32.3298 19.8342 13.0158
40.4601 20.9478 10.931
47.596 38.0441 28.7988
72.4661 42.0877 24.7088
43.3673 32.9816 25.2133
15.6791 9.41207 8.30679
30.8701 20.2654 10.9563
26.4726 19.9107 16.2168
44.9694 24.5603 13.0807
26.2764 16.4328 9.7346
28.6949 19.3394 11.434
18.8346 13.191 9.12124
26.7129 26.6015 23.0008
34.4284 22.3498 16.077
23.525 11.414 6.92631
32.0013 26.0194 20.1452
43.2513 25.2339 14.9957
33.0582 22.7744 16.5358
51.7625 40.1543 29.4246
40.825 24.0052 17.0511
29.5388 19.3316 12.268
40.9392 30.7901 24.7419
21.8322 16.0666 12.9804
35.406 20.1343 10.8343
33.387 27.034 21.3779
39.3375 29.405 20.5514
46.2581 44.4022 39.2812
45.7432 31.1314 22.4295
34.1981 18.9039 12.5829
30.0905 21.9154 15.0701
21.1378 15.8966 13.1925
27.0994 20.2256 14.4618
22.7382 18.6471 15.1511
39.5479 38.2798 34.1012
48.3053 25.444 14.4489
25.6388 21.6325 15.8957
25.6733 23.4909 20.0132
29.2728 18.8919 14.0514
25.4402 21.6345 18.1492
39.831 27.2111 17.2172
17.9873 15.8228 14.2526
38.3745 33.3439 25.4805
30.8072 23.7568 19.1452
27.4172 22.6537 16.7847
16.3238 11.7104 9.1485
45.0657 43.1467 39.2286
27.575 19.4764 15.9672
39.7777 27.427 17.1499
15.9615 13.2451 11.0136
14.9512 12.6092 10.948
26.964 20.4301 15.2622
27.169 21.8561 17.5278
36.9347 33.689 26.5932
19.4458 19.1139 16.3483
30.5067 29.9036 27.9523
33.5111 26.5561 21.4718
21.8477 20.853 20.505
43.3297 36.6458 30.9595
37.5761 34.4636 32.8542
37.1247 24.8186 17.72
30.189 25.3998 22.1108
30.6501 26.0293 24.6362
34.9245 25.042 17.9103
32.1809 31.3772 26.2222
24.5153 24.9529 26.6556
39.0698 30.121 22.1245
20.267 21.6649 21.6511
13.7077 10.5928 9.88661
21.9722 16.0222 11.6343
24.0441 21.3574 18.5905
14.8978 15.186 17.0367
34.435 27.6284 25.4834
60.4137 57.6096 51.3927
22.5835 17.0976 16.333
43.9966 36.008 32.6651
32.419 25.1843 20.3057
15.2869 10.6684 8.14435
22.8453 24.9599 25.8186
26.4765 22.2782 19.411
23.9595 21.3498 15.5825
23.1472 30.3853 31.4175
20.397 20.161 20.4816
28.1101 26.9447 25.1436
17.5617 18.261 20.6874
18.9009 16.2044 17.1266
35.5817 28.7504 23.1423
22.7038 17.4368 13.1231
22.734 23.1083 24.8865
22.2083 16.4039 12.5899
29.5123 26.5557 22.1648
16.9372 18.9446 22.0339
25.7835 25.7829 22.3191
28.6471 38.6873 47.5147
25.2713 18.5484 16.0996
21.3541 20.7899 22.3331
24.2739 24.1039 24.8143
40.9197 42.6481 42.6014
37.6052 34.9023 31.898
25.0618 24.4204 25.2917
42.3816 43.4301 38.7408
18.3378 18.7505 21.0558
26.1773 26.3082 26.5539
24.4927 20.7655 21.1185
36.02 34.6818 26.5627
21.4324 26.9205 28.1536
22.2311 21.38 20.5514
16.0716 20.9224 25.7678
22.2609 26.1693 27.308
23.6164 24.2876 25.1238
25.4227 25.7133 25.6051
22.6432 26.9661 32.2006
18.8112 22.1901 31.2647
46.0823 36.5167 30.8016
36.2197 35.9207 33.9498
27.6125 24.9836 20.0325
21.6575 34.1818 48.2246
42.8969 35.7051 28.4914
15.8781 19.3508 20.4527
12.3925 14.2091 16.7652
13.9206 15.8524 20.6323
31.9453 34.6159 37.1876
26.2324 25.778 25.5525
20.8729 28.9363 40.662
30.8405 30.7657 29.9375
15.0674 17.347 23.4517
17.1349 13.9788 12.3802
14.3141 16.4157 18.8718
13.0646 14.0659 21.3946
59.4551 63.3643 60.3091
11.6438 10.4913 11.5535
16.5939 21.1955 24.0515
21.6977 30.2397 41.1654
31.7895 31.7768 29.8857
22.3118 25.1361 23.7654
11.2806 15.1547 18.2083
15.2442 16.1318 17.8378
13.0238 15.9545 16.5398
20.0205 26.4059 29.7875
13.2992 18.771 27.189
25.4062 31.9931 36.9125
31.0905 34.2789 34.4598
7.29452 14.7709 31.8911
52.0669 49.7165 45.9903
15.0624 18.8769 21.1518
20.0928 26.2125 30.4428
20.1011 22.487 22.1879
8.3697 16.9795 26.7344
28.3047 29.1154 29.769
15.242 24.4054 34.9657
21.8156 24.0385 29.3188
16.056 18.4568 22.947
26.6903 38.311 56.1745
23.6945 20.4034 20.087
16.1971 25.6983 41.4237
24.574 18.0521 13.8521
12.2452 17.8127 24.9642
27.017 25.6251 23.6136
19.4535 24.5324 27.2913
12.2675 8.75903 7.97191
10.0364 14.8375 18.941
20.1282 26.8649 34.0557
18.2649 19.453 19.1519
13.6365 21.7 31.4433
13.4495 24.7522 41.0174
22.7751 21.2166 21.5323
16.5471 20.4483 25.6467
13.2234 15.0022 20.7958
24.1974 31.5591 36.9241
21.0154 29.1385 33.1097
15.1308 26.2152 39.1978
24.073 26.4309 28.8605
11.7816 18.597 30.582
25.7727 28.7567 33.0832
21.646 33.715 49.6818
20.4216 22.4915 28.2516
25.6296 33.0309 44.8287
20.7194 27.0691 33.7371
24.0374 30.9659 39.3919
25.8492 32.5772 43.5435
16.9971 24.9404 38.5052
16.8403 14.9623 16.2843
12.2483 10.2934 7.48715
9.13386 14.3925 21.0105
13.4441 16.4661 22.8619
16.2816 23.0963 26.7287
12.8159 22.4336 36.5295
16.4468 18.2453 21.3132
11.3185 15.712 25.6727
18.1641 17.4052 18.5182
10.7969 12.9234 15.4485
17.4973 29.158 42.1954
9.74539 6.58735 7.60709
21.5838 32.1063 46.6957
9.94667 9.29853 11.474
19.0432 28.1357 39.456
24.8425 35.5109 43.3614
8.87948 12.1382 19.5214
8.24064 10.4397 15.5275
8.99646 10.6486 15.5227
20.3961 28.7569 35.1634
7.83952 18.2898 37.895
19.4702 27.8118 37.5355
15.3978 16.2857 17.8556
9.27477 12.7336 22.8
20.4982 27.9835 35.1327
10.9311 15.1887 26.1925
12.5451 15.6379 21.613
11.5608 18.1102 26.4899
16.0439 30.0662 44.4396
15.2448 19.0637 30.6733
10.7221 12.6184 19.0424
9.17794 12.8993 17.9702
10.0962 12.9944 20.9531
11.097 16.9325 28.4204
17.9552 23.817 26.0503
2.80539 7.77737 19.4184
11.174 16.641 26.782
15.1778 22.8028 39.7297
22.7796 27.4024 28.7363
5.98053 8.06119 13.5563
10.6187 13.035 16.6163
10.8449 22.1015 37.9519
11.7368 13.1326 18.0718
11.451 18.1852 32.1761
11.2655 14.1346 19.7129
10.5493 17.7827 33.4143
17.9725 20.0128 27.0222
10.4891 12.5759 20.5239
17.1259 22.2182 27.8287
12.4936 21.1977 35.0634
13.898 16.8992 28.7443
28.3371 39.6624 49.4407
8.12438 17.3565 33.9348
16.174 17.1043 21.4431
14.5642 20.8136 27.6487
6.74332 8.35038 11.3398
10.5041 21.0918 34.7718
17.099 23.3495 31.0069
14.8025 31.7901 62.1975
17.3785 25.2124 38.8972
7.75558 9.56345 21.6591
14.9191 17.1999 19.8693
11.2944 19.3179 37.5152
13.9118 21.0794 31.6229
8.02121 12.608 28.6833
22.4836 33.7166 52.541
20.5422 26.4412 37.2138
17.2483 23.9428 34.8195
13.6967 20.881 30.186
12.7005 21.7135 41.9219
8.64574 9.91761 15.8663
16.1879 27.2834 35.0608
11.1481 21.2767 33.7304
7.79273 14.7935 34.0899
15.8721 16.0343 16.7003
10.8444 20.7356 38.2976
16.2402 26.1594 36.0281
12.5398 20.3924 32.6115
14.5607 28.3984 47.4704
12.0506 15.0499 20.7807
11.8231 22.0392 32.0668
7.88875 15.3683 26.9189
9.43973 16.8949 33.7568
12.0632 18.0983 31.492
8.82372 11.2652 16.7662
12.0144 24.2607 45.1782
20.1585 31.7517 47.7072
7.3387 10.4527 16.9179
8.05712 10.1893 8.79848
8.55194 22.49 39.506
7.32964 18.4857 36.3671
9.92595 13.9277 21.23
4.6014 10.2634 23.3517
4.42646 6.67581 14.8368
7.3204 13.6774 30.5447
8.8477 10.8853 23.3169
17.2996 24.5637 32.6677
7.75662 13.9509 29.8781
17.7708 25.0846 33.8436
12.3252 24.9791 44.9619
12.8555 24.5341 44.0376
14.9771 25.1699 47.833
9.83296 11.5793 20.9135
12.4607 19.098 28.4318
11.1443 18.537 33.6927
9.1011 14.5354 30.2529
14.2524 23.987 34.6877
9.9482 15.7266 24.1628
7.82966 13.5977 25.4526
8.73494 12.914 20.3729
9.26209 23.9308 61.9033
23.928 34.3067 43.9588
7.02904 14.1157 31.2562
9.09556 15.0833 27.3082
10.1391 13.7427 20.8675
15.694 34.8069 60.6072
9.19098 15.3266 31.0161
8.10975 9.39149 16.8535
10.1029 19.0979 41.34
16.5961 21.3523 22.0166
4.77852 11.2915 27.2065
15.1123 27.5758 39.0525
4.2231 10.2548 25.4022
6.88657 15.4428 43.787
17.0784 24.2133 34.8399
10.7328 20.2094 32.7185
8.87891 16.3844 23.2113
11.2604 31.7032 73.7825
16.277 18.1996 23.0088
5.5753 12.1594 33.2237
14.8821 26.8043 46.3895
16.0968 31.5521 60.2065
11.5764 14.7382 25.9987
7.39972 12.1472 22.4497
8.06234 13.632 25.0632
9.75311 22.4515 44.5131
14.084 25.7556 45.5112
8.51284 13.1337 19.97
5.34765 11.847 24.086
4.48796 9.1737 22.9183
9.51456 17.7103 27.8587
6.81932 15.0759 32.4056
10.1606 21.7587 42.3898
11.4949 19.838 31.5281
5.79267 13.9587 32.6174
10.1816 18.8826 35.1761
11.3193 24.4279 48.2667
6.934 14.0016 38.6539
10.6889 11.9823 22.3909
14.2245 28.3656 45.5771
8.26315 14.8058 29.0357
6.8453 20.2739 49.8354
7.8221 9.29396 36.269
23.9237 35.6577 45.0232
10.9859 28.3897 53.5281
6.74407 12.3122 33.9759
10.7844 23.1737 54.9525
14.3813 18.7308 27.009
5.68917 10.9944 27.7501
8.36709 11.9374 18.8243
7.45253 17.9724 35.9057
8.00997 13.3414 22.3168
6.53773 16.0374 40.3535
17.5284 37.8683 65.0231
7.53007 15.5658 40.0273
8.96174 11.8953 14.4466
4.1164 10.2189 16.2857
5.06378 11.7094 25.475
3.60998 8.49027 22.8565
8.71543 18.8101 39.5558
6.41334 7.0858 12.9302
5.91487 7.87203 12.9512
7.59681 18.1751 40.8188
9.65351 19.4763 46.898
13.7065 26.4166 46.265
7.17088 10.9558 26.4408
9.82078 21.9974 37.8405
6.55546 12.8293 26.8243
8.40867 23.4731 54.8032
9.11945 12.8644 25.3134
4.94861 11.4646 28.5828
9.50348 15.9733 25.6654
4.9762 8.12993 12.7455
6.4499 15.2547 26.4254
5.56838 14.6095 33.7566
4.22433 10.7769 35.2167
9.65268 19.5472 34.9352
3.69012 9.88068 35.9567
10.8596 15.0103 24.4832
7.3608 13.1825 23.9664
5.9116 11.4985 24.5177
6.16367 9.49865 14.4217
6.79258 17.5694 35.8213
5.52204 11.4041 30.4714
9.20949 21.4739 46.3321
8.6289 17.1556 34.6124
8.14106 22.3058 55.3971
13.8398 23.1218 36.3411
9.25336 18.5056 31.0813
6.79489 15.4327 32.6294
7.88099 22.0225 56.6766
10.4367 17.6962 28.1013
6.57654 19.1472 40.9453
5.14557 19.5214 63.7701
9.00642 14.1258 29.8642
5.96661 9.06576 21.7355
5.14715 12.8503 50.5639
18.1347 30.4706 48.7197
11.8109 24.7493 35.7139
5.64011 16.7218 37.0202
4.48165 14.7304 50.5106
9.44863 20.1798 52.6704
10.449 20.4629 42.4571
6.00777 10.682 35.4059
8.71777 12.6809 22.8502
10.0638 23.1892 46.4646
5.31752 7.62965 27.6176
11.8977 22.9816 40.2805
9.6535 19.69 30.1996
6.65871 17.0746 42.0653
10.9739 31.5638 65.5234
8.41318 25.4837 67.2216
9.01169 13.9357 28.9572
7.50468 22.906 56.7346
6.1019 7.85581 24.4994
11.1739 28.7226 58.8365
8.59296 21.737 43.0838
4.12673 6.87529 23.9796
7.43828 18.2413 35.9841
6.56211 20.346 47.175
5.3304 13.4438 48.1043
9.9565 20.2177 42.4132
9.05962 18.3349 42.0875
8.19116 17.0454 31.0556
5.25845 8.68133 20.4298
4.53511 12.3956 37.1663
11.3465 22.351 41.4004
4.98643 10.7755 19.6873
2.73917 8.03245 26.7195
4.91503 12.1412 28.016
4.60397 10.2607 37.9432
7.58663 11.2672 12.2837
4.23787 12.3017 23.5069
3.87094 11.1421 34.0384
8.69561 19.3156 36.2226
9.01613 28.8008 65.1061
8.77006 16.4539 36.5199
7.26991 20.9083 66.0994
8.75945 16.3263 32.808
4.84144 8.47287 23.3576
5.85885 10.403 22.0168
4.73569 16.3225 55.6427
9.56169 25.7768 82.6717
15.7988 27.9222 71.2034
20.1172 42.037 58.0717
7.39897 18.2274 35.0869
4.67175 13.54 34.6279
9.9315 29.0298 52.6221
2.21367 7.27188 34.8013
6.24546 13.5965 30.0949
3.74593 8.12382 24.7947
5.85563 14.5352 35.6958
5.76261 10.2016 24.5286
5.10687 9.42983 22.6751
6.05525 15.3744 31.8091
7.13432 17.7651 34.9653
8.38756 24.7979 62.4609
13.4174 31.2622 59.1444
