# pn-170911/RbIIR-54-RbIIR-1280-1959.psd
# Power spectrum* (dif=0,1,2) (really just |FT|^2)
# NOTE: only the first half! (symmetric)
# weeks: 1280-1959
# 4171 clock-days, 562 excluded
# PSD: 1441
164.153 0.128088 0.0487317
40053.3 0.627511 0.0529657
249464 5.24115 0.0547928
29839.2 1.12324 0.0547697
35751.8 2.63472 0.0537766
10816.7 1.09349 0.0555511
8168.86 1.23738 0.0548793
5683.04 1.15275 0.0571032
5799.04 1.58225 0.0574888
3687.97 1.24778 0.0572335
3100.51 1.31237 0.0545069
2619.43 1.32703 0.0548467
2320.33 1.40445 0.05419
1943.25 1.38885 0.055389
1824.31 1.51988 0.0548561
1574.41 1.51747 0.0559453
1474.12 1.62722 0.0571173
1302.34 1.64459 0.0565362
1223.03 1.726 0.0566865
1173.57 1.83167 0.0566166
1052.92 1.83572 0.0594114
1026.07 1.96976 0.0583767
997.319 2.10983 0.0637429
917.647 2.15875 0.0631755
902.37 2.28891 0.0602543
851.379 2.35377 0.0652237
843.831 2.54891 0.0654341
812.344 2.68845 0.0634264
790.2 2.74234 0.0656021
789.659 2.96639 0.0674514
779.621 3.18227 0.0685
748.572 3.25803 0.0692782
758.755 3.51646 0.0755336
738.91 3.61893 0.0743567
726.133 3.81232 0.07681
744.093 4.13457 0.0809549
695.997 4.10094 0.0801214
704.166 4.35598 0.078709
666.983 4.41179 0.0862756
674.944 4.67403 0.0900267
670.806 4.89538 0.0930278
671.324 5.18608 0.099644
645.898 5.29327 0.100214
640.687 5.49227 0.103932
666.963 5.89772 0.110666
647.703 6.07821 0.115161
636.487 6.27664 0.11656
624.437 6.40553 0.12012
646.56 6.86012 0.130365
613.352 6.83521 0.134691
609.509 7.07339 0.136068
627.842 7.58441 0.151521
606.561 7.70226 0.154981
606.465 7.93835 0.160499
630.896 8.5772 0.174067
597.214 8.39904 0.173719
599.869 8.77235 0.187022
581.464 8.69967 0.189337
585.198 9.15764 0.204723
601.362 9.75693 0.215581
595.205 9.97905 0.227877
574.153 9.92059 0.231942
581.383 10.4274 0.245574
571.721 10.5976 0.258741
572.197 11.0329 0.269498
567.234 11.3087 0.286591
558.805 11.3594 0.289244
543.282 11.3502 0.296864
540.1 11.6086 0.301925
535.422 11.8905 0.31961
552.926 12.6843 0.347672
547.817 12.8709 0.361422
536.625 13.097 0.382262
516.594 12.8974 0.384083
499.025 12.7876 0.38654
502.319 13.2896 0.411
534.832 14.4655 0.457218
518.305 14.2913 0.459001
504.5 14.3089 0.468633
512.335 14.929 0.493746
493.77 14.8249 0.507713
521.58 16.0445 0.554505
484.651 15.2332 0.533726
481.96 15.5396 0.55929
488.49 16.1461 0.592386
476.093 16.0743 0.607316
466.54 16.1551 0.621919
491.774 17.4634 0.678544
466.091 16.963 0.687605
479.431 17.8127 0.726752
467.561 17.7536 0.743547
476.906 18.5514 0.785879
442.029 17.5295 0.765693
447.355 18.0452 0.790406
444.02 18.3336 0.820035
446.262 18.9072 0.858868
503.112 21.803 1.00798
434.987 19.0832 0.901447
437.589 19.6627 0.953084
413.331 18.8353 0.926916
429.325 20.0962 1.01158
419.576 19.9288 1.01886
434.221 21.2524 1.1063
415.678 20.6926 1.09251
432.41 21.9036 1.16137
407.473 20.9902 1.15109
404.047 21.3462 1.18924
403.034 21.6117 1.22693
399.473 21.7769 1.25033
389.889 21.8768 1.28774
389.353 22.0168 1.31766
402.721 23.1994 1.40542
395.947 23.3383 1.43478
387.211 23.3005 1.45366
384.65 23.3784 1.47877
379.134 23.4117 1.51999
377.606 23.819 1.57241
376.427 24.2066 1.63125
370.644 24.1723 1.63143
371.924 24.6488 1.69545
360.664 24.3802 1.7189
376.101 25.8016 1.83056
352.328 24.6031 1.78303
372.935 26.4522 1.93662
370.81 26.9445 2.01783
358.376 26.2677 1.98887
359.2 26.7303 2.06143
338.104 25.5362 1.99936
343.187 26.464 2.09868
344.599 26.8151 2.14878
339.4 26.8611 2.20999
341.591 27.299 2.25724
332.332 27.2703 2.29445
334.412 27.7656 2.36184
325.411 27.396 2.36282
322.015 27.6268 2.41973
324.154 28.0444 2.48327
334.676 29.7618 2.69288
332.683 29.6097 2.71646
324.821 29.2089 2.70924
326.526 29.907 2.80135
312.991 29.1262 2.79852
312.864 29.4006 2.85197
305.842 29.4361 2.90072
318.215 30.8683 3.06277
300.25 29.5225 2.99055
301.673 30.1611 3.10342
304.214 30.7535 3.16855
298.811 30.6655 3.24099
298.677 31.0467 3.27894
308.333 32.6129 3.53976
293.452 31.2244 3.38509
296.318 32.0815 3.51571
287.052 31.4473 3.52818
286.972 31.7901 3.58215
296.521 33.3645 3.81478
279.542 31.9647 3.70967
283.465 32.7579 3.83436
275.8 32.1313 3.8154
283.704 33.5617 4.0251
274.95 33.119 4.04744
272.571 32.9538 4.06672
277.095 33.8586 4.22532
270.492 33.7229 4.25348
273.96 34.4724 4.40998
269.209 34.1302 4.39094
264.924 34.2378 4.47891
267.716 34.7962 4.61446
272.043 36.0492 4.81176
264.321 35.2302 4.76519
255.658 34.4082 4.71708
253.964 34.6441 4.78464
257.382 35.4959 4.95832
247.673 34.6433 4.91142
252.442 35.8731 5.15231
253.576 36.3729 5.27649
250.994 36.2082 5.29612
249.169 36.4334 5.4185
251.505 37.1189 5.52935
241.636 36.114 5.48616
236.58 35.5979 5.44165
241.611 36.8099 5.68993
229.847 35.596 5.58071
236.584 37.1167 5.8743
234.305 37.2527 5.99653
234.164 37.1627 5.97652
236.193 38.0122 6.15346
232.196 37.912 6.2825
229.667 37.6974 6.27661
230.738 38.4555 6.50283
221.304 36.9865 6.28547
226.526 39.0448 6.79433
273.442 47.0284 8.09115
224.778 38.5884 6.71241
222.107 38.9142 6.91439
221.849 39.3266 7.05372
216.206 38.7815 7.03358
218.586 39.3563 7.15676
217.808 39.8367 7.35575
210.653 38.6903 7.2067
214.261 39.8416 7.53812
207.543 39.1362 7.45495
211.068 39.8287 7.61832
201.231 38.3819 7.42818
209.122 40.6242 7.96629
205.701 40.1923 7.94045
207.73 40.9777 8.15379
200.704 39.8097 7.9667
203.645 41.2169 8.42975
199.879 40.574 8.33167
204.176 41.7756 8.61162
194.007 40.0526 8.37955
199.551 41.6717 8.78092
192.417 40.3739 8.54288
188.855 40.3075 8.70176
198.947 42.7651 9.24424
188.603 40.8827 8.92328
195.335 42.6279 9.37288
182.652 40.2683 8.99166
187.424 41.908 9.45871
192.501 43.2504 9.81213
183.457 41.6602 9.53547
186.189 42.4491 9.7726
181.062 41.8379 9.76581
185.355 43.0582 10.0931
177.495 41.682 9.86784
182.006 43.1547 10.3105
179.134 42.728 10.3018
183.503 44.1514 10.7251
180.365 43.6218 10.6399
177.508 43.3163 10.6634
176.427 43.7631 10.9332
175.542 43.6985 10.9716
176.441 44.2539 11.1981
173.144 43.7206 11.0813
166.355 42.7074 11.1089
169.03 43.689 11.3479
172.29 44.6608 11.7112
169.596 44.2197 11.648
178.209 46.9871 12.4526
169.468 45.3073 12.1868
164.616 44.1232 11.9048
163.582 44.6363 12.2762
161.265 44.0955 12.1355
166.785 45.4912 12.5086
166.555 46.236 12.8621
157.141 44.3306 12.5718
160.713 45.0361 12.7633
161.036 45.5634 13.0025
161.587 46.5696 13.4809
159.487 45.863 13.3476
155.668 45.3173 13.3411
157.023 46.0906 13.6413
158.396 46.6879 13.8781
153.978 45.8458 13.757
155.11 46.551 14.1378
148.546 44.8262 13.6749
153.427 46.5729 14.3283
153.32 46.7805 14.4182
150.562 46.4924 14.4595
149 46.4416 14.5672
152.359 47.6481 15.0602
147.097 46.3006 14.7728
147.912 47.0169 15.0991
143.346 45.6843 14.7586
146.522 47.0733 15.1987
140.657 46.3114 15.2773
145.22 47.4462 15.6526
141.276 46.9749 15.7072
142.861 47.7165 16.0808
139.808 46.5101 15.6225
140.599 47.488 16.1264
138.794 47.3161 16.2266
137.721 47.253 16.3477
139.292 47.9233 16.6438
137.424 47.6073 16.5921
131.141 45.9684 16.2604
137.043 47.8676 16.8637
129.109 45.8817 16.4389
134.746 48.3875 17.3749
132.106 47.4323 17.1555
129.725 47.201 17.3712
129.089 46.9395 17.2479
130.122 47.8451 17.6718
125.811 46.3311 17.289
131.889 48.7281 18.2032
128.287 48.095 18.2142
128.169 48.3594 18.4959
162.855 61.7173 23.0986
126.263 48.3264 18.707
125.193 48.0346 18.598
125.28 48.3572 18.7993
122.837 48.1596 18.9973
124.227 48.6785 19.2602
121.206 47.9675 19.1668
121.897 48.5589 19.4493
117.081 47.1178 19.1459
122.21 49.0402 19.8194
115.905 47.2373 19.3873
120.738 49.3112 20.3017
118.144 48.6294 20.2553
117.954 48.0395 19.7862
116.479 48.644 20.4143
116.476 48.4838 20.3415
117.903 49.9278 21.2152
113.776 48.5062 20.9699
117.108 49.751 21.2758
114.335 49.2809 21.4118
115.612 49.6104 21.4759
118.171 51.3783 22.4454
111.652 48.909 21.6149
110.751 48.5466 21.478
112.651 49.8666 22.2292
109.374 48.8765 21.9347
108.222 48.6115 21.9923
108.003 48.5161 22.047
110.724 50.3439 22.978
107.344 49.0119 22.5307
106.286 48.9603 22.6852
108.613 50.1282 23.2605
106.558 49.5749 23.2176
107.397 49.9608 23.3741
106.269 50.223 23.7841
105.749 50.2169 23.9532
102.471 49.2556 23.9024
102.574 49.152 23.7987
102.99 49.4281 24.0016
103.843 50.5486 24.6462
103.898 50.616 24.8148
102.706 50.397 24.8782
104.947 51.3173 25.3082
100.128 50.0261 25.1441
103.386 51.444 25.7589
97.8871 49.0057 24.8109
99.6645 50.1906 25.4906
98.799 50.0951 25.6776
102.041 51.8704 26.4862
95.743 48.8355 25.1856
95.6406 49.7502 25.8517
94.6708 49.3064 25.9877
97.9015 51.1055 26.8396
95.1174 50.22 26.7944
96.0863 50.4819 26.8426
97.1103 50.8831 26.8801
90.6073 48.4771 26.1435
95.219 51.1284 27.4937
91.325 49.8262 27.3458
94.2452 50.9504 27.7207
90.9516 49.9725 27.7062
93.2943 51.3877 28.544
92.269 50.4837 27.8622
91.5359 50.7342 28.2109
90.726 50.7691 28.5791
90.0119 50.466 28.5389
89.7053 50.4213 28.4686
88.3163 49.881 28.4972
87.2147 50.007 28.8787
87.9122 50.44 29.2244
85.5753 48.8724 28.2672
85.8105 49.7787 29.0528
86.1593 50.0186 29.1964
84.6632 49.6044 29.3733
85.9868 50.8667 30.3775
88.3461 51.8895 30.7511
85.554 50.6315 30.3344
87.5553 51.9385 31.0026
82.6614 49.8978 30.4334
84.3146 50.8399 30.816
84.209 51.5028 31.5329
81.621 49.6545 30.5485
81.5115 49.9269 30.8439
83.2584 51.478 31.985
84.1023 51.4567 31.6201
81.645 51.535 32.737
80.971 50.4371 31.6737
80.6992 51.0248 32.5747
80.5896 50.588 32.0653
77.2633 49.1693 31.6417
77.3585 48.9763 31.4674
79.4307 50.9238 32.6951
75.5056 48.8341 31.6998
75.4482 49.3239 32.503
75.3424 48.9001 32.2273
77.7053 51.1486 34.4083
97.1187 63.1906 40.517
76.1101 50.2803 33.6829
76.8735 51.0184 34.0826
75.0861 50.0156 33.7166
75.9998 51.1032 34.6466
74.7798 49.6889 33.4106
74.2546 50.6651 34.7796
74.6262 50.4137 34.4186
74.2829 50.5693 34.624
73.6654 50.7201 34.9559
71.4288 49.7662 35.0116
73.8498 51.0884 35.7386
74.0293 51.2636 35.794
73.7933 51.8243 36.3885
71.3146 49.6471 35.0036
71.1387 50.8155 36.4654
70.4493 49.7732 35.4657
71.8686 51.7085 37.3809
72.6584 51.7526 37.0283
69.0057 49.9031 36.3308
70.1347 50.8172 37.0548
69.4087 50.5108 37.1149
69.6893 50.8735 37.6653
69.7502 50.2314 36.5533
68.1386 50.6952 37.7754
67.6704 50.2081 37.8341
66.1775 47.9389 35.3698
67.7193 50.5138 37.7867
67.2747 50.8147 38.6959
66.4138 49.4587 37.1447
65.0861 49.5491 37.7877
64.788 49.2169 37.6503
65.294 50.1115 38.7947
66.1682 50.5276 38.8647
63.772 49.0704 38.1004
64.0962 49.9684 39.205
64.5645 49.8695 38.9605
64.1154 49.87 39.1639
63.8372 49.7541 39.0158
62.4236 49.4397 39.3776
63.0959 49.9075 39.679
61.9611 49.4457 39.8334
63.7833 50.8884 40.7667
62.5911 49.689 39.6609
63.3989 51.6228 41.9972
61.8876 49.6892 40.3853
60.5992 48.798 39.8472
61.4155 50.0463 41.0419
60.7353 49.7826 41.0667
58.5687 47.8909 39.6397
61.4853 51.407 43.0302
59.9021 49.3381 41.2287
60.6364 50.622 42.4772
60.4862 50.62 42.4812
58.6518 49.5202 42.46
59.5167 49.4136 41.4676
59.1391 50.2061 42.8716
57.8691 49.2142 42.3497
57.9209 49.2472 42.0537
57.7632 50.1936 43.7425
57.672 49.7637 43.1144
55.3634 48.0228 42.2747
59.3248 51.4965 44.9747
55.2463 47.4084 41.4747
57.1348 50.1015 44.0064
56.9613 50.0778 44.1612
55.1958 48.9539 43.6937
54.4808 48.3667 43.5148
56.788 49.929 44.1472
55.3802 49.8337 45.1497
53.7556 48.33 44.2103
55.4724 49.7172 44.9477
54.9684 49.3648 44.867
55.1762 49.9433 45.4375
52.138 47.4397 43.6773
53.7141 49.327 45.6707
53.6345 48.8108 44.9684
55.1717 50.7383 46.7046
53.6857 50.0582 47.1733
54.1699 50.0183 46.2929
52.8861 49.3166 46.1874
51.8017 48.6879 46.2648
52.028 48.7365 45.9401
51.9252 49.3916 47.1106
51.4562 48.4964 46.2364
53.1265 50.8712 48.69
50.0441 47.6603 46.0866
50.8238 48.7975 47.0692
50.3819 48.6091 47.2188
50.6772 49.4456 48.7465
51.744 49.4778 48.093
50.6216 48.7807 47.6157
51.0656 49.6577 48.2898
49.8813 49.3653 49.1361
49.3585 48.8582 48.9709
49.3964 49.2897 50.7995
61.818 60.472 57.6215
47.8608 48.2065 49.1833
48.1375 48.0469 48.6533
48.4688 48.3615 48.3558
47.5293 48.9133 50.6078
47.7131 47.6615 48.3582
48.4582 49.0465 49.7975
47.6077 48.3278 49.2965
46.78 48.0975 49.8431
46.6736 47.7395 49.4605
46.9762 48.918 51.2731
46.5972 48.1808 50.4234
47.4094 49.1639 51.5671
46.2724 47.3837 49.2959
46.767 49.1834 51.7762
46.8322 49.3969 52.3235
46.6354 48.7449 51.6613
45.0918 47.2432 50.2493
44.5994 47.049 50.2863
45.5393 48.0582 51.0962
46.2796 49.5511 53.1113
44.973 48.1784 51.7574
43.8641 47.8366 52.5509
44.6861 47.8585 52.0782
44.6031 48.2011 52.6054
45.5628 49.6308 54.2039
42.8661 46.7047 52.0465
44.8646 48.6429 53.0431
43.6167 48.0005 52.9339
43.0301 47.5244 52.8156
43.9689 48.5936 53.9678
43.0073 47.4324 53.1317
43.0824 47.7209 53.6649
43.3088 48.437 54.5592
42.8661 48.0499 53.9934
42.2653 47.885 54.1675
40.8404 46.4293 53.4498
42.3185 48.2065 55.4596
42.2675 47.8364 54.673
40.9997 47.0946 54.6342
41.5943 47.1466 54.2055
41.2189 47.8861 55.8513
40.9472 46.6266 53.9138
41.1276 47.7192 55.0944
40.122 46.9892 55.6897
40.8854 47.3361 55.4295
40.1009 46.5793 54.8059
39.6735 46.7736 55.0625
38.8946 46.2467 55.3327
38.6101 45.4721 54.4778
39.4113 46.5312 55.1488
38.3971 45.7166 55.2517
39.3089 47.2128 57.4224
39.5576 46.5588 55.7846
38.9432 46.4128 55.4154
37.8154 46.1154 56.2044
39.2673 47.955 58.7495
38.7873 46.7541 57.2266
37.9607 46.4665 57.4214
38.0235 45.8481 56.0507
37.4433 46.1625 57.5516
37.8969 46.1609 56.9189
36.8511 45.2937 56.5593
37.2541 45.6109 56.5261
37.2955 45.9133 56.7888
36.6085 45.8425 57.7976
36.6246 45.3012 56.2577
35.2682 44.5411 56.7385
36.554 45.9383 58.3335
36.2552 45.4708 57.491
36.6514 46.6139 59.5172
36.4443 46.7479 60.6597
36.7475 45.7041 57.4165
35.202 45.4771 59.1026
35.7193 45.5253 58.3796
34.2251 44.4496 58.4465
34.6255 44.3296 57.8738
34.8041 44.8794 58.4331
35.3757 46.2648 60.4399
35.3108 46.2566 61.1253
35.1767 45.0189 58.7507
34.9173 46.1934 61.3998
35.5886 46.7938 62.3028
34.1011 44.1062 58.0912
34.0599 44.6898 59.0113
34.2227 45.934 61.7123
33.3622 43.9314 58.4521
33.2653 45.2203 61.886
33.1969 43.4297 58.1747
32.3368 43.4058 59.3289
33.8155 44.7761 59.4894
33.4062 45.725 62.484
32.9187 44.2232 60.1785
32.9879 45.1986 61.6788
31.7562 44.1364 62.5223
33.52 46.3559 67.8933
43.061 56.9241 72.8902
33.6679 46.6521 64.8541
32.9884 45.6978 63.8728
32.3652 44.4396 62.5939
33.4878 45.9362 63.5164
32.3787 45.0861 62.7106
30.8278 43.4479 61.8978
31.5188 43.5097 60.6261
30.6121 43.7523 63.034
31.1909 43.7024 62.2895
31.7304 44.8237 63.7969
31.3574 44.5436 64.1705
31.8552 44.8 63.9057
31.7619 45.163 64.4094
30.7329 43.9807 63.7771
30.3312 43.1468 62.5656
29.9018 42.6097 61.6935
30.9171 44.7128 64.7407
30.3825 43.7519 64.1459
30.4869 43.9844 64.2361
30.0419 43.5199 63.8315
30.1676 43.6471 63.7961
29.7469 43.6752 64.8009
30.0977 43.5411 63.6766
29.474 43.3903 64.5249
29.2958 43.0418 64.2814
29.8066 43.3169 63.1881
29.0834 43.9172 66.5392
29.5915 43.8662 65.789
29.9486 44.7434 66.603
28.5845 43.1152 65.9209
28.795 42.6665 64.5782
28.7504 42.8044 64.3827
28.3374 43.305 66.5284
28.5632 42.4081 64.2381
28.3533 42.9725 65.3397
28.3052 42.8725 65.1377
27.6444 42.5485 66.1478
28.5577 43.2757 65.8191
27.3153 41.7125 64.7888
27.2162 41.9168 65.379
27.7499 43.0698 67.6241
28.1525 42.6368 64.9701
26.7733 41.8083 65.731
27.1744 42.3864 66.9915
27.7402 43.2201 68.0185
27.3325 42.2799 66.443
27.2473 42.7924 67.752
26.6314 41.3194 65.847
27.366 42.7435 66.678
26.7533 42.6922 68.4952
26.7477 41.7782 66.5484
26.1021 41.2092 66.1785
26.7453 42.2912 67.0445
26.2353 42.1824 68.7097
26.1353 40.7794 65.5038
26.4541 42.7889 68.8994
25.8422 41.4739 67.697
26.6597 43.0985 69.7035
25.5526 40.4984 65.49
26.0733 43.2571 71.6071
26.4035 42.26 68.1169
24.9412 40.6004 66.7862
24.6402 40.5468 68.5398
25.605 41.0507 67.1
25.2621 41.4206 68.5168
25.4966 41.7401 68.5304
24.7797 41.1028 68.1892
24.5932 40.5652 67.5058
24.4717 40.9568 69.1163
24.9931 41.2502 68.6383
24.226 40.7237 69.5234
25.0345 41.1308 68.1524
23.6218 39.843 67.7739
24.4182 40.9029 68.9718
24.2058 41.0773 70.6091
25.1376 42.5221 72.7262
24.9275 42.2044 72.0036
24.2194 40.8203 70.2256
24.2449 40.6761 69.3197
23.6627 40.2963 69.67
23.3076 39.4642 68.0201
23.1686 39.6621 68.7322
23.24 40.1907 70.387
23.5075 40.0866 69.8475
23.5971 40.2031 69.216
22.9965 40.0946 70.3728
23.3001 40.3299 70.3763
22.9942 40.1588 71.0738
23.0048 39.544 69.177
22.7609 40.2765 71.9997
23.5084 40.5664 70.6507
22.2521 39.3311 70.6944
22.7099 40.1854 71.908
22.8732 40.3417 72.7347
22.7264 40.9427 79.6792
30.3669 51.4102 82.9121
23.2657 41.5783 74.2242
22.5401 40.3205 71.8871
21.4799 38.5121 70.7016
22.3141 39.9984 72.5337
22.1597 39.3827 70.9075
21.7089 39.0745 70.9605
21.7163 39.5101 72.7315
21.6534 38.5715 69.8491
21.3435 39.115 71.7479
21.8581 39.7799 73.2473
22.2192 40.403 73.6567
21.699 39.3467 72.219
21.3376 38.7694 71.1586
21.2215 38.9623 72.2221
21.1733 39.2866 73.3539
20.5612 37.5362 70.6788
21.0911 38.4674 70.8288
20.4489 37.9136 71.8069
20.7902 38.2075 71.0257
20.4148 38.4514 73.4623
20.9612 38.3489 72.1377
20.7729 38.1948 71.3349
20.3424 38.0402 72.1085
20.598 38.0415 71.2767
20.2008 38.2993 72.9839
20.087 37.5858 71.6388
20.3732 38.505 73.1931
19.8444 37.3724 72.2156
20.1944 37.6741 71.6077
20.0311 37.8729 71.8134
20.4115 39.7924 76.3293
20.1472 38.6375 74.9704
20.2736 38.9617 75.1153
19.6569 37.5228 73.3083
19.9499 38.13 74.0921
19.8707 37.4341 70.8582
19.0922 37.8117 74.3891
19.5061 37.7397 72.9859
18.8788 37.3202 74.8058
19.7286 38.2372 74.2365
19.2752 38.2586 76.2125
19.3121 37.0115 73.1626
18.947 36.7672 72.2032
19.0787 37.9405 75.6301
18.9848 37.2114 75.179
19.4044 37.6334 74.8509
19.379 38.0049 74.7007
18.8442 37.2914 74.4615
18.8669 37.5069 75.2857
18.9546 37.3631 75.1815
18.7076 36.5952 72.5951
18.6146 37.6271 74.5229
17.9542 36.1127 73.577
18.5195 37.2571 75.0895
18.274 37.2424 76.3309
18.1881 36.2181 73.9959
18.1516 36.2681 73.5065
18.0674 36.7177 74.9284
17.8623 36.1428 74.5523
18.1148 36.6659 75.346
18.0015 36.6045 75.9636
18.6904 37.8659 76.7508
17.7763 36.3232 75.8508
18.4579 37.7582 76.5222
17.3138 35.5385 74.5047
17.8755 37.0013 77.3672
17.4555 35.2237 73.4997
17.4717 35.6749 74.1547
17.261 35.9968 76.6258
17.8598 36.217 74.5983
17.0336 34.8785 72.3178
16.8414 35.3195 74.2639
17.0639 35.8369 75.872
17.0116 35.7399 76.1418
17.5294 36.6852 76.5412
16.4949 34.3934 73.6833
17.0529 36.0808 77.1082
17.4943 37.1993 78.2295
16.6185 35.1685 76.5353
16.8362 35.3646 76.5757
17.2376 36.1078 76.6745
16.7484 35.256 75.8902
16.9664 36.0686 77.0846
16.7296 35.7741 77.4107
17.0907 36.5779 78.1829
16.5273 35.4684 77.2093
16.4479 35.1939 77.0738
16.8739 36.2672 78.4352
16.3923 34.6546 74.1598
15.9872 35.0721 77.3389
16.307 35.1839 77.0798
16.0212 34.6058 76.7878
16.5642 35.8531 77.5039
15.7387 34.7177 78.834
16.3657 35.8963 87.3471
21.493 44.5571 86.0489
15.7452 35.1494 78.6564
16.0148 34.9471 77.6688
15.9152 34.9976 77.6023
15.9223 35.453 79.041
15.8991 34.9119 78.1098
15.9801 35.2099 77.453
15.2224 33.6018 76.1848
15.5674 34.3484 76.9543
15.3997 33.6423 74.6503
15.0919 34.0761 76.6648
15.0242 34.0173 78.7943
15.8051 34.8886 78.5163
15.6928 34.8088 77.3066
15.1322 34.1526 77.0878
14.9549 33.5337 76.2872
14.8204 33.2645 76.5439
15.1297 34.2129 78.5788
15.3106 34.1253 76.9431
14.75 33.0743 75.5441
14.8032 34.281 80.0031
15.1491 33.705 77.7135
14.9242 33.5345 76.1921
14.4996 32.8709 76.1674
14.8215 33.9897 77.9419
14.8267 33.8949 77.5347
14.3955 33.3331 78.6744
15.0258 34.4812 78.159
14.0302 32.7988 78.7649
14.6819 33.7134 79.3925
14.7144 33.57 78.2952
14.6112 33.5762 78.2903
14.3686 33.2982 77.8768
14.0059 32.5589 77.6811
14.4439 33.3402 78.4456
14.5221 33.5036 77.8867
14.0725 32.796 77.4689
13.9104 32.7636 79.0104
14.1917 32.4241 75.6896
13.9567 33.2996 79.891
14.1399 32.7158 77.9043
14.1 33.535 79.385
13.7415 32.2848 77.0962
13.8099 32.9343 79.7232
14.2474 33.3066 79.3566
14.0034 33.1777 78.7188
13.5641 32.0246 77.1045
13.5435 32.6039 79.6891
13.8997 33.0542 79.3366
13.52 31.8525 77.731
13.9003 33.6164 80.8164
13.5995 32.4493 78.6206
13.58 32.4466 78.0944
12.9617 31.2333 77.2034
13.207 31.6347 77.6206
13.3531 32.0505 77.7872
13.0997 31.7028 78.0674
13.1037 31.4313 77.489
13.4268 32.2861 78.0804
13.0702 32.4854 81.4651
13.4699 32.178 79.3287
13.2673 32.0108 78.5064
