# pn-170911/RbIIR-57-TWTF-1280-1959.psd
# Power spectrum* (dif=0,1,2) (really just |FT|^2)
# NOTE: only the first half! (symmetric)
# weeks: 1280-1959
# 6 clock-days, 0 excluded
# PSD: 1441
625.055 0.071066 0.0490828
39437.1 0.958283 0.0106898
54479.8 1.04835 0.0101638
15281.6 0.591457 0.0108112
42076.2 2.75629 0.00937565
7915.49 0.386515 0.0107995
7302.08 0.860982 0.0105541
2190.2 0.358978 0.0108771
3099.89 0.747645 0.0109101
1984.15 0.429155 0.0103059
1835.38 0.726904 0.0121493
1219.6 0.248924 0.0105598
2371.59 0.742056 0.0126702
1139.81 0.510637 0.00974475
619.827 0.665809 0.00930567
1159.09 1.12484 0.0102371
746.419 0.596179 0.00998425
1018.6 0.913876 0.0112399
879.865 0.515202 0.0100157
886.132 0.946418 0.0156345
449.031 0.551765 0.0106686
339.074 0.671465 0.00957287
318.385 0.580735 0.016275
534.889 0.923334 0.0126936
287.287 0.797667 0.0112887
399.015 0.55795 0.0139283
347.41 0.945976 0.0127376
833.441 2.34205 0.0276539
429.967 1.08888 0.0202064
297.849 0.895354 0.0120528
354.883 1.54001 0.00742206
725.724 2.90699 0.0331058
294.657 1.22183 0.0143351
438.102 1.86767 0.0282065
211.323 0.595015 0.0152832
265.669 1.30824 0.0118381
195.954 1.253 0.0126432
262.605 0.855191 0.0209814
222.144 1.53006 0.0213888
183.432 0.828398 0.0150436
111.634 0.682317 0.0130617
229.862 1.33938 0.0156038
100.487 1.02814 0.0214038
318.121 2.13815 0.0284516
170.024 1.58138 0.0255807
214.729 1.46177 0.0256293
447.749 3.84066 0.0551001
217.81 1.66048 0.0287147
400.556 2.89145 0.0414365
176.602 1.35863 0.019831
294.117 3.16331 0.0537901
373.94 4.19713 0.0773905
82.6686 1.22293 0.0443559
238.024 2.77132 0.0459197
327.395 3.4327 0.0696684
262.585 3.99422 0.0751725
359.056 4.50628 0.0771118
261.002 3.61249 0.0594504
198.174 2.04379 0.0522379
105.06 1.89579 0.0549393
154.218 2.74202 0.0728131
142.438 2.0107 0.0447169
228.92 4.52041 0.0856334
164.521 2.93264 0.0408214
83.3475 1.05215 0.0203178
132.374 2.60628 0.0806993
139.5 2.51442 0.0463086
145.37 2.88085 0.0558099
244.702 5.45884 0.140006
195.981 4.03085 0.0735812
80.491 1.79079 0.0369076
142.841 3.52993 0.118905
80.2809 1.76353 0.0829201
175.219 4.25796 0.133523
171.571 4.54542 0.136817
115.242 2.81736 0.0527724
93.2544 2.09552 0.0731408
197.525 5.05099 0.16851
137.189 2.8806 0.109797
72.5438 1.84886 0.0812954
92.2528 2.4084 0.122296
225.959 5.0494 0.142111
160.806 4.64667 0.134909
98.9641 3.36269 0.119249
104.212 2.82841 0.110846
141.384 4.23227 0.134873
258.509 7.89155 0.255844
110.65 4.27177 0.147732
146.16 4.66093 0.202761
75.8883 3.31074 0.0926085
60.9997 1.59026 0.0710647
84.8261 3.25707 0.131923
119.396 4.20738 0.204817
226.23 8.61134 0.335452
156.106 5.5201 0.236963
275.807 12.4913 0.500634
257.205 12.5693 0.54724
180.086 8.2234 0.417225
151.923 7.62284 0.364101
181.296 6.73646 0.320487
150.003 5.27536 0.273098
53.8106 2.95991 0.159564
120.927 5.23998 0.302177
185.799 7.67378 0.386779
107.501 6.81026 0.39492
221.12 10.665 0.651646
112.642 6.27159 0.400824
176.84 8.92558 0.532132
94.6857 6.25079 0.350086
74.2904 5.28385 0.381404
88.4527 5.19221 0.294879
179.795 8.7139 0.501313
100.805 6.47745 0.459429
184.174 8.94604 0.489094
160.614 8.98819 0.492991
96.0949 5.86859 0.350746
190.736 9.84507 0.649901
132.245 7.31882 0.453575
92.8235 5.53657 0.40103
107.971 5.8819 0.397261
159.603 13.6042 1.08251
180.614 10.5466 0.706514
119.296 7.03225 0.507706
83.9641 5.03186 0.421007
208.674 13.473 0.868373
159.156 10.1439 0.816684
74.0683 5.90639 0.471466
135.441 10.6108 0.795758
99.1409 7.50101 0.602598
135.769 9.18124 0.818139
110.896 9.57283 0.773109
77.5255 6.8539 0.631905
187.653 15.2726 1.39545
66.679 5.39679 0.43356
83.3188 7.42174 0.59617
124.604 10.466 0.844622
141.291 12.635 1.08419
140.973 12.4116 1.10159
119.048 10.7527 0.918309
110.3 9.14682 0.859906
81.1168 7.76836 0.733826
99.1059 9.53306 0.845008
29.8787 2.01051 0.190782
157.531 14.0753 1.48875
120.612 13.5494 1.30949
91.007 7.15462 0.796563
98.8553 8.44633 0.867946
144.358 16.593 1.75487
165.829 14.9465 1.4704
73.2126 7.76677 0.849152
125.788 12.7833 1.31813
159.724 15.4917 1.5848
102.083 9.21517 1.02511
48.7271 5.2547 0.643417
55.9587 7.3897 0.935311
127.582 14.5177 1.634
116.51 14.5344 1.76172
125.794 15.1941 1.74876
105.192 12.1997 1.56872
147.286 15.4792 1.99923
66.5237 7.57293 1.02854
40.9431 4.9133 0.669761
93.9809 11.5789 1.66094
17.0708 2.30474 0.373145
93.8382 9.84065 1.09953
65.7103 6.7075 0.880081
88.2275 12.3435 1.61982
67.9537 9.4755 1.14622
82.9316 11.6335 1.6908
64.4681 7.67254 0.866586
129.902 17.4318 2.20436
27.1812 4.08111 0.57896
79.665 12.4411 1.78723
72.111 9.40273 1.12197
99.0109 11.4669 1.61018
69.0154 9.3518 1.40761
45.9304 7.16485 1.04419
65.7942 9.11111 1.54056
127.132 18.1542 2.92216
80.5072 11.8592 1.49748
29.7176 5.16735 0.970509
111.213 17.5861 2.6655
52.8437 8.69298 1.22454
64.9705 11.5264 1.9062
89.5609 13.8951 2.2644
88.4868 12.383 1.92862
74.7575 11.144 1.86104
107.405 18.1457 2.86179
112.578 19.6598 3.33171
114.244 18.7683 3.21538
62.5839 11.5956 1.93042
83.2095 13.7781 2.21193
82.3797 13.2242 2.06812
78.5622 12.6065 2.20154
165.304 26.7974 4.53715
73.9686 13.537 2.57136
55.0074 9.35494 1.43387
81.5962 17.3114 3.47848
154.945 24.5083 4.37109
50.9616 7.59565 1.40345
39.27 8.78312 1.87939
114.837 19.9545 3.72787
51.9173 9.96477 2.08045
58.5775 9.71113 1.74207
69.6475 14.0869 2.98097
51.2463 8.73656 1.67904
105.329 20.474 3.97287
39.7116 8.24416 1.54844
27.5282 4.54957 1.01235
74.5874 13.3958 2.96687
118.642 21.5636 4.2124
56.0741 11.2499 2.32988
47.572 11.7851 2.52351
36.88 7.10405 1.54775
129.122 26.4151 6.03711
78.3506 16.123 3.31855
50.0382 11.7814 3.01415
70.7983 18.2309 3.7605
63.5442 14.1243 2.82186
20.0549 5.20718 1.26843
59.1038 14.9188 3.899
85.8885 15.975 3.30095
65.3663 16.565 4.31744
98.0305 21.612 4.65215
64.2655 13.7301 3.1935
55.2391 15.0882 3.36109
116.491 28.9585 7.6387
84.5567 18.4753 4.28456
59.0979 12.9056 2.74068
55.7077 16.8832 4.65887
60.1202 11.3385 2.46438
73.0038 20.2409 5.1718
64.9768 13.9823 3.24133
57.5919 14.0732 3.22696
40.7119 10.9421 3.28129
33.5893 8.64176 2.05157
70.9375 18.0846 4.55984
59.2803 17.0619 4.79417
71.9202 16.9492 3.98192
82.3351 22.9934 6.29398
119.804 30.4955 8.07505
43.4491 12.8464 4.69203
75.3648 19.0927 4.77792
41.4878 11.7493 3.52848
46.5274 14.0485 3.84986
56.9946 15.8781 4.43336
31.9205 12.0465 4.06929
88.8602 28.9611 8.61381
91.095 19.2145 4.7884
38.661 10.2765 3.33134
55.2398 12.3462 2.82989
74.6999 22.2764 6.73744
13.8757 4.49921 1.58248
53.8353 16.8183 4.90847
56.4379 16.1574 4.20933
75.3175 25.9799 7.959
34.2139 12.5692 4.40062
45.3698 10.638 2.70391
43.9742 15.1598 4.71279
42.2173 15.2378 5.9487
72.9387 18.1674 4.32124
53.4752 17.0168 5.04511
79.1687 27.5606 8.9462
37.907 11.8478 4.6263
45.2129 14.5675 5.75004
83.9275 22.8167 6.27195
46.5817 15.2684 4.64918
73.0208 21.2508 6.38218
69.3648 23.5511 7.68314
28.1118 8.5869 2.87782
55.5427 20.8306 7.11329
32.3734 10.9031 3.88129
94.8789 32.8793 11.2558
43.116 16.1315 6.03419
16.6448 6.40046 2.58879
35.4121 11.341 4.0195
84.9119 31.3892 10.2675
19.3215 6.85896 2.82083
94.5162 34.1597 11.3074
48.086 16.9243 6.33144
22.1767 8.31838 3.31001
70.8395 24.4228 8.31287
43.7898 20.2928 8.21874
48.701 17.8148 6.65128
49.4605 16.3215 5.73433
22.7416 9.66665 3.25127
32.245 11.538 4.34014
27.053 11.1755 4.13793
35.9562 16.4916 6.91137
55.3836 23.3747 9.74969
53.8473 19.8092 7.41509
49.4483 20.8667 8.44721
49.9302 15.8875 5.45062
37.7584 12.8068 4.61691
26.9878 9.37323 3.65669
16.0384 6.13786 2.68594
47.8717 19.7966 8.2308
51.237 16.7403 5.53267
49.5392 21.6165 8.85459
35.6435 16.9539 7.98197
27.6422 10.872 3.89887
92.816 41.4682 18.4429
99.2885 35.5241 13.5868
24.8424 13.4343 6.17903
36.8854 16.1193 7.73735
33.2041 14.2364 5.64221
30.5332 11.6983 5.18305
61.3271 24.4429 10.6912
29.5178 11.1423 3.82399
50.6719 24.6362 12.0048
36.575 14.9622 6.58413
38.616 12.7088 4.87338
45.2801 23.3305 12.0237
64.866 27.2438 11.6922
50.1677 21.196 9.02985
47.2042 19.2059 7.42175
44.2648 24.2732 11.9084
42.9682 18.1557 7.95439
43.837 22.9104 10.4519
70.0785 32.7017 15.7929
35.9485 18.6502 9.8812
30.7905 13.8187 7.26041
122.566 54.3869 23.9433
33.7792 17.5183 9.75774
50.2531 19.6158 7.78072
70.0029 32.7974 14.6707
38.7044 17.7148 9.18335
35.704 16.9734 8.36346
38.0068 14.6169 6.01202
27.4176 17.5053 9.50958
27.0476 11.0629 5.29014
33.3035 16.4569 8.08198
33.4248 17.7359 9.72432
57.5822 33.447 18.2613
65.4426 32.2186 15.4779
43.1866 21.3028 10.6223
32.7677 15.2858 6.94286
35.791 16.2227 7.67545
37.7275 15.6515 6.44399
56.1723 31.3704 18.648
32.754 18.3098 8.97319
28.932 17.2435 8.76353
41.0518 28.7041 17.4529
33.574 18.5091 11.8772
44.6602 16.4482 6.10016
38.2221 22.3591 13.0026
34.2041 14.9529 6.80394
31.0082 16.4865 8.26816
67.1331 40.0134 23.1042
39.1999 20.4756 11.4988
27.2008 14.7221 7.10159
19.9326 12.2701 8.05377
44.9752 25.5089 13.6858
24.6479 10.9235 5.69493
43.9936 24.6846 14.6423
38.0455 23.8442 14.2159
83.5434 40.3901 19.7426
31.5102 22.5374 15.492
14.2487 9.86379 7.91638
59.6494 33.6374 18.4599
45.6164 26.9322 13.8429
61.7225 41.2835 26.6496
53.0978 29.1467 13.902
11.4727 12.2714 9.7241
32.4296 22.2407 13.9239
37.2089 21.633 13.0858
53.9751 36.138 22.7113
21.711 13.5817 9.88371
57.5467 32.9752 18.2149
25.0546 17.0258 12.1913
29.9165 15.9155 9.36554
24.3634 15.1967 11.9309
30.0319 13.1759 7.80226
66.4567 39.4389 21.6759
21.9127 13.1195 7.77934
36.6507 22.1257 13.6502
25.8341 18.6778 14.0432
26.377 15.7308 9.78572
29.2013 17.0358 10.8413
13.3909 8.05799 5.95938
16.3238 11.8247 8.65392
65.8687 36.5039 21.5803
14.3227 11.2336 9.73942
18.9732 10.8928 7.34284
38.8729 25.1731 16.8965
21.3781 14.1552 10.2989
24.5362 17.4655 15.0472
26.9108 16.0607 12.809
30.0668 18.9106 11.3126
47.6922 28.5454 16.7801
19.6999 14.8492 12.3233
38.5488 22.438 12.2606
11.8625 8.26057 7.19451
39.3314 25.0521 15.4995
32.8107 24.6476 16.3679
57.8961 40.954 32.1281
34.6918 22.7091 14.5967
44.5637 29.8743 18.5928
12.6151 9.62975 7.87048
34.1443 24.0564 15.5262
21.4377 17.964 14.0245
32.9526 27.3146 23.5138
24.5951 13.5015 7.74924
49.4292 36.4743 27.2046
47.8311 33.0781 22.7731
19.0958 15.6102 13.4998
45.9338 32.9303 22.7231
10.8326 7.46247 5.80071
23.0283 18.6776 16.7
36.3488 29.6363 22.8571
45.8132 25.201 12.6693
38.6411 27.5494 18.7507
49.1121 39.7574 28.4874
23.6772 20.6578 17.196
29.0015 25.9682 23.1654
29.7063 17.0754 12.277
25.7962 18.3568 13.6232
28.9287 22.2418 16.9678
12.0813 16.2789 18.0524
17.8255 16.2882 19.3616
47.6839 29.5779 20.4452
50.1731 31.4706 18.6136
21.0914 16.8033 12.4325
29.683 20.2918 14.6355
19.9516 15.5475 9.9264
20.3867 21.8704 18.0439
11.609 14.8308 18.6139
43.444 24.1035 15.5872
50.4425 38.479 28.9797
24.4263 23.567 23.085
36.5375 20.2795 9.9746
21.3805 22.3314 20.8063
15.2257 13.0163 10.0643
31.1756 29.7385 27.996
26.2717 16.9828 12.1486
15.2933 15.0576 14.8922
20.6673 12.958 10.1768
20.2979 18.7564 15.3074
29.5098 22.6314 19.0974
13.4733 10.5279 9.63591
35.9287 29.3146 22.0541
27.3966 22.2572 16.5057
18.0329 16.617 16.6679
18.8683 16.2131 15.0838
31.1417 22.8544 17.6201
33.0358 28.0005 21.5854
28.1959 26.8626 25.1185
25.5792 27.4119 28.6359
42.5889 27.6385 15.9056
20.1443 23.519 24.2604
22.8202 15.7035 12.213
17.8519 16.966 15.1934
24.6971 19.3797 15.3102
12.93 16.0431 17.6806
20.4949 18.3347 16.0618
15.6156 20.0224 25.2415
36.6846 25.0096 15.9981
30.2042 30.2585 25.7008
16.3927 18.3371 17.2229
15.4138 15.6413 17.3366
29.6179 25.2307 22.1461
33.6667 31.9764 27.8688
11.8472 11.0955 12.2522
12.404 10.7867 14.0168
32.1939 27.7451 28.2782
36.3594 28.1052 20.7514
11.1734 10.9995 12.2819
17.637 13.3306 9.83137
14.8744 16.0255 18.2372
13.57 16.8605 20.9177
23.2369 17.9941 13.6922
15.168 15.8567 20.6262
24.7368 26.2385 26.5157
16.4732 10.8719 9.44259
18.0687 18.0175 17.4928
30.7111 25.2972 19.0861
8.24869 11.0158 10.7647
6.63974 7.70501 11.1976
19.9818 20.0175 20.1466
34.3358 35.945 40.8094
31.9253 28.4072 27.6754
45.0157 39.4503 32.5313
28.8898 30.9409 31.436
32.3783 32.356 32.8254
13.91 12.6407 14.1204
26.7663 28.6825 27.3892
12.3312 15.144 19.6649
27.0845 27.5432 25.8565
7.32692 5.35233 4.55279
5.39914 4.59736 3.79959
24.4582 31.5279 35.7223
24.2586 27.8989 28.191
10.3657 16.1366 29.1684
42.7568 31.8008 25.7805
13.5254 14.5869 16.4729
38.3826 38.9227 35.9724
17.0185 22.1087 25.88
17.6583 16.8239 17.0047
23.4719 21.678 20.4859
23.1625 27.1814 29.8209
17.7648 19.5734 21.4858
9.74543 8.72324 9.89999
11.4793 10.7587 13.9903
27.0001 29.3036 29.2397
7.47436 6.40687 9.06118
13.557 14.0302 13.1808
17.4481 20.1429 25.7258
30.8711 31.7201 30.3896
21.1281 27.5178 34.8495
30.9518 32.859 34.4481
29.9006 32.1208 33.3421
8.24529 11.5808 21.4883
23.4458 20.3803 16.3392
30.1742 38.3401 42.6545
14.5387 16.2409 16.0402
14.1749 16.2163 17.2317
15.3759 22.5374 31.9386
16.212 18.4572 24.4127
28.0493 30.8048 31.2107
15.1382 17.2794 17.3928
11.3656 9.75256 9.32366
12.0024 19.052 22.6555
9.82444 12.554 17.3349
11.4509 12.6019 13.6371
11.5565 12.7277 13.0081
10.0265 18.8722 28.8312
14.1086 18.7871 27.1343
16.2107 11.8356 15.4619
24.4394 25.1101 23.9572
21.9854 32.1164 41.7637
33.2574 39.8682 47.0782
20.8263 17.4591 20.7319
25.9918 28.4879 29.5516
21.5048 24.4026 26.2964
14.2382 17.2155 22.6297
10.7196 13.5346 18.7199
24.325 33.0274 42.9715
26.6714 30.498 34.311
18.1785 24.5854 31.7282
14.3882 19.6197 28.1393
13.2415 13.8114 17.9249
13.279 16.5519 19.891
9.93756 7.11322 7.22385
4.76867 5.15072 8.06674
16.6259 19.6846 26.3921
21.17 20.256 14.5463
7.10158 13.4115 19.1259
15.4714 16.0844 12.9373
19.3454 34.5732 48.4839
10.758 13.7082 22.502
17.5623 16.4616 16.5343
12.7768 20.1047 29.922
10.5042 18.6626 37.2096
22.8389 22.2618 21.7719
14.258 18.2134 24.6344
8.48649 7.9532 10.172
10.3476 9.95424 8.07104
7.8705 16.3188 26.516
18.5525 19.4481 20.5585
7.05411 9.18505 11.7056
7.2405 8.90689 15.448
14.797 17.4794 18.2633
12.8243 20.969 30.326
12.7107 12.7046 12.1948
11.3551 14.1678 15.8316
13.5948 22.5533 32.7782
15.7993 21.2794 28.6965
5.5657 8.61727 19.3124
19.3589 22.2373 27.7586
6.3378 11.5308 25.4239
20.4536 19.6012 16.1063
6.47053 11.6575 23.2386
31.1478 37.3114 38.3221
12.7009 20.6735 34.2217
25.7294 34.4397 32.7667
6.47808 11.9735 18.8873
3.50983 5.55068 7.60967
3.30549 10.2825 20.8729
7.07548 7.8846 13.7804
14.0773 19.8249 26.234
8.05409 7.85675 9.79976
17.6948 28.991 42.3613
13.5914 18.8313 25.7295
13.2648 22.0521 32.6259
13.5324 22.2636 38.195
13.0854 14.2452 15.3017
9.9162 17.1008 32.5902
26.9105 35.7201 39.1081
9.85884 19.6714 40.8896
16.7502 18.4616 22.3869
11.4876 18.0083 28.9229
15.5259 20.5687 28.173
16.0278 17.834 19.7688
20.5395 25.8359 23.9969
18.6794 37.5715 53.5295
23.2884 44.447 68.9679
16.358 19.5273 31.1464
16.3429 24.0317 40.3766
19.4016 23.3829 27.3033
7.83429 9.75289 17.8793
9.99029 8.27002 7.56911
6.11068 10.4115 19.0585
11.1719 18.1847 28.6955
15.1516 22.4829 33.1501
13.4458 14.5513 16.012
6.28298 11.2779 18.8225
11.1825 14.2845 16.1701
6.13638 12.6344 20.016
9.47033 19.5722 35.5057
29.0954 45.9871 68.8618
20.8277 27.0057 33.159
20.6014 37.1529 57.6002
4.58739 7.16586 19.7772
8.54854 12.1515 24.1155
10.9058 11.1283 10.2189
11.4814 24.5402 47.5412
14.7651 18.4149 26.0534
19.5345 28.5293 33.0375
6.72288 10.1949 17.0027
5.38787 9.30639 20.6581
22.3994 39.392 52.5235
11.1177 15.2721 24.2074
3.39656 5.57164 13.7236
7.21166 10.8382 13.5909
5.84802 9.66043 14.7556
17.0148 34.7706 54.3918
12.868 25.6213 56.2404
18.6787 18.7838 18.1187
9.69752 13.7399 16.8356
5.41309 16.3438 32.9411
9.83263 15.7984 30.3284
11.8012 14.2643 22.2033
13.5094 19.8836 28.8734
6.38878 9.93613 23.2069
21.3185 38.9594 58.6555
8.77822 8.45324 19.6191
14.1591 16.2024 15.2755
12.7024 23.0416 29.7137
4.76691 14.5651 30.1898
11.5388 20.6956 44.2257
16.937 21.7299 28.0924
7.26704 14.5664 35.523
18.5145 25.3447 29.1322
9.05131 15.8349 26.1078
14.4093 26.9884 37.5514
4.89162 10.4711 26.9297
7.77481 10.524 24.1989
10.9978 17.6237 29.1155
14.5344 20.8065 26.573
9.40221 14.3182 22.768
5.07914 7.66116 13.9261
8.5704 15.0948 19.5655
6.83289 15.7587 26.0075
6.73788 14.3741 25.4577
9.5248 15.2032 23.6254
8.41233 17.8034 33.7714
5.26303 10.741 28.1139
12.2102 21.6091 46.3295
17.2752 23.8266 33.2911
5.83025 9.75916 35.8903
22.7657 28.937 30.4194
8.76363 19.013 31.5342
6.79846 14.1285 34.8512
11.4692 15.9258 26.7129
8.93366 15.7427 35.0339
18.2427 31.5248 42.9423
10.6287 17.7963 29.3163
8.97202 15.2429 28.1812
10.1833 12.8411 18.0248
9.96451 19.6419 32.2981
12.0366 20.3717 28.8678
8.19256 16.0578 36.2456
19.0587 31.4201 41.9294
8.17412 18.4794 39.1502
10.0702 19.2091 34.0751
5.36103 10.7694 25.0661
9.08487 19.4037 39.8335
9.54164 16.3755 28.3297
8.5526 13.4268 23.6689
8.72873 13.1679 23.351
12.3672 21.1974 26.3831
8.33164 20.777 39.7647
6.16337 16.8539 38.29
9.96603 18.3807 43.4113
13.8419 20.5788 33.306
7.33086 11.5064 14.1696
8.07551 20.3844 36.8075
4.95255 6.29298 13.1895
7.72993 13.4484 18.2384
4.92505 17.1337 42.8316
8.61168 23.605 67.3577
16.3983 17.8539 26.241
11.2801 21.9831 39.7076
10.9929 13.8775 18.4127
3.09144 7.83498 18.0131
9.90439 23.2457 47.7404
7.81505 7.98765 18.6962
9.28576 14.0688 23.0211
8.70018 19.8931 46.0195
14.8429 23.7387 29.9561
5.41174 16.3657 41.709
8.03029 8.03604 14.01
7.16253 12.7393 21.9611
7.42232 14.6221 24.9826
11.8838 30.4274 67.6085
14.6456 20.5303 35.9426
10.9858 15.331 23.3947
6.81004 13.5016 25.9622
10.616 20.9386 36.0809
2.11985 3.45931 15.5988
5.92596 9.79038 16.1258
10.457 29.5613 67.5132
13.1881 18.2143 30.6628
6.85115 10.9453 21.9881
11.9232 27.4253 46.0432
7.59167 16.6398 43.6981
15.6823 30.17 44.5691
9.50829 20.9425 37.858
6.87068 18.1352 33.7472
4.26271 15.0663 52.7491
9.11697 8.37383 17.9067
11.2717 20.2374 26.7004
3.16516 10.1197 28.3411
9.11063 16.7796 30.3735
7.52327 10.5208 15.2442
5.89587 15.7788 32.999
9.76276 17.8693 26.4614
3.15124 12.317 37.7116
7.99934 13.3991 33.2603
8.86289 19.5093 36.5643
7.76748 10.5922 20.3687
6.49329 17.0644 32.4119
5.85659 9.46395 18.434
4.03444 10.6121 23.6383
7.65221 15.0566 30.8185
4.0429 9.29166 25.6962
6.21388 10.5644 23.2942
10.6709 20.5585 34.5856
2.81157 5.70252 15.16
4.06892 12.9355 29.3902
6.49227 10.7221 24.8485
5.97979 14.4861 33.8565
8.6652 16.5753 38.7342
10.3568 15.0425 23.0737
10.0602 19.4744 25.8291
3.61624 12.3325 24.2247
2.55262 8.1711 24.7585
4.93176 5.97772 11.8404
4.75906 11.2897 24.327
6.89126 15.5616 30.8236
6.43546 18.3282 46.5473
6.2896 17.502 58.7661
12.4409 14.8104 22.0837
8.7845 17.8809 31.5504
7.03346 12.3303 30.975
15.5765 35.1927 51.5439
3.76769 12.2721 35.3097
6.11129 11.4024 25.0999
7.12781 20.3212 41.349
5.68531 12.782 24.9482
4.95815 13.6739 33.747
6.64781 12.529 31.5305
8.15585 18.0024 37.1305
6.46624 11.0382 21.3676
4.85768 9.27636 16.4671
4.13773 10.8064 25.7958
6.94076 18.3431 40.1026
5.607 19.3606 64.6041
9.41981 9.85501 16.9231
8.24145 27.7401 77.409
10.327 15.4591 28.0924
8.35033 14.6177 25.2952
4.68947 12.445 28.7043
9.69506 22.0829 38.1123
4.0949 10.1447 26.8254
6.85283 16.2956 35.1276
6.41673 19.5027 54.84
11.432 24.6707 45.9707
6.03049 8.78605 19.6463
7.63932 14.1349 20.9457
1.34824 5.2656 19.459
4.21525 10.8384 28.6703
4.13449 5.99479 13.4026
3.34635 4.98767 9.18154
5.46482 20.7618 63.5702
10.4014 13.5485 22.6173
8.56451 18.15 28.3314
6.6726 17.059 31.3761
4.70073 18.413 53.1782
11.4661 19.0252 35.9541
7.26232 19.9847 38.2602
6.81729 17.219 35.9662
4.6395 12.7208 39.9019
5.52429 9.42745 26.2418
4.1374 7.35579 23.3493
6.05671 14.0933 37.5372
6.87946 11.4311 17.9854
5.19768 11.4394 19.8532
3.8432 12.9985 27.4213
3.27724 9.69322 24.6
2.70312 6.27349 19.9318
3.45942 9.36995 33.3241
7.62701 13.39 34.5366
11.3102 25.8389 46.1113
3.85702 10.3427 31.8413
6.17331 18.2219 49.764
7.97163 13.2678 34.7938
8.42553 14.2958 20.7644
4.07397 8.89178 26.2854
7.12813 17.4899 35.8083
4.82972 10.1159 29.1365
6.92023 11.4668 23.2818
7.38264 16.3774 31.4054
7.87887 25.0038 65.6783
5.48376 7.64984 20.5364
9.64479 25.3721 39.8495
4.60496 13.9368 39.135
4.9374 10.1311 24.9427
4.4668 7.86652 18.6904
3.85217 9.7524 17.0529
4.03893 15.7547 49.3068
5.62379 9.88918 22.8184
5.64566 13.3451 31.9033
6.81329 19.5218 53.9185
6.60034 12.0318 33.5871
7.38721 16.0557 43.904
