# pn-170911/RbIIR-41-RbIIA-1280-1959.psd
# Power spectrum* (dif=0,1,2) (really just |FT|^2)
# NOTE: only the first half! (symmetric)
# weeks: 1280-1959
# 4134 clock-days, 87 excluded
# PSD: 1441
4858.41 0.186384 0.0278355
518633 10.6509 0.018506
1.61201e+06 30.5673 0.0191493
309597 9.68939 0.0186599
187149 10.5578 0.0195606
95415.4 7.07727 0.019565
64711.1 7.25152 0.0195984
43124.5 6.45536 0.0203297
34909 6.61297 0.0206287
25885 6.25486 0.020795
21547.5 6.16308 0.0212114
17224.7 5.90409 0.0220663
14432.5 5.95888 0.0228903
12066.6 5.75379 0.0240135
10611.6 5.96744 0.0241418
9093.68 5.78956 0.0254347
8218.27 5.91553 0.0261829
7057.56 5.74921 0.0263586
6479.11 5.85998 0.0273463
5464.02 5.51232 0.0278513
5202.36 5.93164 0.0297501
4702.4 5.83255 0.0315365
4312.05 6.01376 0.0326773
3855.43 5.77036 0.0339236
3681.5 5.9903 0.0356015
3279.38 5.75756 0.0363855
3089.12 5.91962 0.0378154
2787.07 5.71729 0.0391269
2737.61 6.19451 0.0423432
2510.38 6.10171 0.0430378
2423.87 6.16142 0.0457934
2182.44 5.98401 0.0458674
2094.08 6.2688 0.0499
1987.6 6.36571 0.0513197
1889.62 6.33851 0.0540903
1771.86 6.21703 0.0553111
1696.55 6.47172 0.0599255
1618.51 6.49481 0.0630447
1528.27 6.6004 0.0631688
1437.03 6.34678 0.0642221
1423.47 6.79317 0.0715391
1325.59 6.57491 0.0721163
1276.97 6.81886 0.0763868
1247.18 6.86346 0.078934
1195.26 7.00676 0.0838115
1137.94 6.91872 0.0859362
1121.66 7.24111 0.0907493
1045.47 7.06264 0.0949226
1051.43 7.4687 0.10051
990.77 7.33171 0.101826
954.01 7.50398 0.10988
930.351 7.34422 0.110948
911.722 7.68742 0.118287
869.111 7.51706 0.120902
886.171 8.16457 0.132385
821.571 7.86633 0.131281
806.098 8.10649 0.139968
772.061 7.86122 0.140421
747.431 8.08361 0.150479
733.282 8.21975 0.155648
722.188 8.42472 0.165212
699.039 8.30462 0.164716
698.031 8.75474 0.177489
662.7 8.43061 0.178377
663.908 8.96646 0.193984
651.446 8.97683 0.199121
624.507 8.93923 0.203256
606.888 8.8469 0.209576
575.674 8.93996 0.215199
588.912 9.36141 0.229448
579.029 9.23891 0.234999
553.577 9.30282 0.239202
562.194 9.76896 0.260578
532.984 9.36711 0.256979
533.87 9.54255 0.266782
510.304 9.74006 0.278875
511.235 9.95574 0.294862
488.995 9.95624 0.297332
480.378 10.0241 0.310234
476.398 10.0661 0.319211
469.909 10.1884 0.32825
459.946 10.1355 0.331167
473.295 10.764 0.361005
430.801 10.3472 0.357063
434.331 10.6326 0.376997
434.238 10.6309 0.383102
422.611 10.8937 0.403667
406.597 10.8484 0.404281
405.159 10.8957 0.418043
400.047 11.0963 0.437908
392.157 11.1338 0.448657
395.158 11.3916 0.463587
382.818 11.3012 0.472453
368.783 11.1692 0.478555
366.866 11.2111 0.489861
364.189 11.6501 0.520094
413.014 14.0998 0.639917
366.767 12.003 0.551853
348.248 11.8376 0.558532
333.369 11.5013 0.551273
328.449 11.7765 0.575801
340.435 12.4936 0.631832
333.545 12.653 0.644395
329.024 12.4306 0.642403
324.018 12.4513 0.66087
316.778 12.4462 0.663785
310.839 12.5745 0.68609
303.259 12.504 0.697683
304.28 12.8413 0.735847
301.715 12.9935 0.758523
302.416 13.2924 0.781411
285.531 12.67 0.761687
281.451 12.8412 0.781987
289.897 13.6436 0.848345
288.006 13.858 0.874995
280.015 13.5203 0.870201
269.437 13.274 0.862482
262.232 12.812 0.845891
270.078 13.9133 0.943454
266.118 13.8144 0.949757
271.988 14.4848 1.00065
262.685 14.0743 0.992585
251.64 13.5336 0.972124
250.14 14.0446 1.02689
256.283 14.4937 1.07443
242.773 14.2309 1.07474
249.04 14.5685 1.11509
240.588 14.1961 1.10006
235.982 14.4105 1.13912
235.385 14.4246 1.15395
232.073 14.4765 1.17395
238.705 15.2939 1.2601
226.51 14.8203 1.2442
226.54 14.7823 1.25582
222.089 14.8065 1.27004
222.181 15.0759 1.31655
221.572 15.3417 1.36355
220.319 15.2862 1.37724
215.143 15.3713 1.4018
210.156 15.2911 1.41653
210.236 15.6361 1.46731
208.678 15.9017 1.51311
200.167 15.083 1.44995
203.886 15.8573 1.56195
202.984 15.7819 1.5597
199.216 15.6716 1.57527
190.252 15.4028 1.56921
198.677 16.0229 1.64831
191.723 15.9303 1.67221
189.622 15.6953 1.66124
199.518 17.0424 1.8392
188.902 16.0844 1.74178
187.2 16.5493 1.82811
187.771 16.4745 1.83406
186.586 16.8951 1.902
178.425 16.3768 1.8856
184.673 17.13 1.97758
180.336 16.9194 1.99034
182.662 17.247 2.05354
178.698 17.403 2.08971
177.648 17.2136 2.0904
174.76 17.4203 2.15771
170.192 17.1648 2.12637
174.958 17.7655 2.25586
172.238 17.9966 2.28843
166.652 17.0989 2.21644
167.166 17.7202 2.31486
169.257 18.0305 2.38406
165.082 17.8014 2.39701
161.64 17.6654 2.40201
163.004 18.1096 2.46562
159.461 17.9971 2.49187
160.505 18.4784 2.58351
154.985 18.0516 2.56255
156.39 18.1693 2.61727
156.468 18.4587 2.67972
151.712 18.0859 2.64149
151.293 17.9937 2.67597
157.077 19.0573 2.86147
151.436 18.745 2.84625
150.054 18.7769 2.87339
148.708 18.7896 2.92441
146.747 18.7119 2.91901
144.41 19.0353 3.03194
146.864 19.1966 3.06159
145.126 19.4007 3.1455
141.443 18.9385 3.09299
140.099 18.7424 3.09757
141.729 19.3847 3.23741
139.004 19.0853 3.20274
135.632 18.6286 3.17912
137.023 19.5405 3.40538
160.785 23.4435 4.03104
133.101 19.0499 3.32588
130.172 19.1536 3.41086
129.387 19.2812 3.4644
129.31 19.1272 3.44448
133.011 20.0551 3.6574
131.072 20.1299 3.72193
126.062 19.3574 3.60743
122.816 19.3832 3.65373
125.739 19.7972 3.76959
129.615 20.2872 3.89107
119.582 19.2657 3.74869
125.166 20.5053 3.98888
121.831 20.1574 4.00112
121.667 20.2602 4.04648
121.169 19.9953 4.01479
119.204 20.3525 4.13007
119.185 20.3297 4.17922
117.838 20.5447 4.24639
115.571 20.4109 4.29429
117.197 20.4217 4.29199
118.152 21.0897 4.4797
114.436 20.5537 4.42775
115.992 21.2052 4.6087
115.254 21.1752 4.63028
114.545 20.8755 4.60708
111.663 20.6028 4.59498
110.914 20.9017 4.69654
110.728 21.3807 4.87527
106.245 20.0034 4.59727
110.286 21.0781 4.86058
108.483 21.1957 4.93126
106.916 21.181 4.97391
106.505 21.3028 5.02104
106.438 21.6736 5.18506
101.438 20.6093 4.9654
105.994 22.0345 5.4091
105.931 21.8619 5.35871
102.662 21.3706 5.27414
102.32 21.3356 5.31552
102.769 21.5218 5.40927
100.121 21.5566 5.51795
104.423 22.1967 5.63386
98.7065 21.3319 5.51151
100.808 21.7923 5.69697
98.3287 21.4778 5.612
96.7893 21.2381 5.60751
96.7087 21.8546 5.85124
98.2945 22.5058 6.0216
95.5854 21.7833 5.8921
95.1178 21.8294 5.99798
95.422 21.9552 6.03109
89.9027 21.3012 5.96227
95.2085 22.7199 6.35349
93.975 22.5857 6.36062
90.5703 21.8084 6.21472
90.6063 22.1824 6.33982
90.8763 22.3058 6.40086
89.3907 22.242 6.50137
90.4032 22.2711 6.52678
89.6963 22.4736 6.65796
90.0641 22.5872 6.73687
88.5266 22.4586 6.75887
86.4744 22.125 6.69614
89.2203 22.5171 6.85728
86.714 22.7497 7.0315
86.4813 22.5106 6.91909
86.3306 22.7843 7.08896
84.9306 22.6733 7.16403
85.3928 22.7881 7.16427
82.717 22.7192 7.25615
82.2928 22.6119 7.30255
82.9569 22.8316 7.38419
84.0044 22.9371 7.47866
83.7629 22.9886 7.45951
82.3844 23.3105 7.77845
82.1717 23.2423 7.78337
82.1765 23.1979 7.75437
83.481 23.9928 8.1366
80.3905 23.1039 7.82583
79.2492 23.1777 7.93036
80.4734 23.6541 8.16722
80.1942 23.2929 8.03981
77.2362 23.0244 8.08269
79.7101 24.1815 8.56729
76.8525 23.0381 8.17889
76.1504 23.0538 8.20391
78.1913 23.8767 8.61143
75.3957 23.3034 8.42134
73.924 23.1986 8.55524
77.035 24.0668 8.81477
73.9727 23.0532 8.53149
73.7254 23.2861 8.66785
71.5693 23.0549 8.69008
72.8408 23.6035 8.94438
73.1142 23.777 9.17542
89.2388 29.3643 10.8997
70.5457 23.5184 9.13425
70.7517 23.4602 9.12816
69.43 23.2197 9.07084
69.2857 23.5722 9.31327
71.6736 24.3028 9.57398
68.609 23.6223 9.43623
69.6291 24.143 9.69729
67.0313 23.1511 9.41317
68.7195 23.675 9.59721
69.2967 24.2913 9.91355
67.4519 23.8548 9.7817
67.3139 23.718 9.79892
67.08 23.9056 9.9252
65.8611 23.3366 9.7213
66.9917 24.4185 10.2517
66.129 24.1168 10.3039
66.6824 24.2546 10.3811
65.1234 24.055 10.3035
65.632 24.1494 10.4026
60.0196 22.7155 9.95581
63.1988 23.8585 10.47
64.2806 24.1503 10.6283
61.0374 23.3792 10.507
63.6855 24.1551 10.7632
64.069 24.5549 10.9816
61.7897 23.948 10.8283
62.2086 24.0965 10.9252
62.1637 24.01 11.0613
60.4605 24.1824 11.1151
61.5422 24.3221 11.2432
60.4992 24.3437 11.3861
61.0235 24.5233 11.4088
60.8803 24.8147 11.65
60.4267 24.4177 11.6102
59.177 24.4391 11.6863
57.6991 24.231 11.6214
57.0704 24.057 11.623
58.3734 24.2854 11.8374
56.4775 23.4599 11.4737
59.1197 24.8519 12.1746
57.008 23.8676 11.8369
57.7771 24.4771 12.1568
57.8471 24.7753 12.4216
56.1168 23.8081 11.8926
57.3432 24.7735 12.6187
56.0478 24.3352 12.3167
55.7616 25.001 12.7944
54.0992 23.8432 12.2839
55.1973 25.1117 13.0531
54.3162 24.046 12.3822
54.6683 25.0152 13.0789
53.4416 24.5878 13.0448
55.4251 25.2122 13.3245
54.5631 24.6896 13.0795
55.1538 25.1714 13.451
51.9469 23.9353 12.9205
53.1127 24.4737 13.1756
54.7384 25.5665 13.9444
53.4136 24.881 13.7352
52.1128 23.8154 13.1202
53.1641 24.77 13.577
51.5851 24.2101 13.5683
51.3545 24.5095 13.5084
50.7417 24.6509 13.9349
50.3246 24.3346 13.6568
51.2771 25.2079 14.2329
50.017 24.6594 14.2275
49.3487 24.5032 14.0639
50.2658 24.5538 14.0783
48.7877 24.2674 14.2596
50.0645 24.6314 14.2719
48.1164 24.531 14.3855
48.6335 24.9494 14.7257
48.021 24.3287 14.4009
48.5271 24.7943 14.7087
47.8848 24.8242 14.8546
47.9835 24.848 14.881
48.4048 25.1349 15.189
47.8566 24.738 15.0496
47.1308 24.7944 15.0341
47.3902 24.7934 15.2482
46.1694 24.5286 15.2393
46.0883 24.8043 15.3882
45.5946 24.6362 15.5371
44.9677 24.0115 14.9485
45.9855 25.3884 16.1135
45.9544 24.9781 15.93
46.2316 25.2731 15.9849
45.0989 24.9524 15.9597
44.1306 24.4138 15.7855
44.2421 24.6589 15.8633
44.4856 25.0987 16.375
44.6671 25.2816 16.6234
43.4083 24.4303 16.1339
44.4887 25.2744 17.0557
53.0724 31.2885 20.128
43.5982 24.9846 16.7382
45.2588 25.7514 17.0355
43.2925 24.9156 16.7485
43.5051 25.451 17.1089
42.375 24.5532 16.785
42.7856 25.3096 17.3621
43.2172 25.291 17.3151
42.6189 25.3323 17.4246
42.1266 25.0991 17.3836
41.7596 24.9926 17.4014
42.6614 25.6203 17.9326
41.9896 25.0817 17.5388
40.4208 24.5377 17.4078
40.2746 24.2598 17.2829
41.0955 25.0142 17.7363
41.1408 25.2992 17.992
39.3106 24.3737 17.4774
40.8351 25.7004 18.5175
39.6394 24.9029 18.1032
40.377 25.1943 18.3085
39.1123 25.0929 18.5712
40.0546 25.2228 18.5542
38.909 24.6203 18.3067
39.9773 25.4938 18.8465
38.1364 24.6094 18.3704
38.4636 24.5798 18.2615
40.0382 25.6667 19.1458
38.6099 25.1378 19.064
38.0026 24.8565 19.1011
38.2503 25.092 19.2723
38.3043 24.855 18.9985
37.1836 24.5571 18.9615
37.7868 25.3808 19.6464
36.9402 24.2179 18.7105
36.9676 25.0019 19.377
36.7812 25.0322 19.801
37.1184 24.9517 19.3132
36.1239 24.8505 19.786
36.4003 24.0769 19.0085
36.4925 25.1598 19.8968
36.8583 25.28 20.3725
36.0053 24.8789 19.9237
36.495 25.4848 20.466
36.0037 25.1921 20.5969
35.6127 25.1427 20.4675
34.7312 24.9707 20.4603
35.5239 24.7649 20.0677
35.3681 25.3197 20.9834
34.8459 24.8563 20.5936
34.8273 25.0983 20.9373
34.9798 25.4323 21.4245
35.1404 24.7304 20.8248
35.2684 25.2588 21.1643
35.4462 25.2521 21.0869
33.6075 24.6966 21.17
33.9136 24.7983 21.2188
33.7314 24.7042 21.0791
33.1035 23.9331 20.5015
33.7877 25.2212 21.9146
33.4178 24.781 21.4395
33.4992 24.8443 21.4418
32.5972 24.9891 22.0618
33.2747 24.5297 21.5851
32.9335 25.0114 21.9643
32.5248 24.9444 22.0086
32.7411 25.16 22.3782
31.9346 24.471 21.8883
31.902 24.7284 22.1795
32.7224 25.057 22.6969
31.269 24.5718 22.2345
32.344 24.864 22.5532
32.2984 25.0747 22.536
32.2231 25.4008 23.247
31.7424 25.6066 23.7494
31.5839 24.7685 22.8202
31.8743 25.3439 23.3987
31.2718 24.9188 23.2442
31.0501 24.4875 22.7735
30.1277 24.3699 23.0535
31.9905 25.5516 23.8479
30.3843 24.5104 23.0796
31.0217 25.0403 23.8895
30.4596 25.0326 23.9129
29.8298 24.6133 23.8653
30.7773 24.9711 23.6094
29.5913 24.8969 23.8482
29.8841 24.6137 23.7893
29.1415 24.393 23.737
29.3728 24.5214 23.979
29.8972 25.1368 24.5075
29.494 24.5942 24.2059
28.8739 24.3638 24.1433
28.9358 24.3587 24.1664
29.5049 25.3461 25.1456
28.3108 24.672 25.3674
34.0281 29.4953 28.3392
28.6292 25.0749 25.1868
27.8228 24.2555 24.7409
28.5736 24.6509 25.1919
28.8338 25.1765 25.5434
28.4913 24.858 25.3372
28.3537 25.0365 25.5658
27.8131 24.7378 25.3533
28.1225 24.6542 25.1203
28.1458 25.1901 26.2929
27.3028 24.3998 25.3684
27.8649 24.7419 25.8305
27.9337 25.3277 26.4022
27.3491 24.6793 26.042
28.3256 25.5255 26.4752
26.897 24.6388 26.3939
28.1563 25.4792 26.7642
25.7463 23.6312 25.4666
27.2073 24.7316 26.2844
26.8911 24.7505 26.5786
26.4018 24.5773 26.5236
26.1725 24.3695 26.5029
26.744 25.0701 27.2675
26.9107 24.7565 26.9621
26.2488 24.4171 26.5338
25.9378 24.3552 26.5933
25.8365 24.4328 26.8479
25.8185 24.5823 27.1284
26.2004 24.4323 26.9538
25.4215 24.1725 26.9018
25.2031 24.3529 27.3403
25.2576 24.2575 27.0295
25.4527 24.5203 27.4579
25.1261 24.0172 27.1072
25.0663 24.0679 27.2048
24.8468 24.2832 27.7086
25.3895 24.7506 28.2455
24.1115 23.3082 26.7013
24.81 24.174 27.7441
24.1216 23.2385 26.6694
25.1875 25.1005 28.9997
24.9905 24.5659 28.565
24.2822 24.2796 28.0339
24.4182 24.6489 28.8455
23.95 24.155 28.3774
23.6631 24.1054 28.7887
24.5439 24.514 28.64
23.6086 23.8587 28.3929
23.7722 23.9242 28.4283
23.4009 23.4706 27.8315
23.3157 23.5045 28.3203
24.0374 24.569 29.5949
23.4599 23.9834 28.6329
23.8784 24.8602 29.9106
23.5666 24.2483 29.6598
23.8815 24.5642 29.7006
23.0943 23.8818 29.347
23.2417 24.1588 29.4869
23.2444 24.4384 29.9953
22.7417 24.0122 29.6464
23.301 24.4793 29.9632
22.7778 24.1064 29.7465
22.5754 23.5077 29.4298
22.3617 23.905 29.7653
22.2206 23.936 30.0109
23.0871 25.1185 31.4238
22.3554 23.942 30.0483
22.1911 24.0837 30.798
22.3165 24.0463 30.2567
22.3158 24.2613 30.5831
22.5728 24.7206 31.3585
21.9912 24.3702 31.5994
21.7805 23.7732 30.4298
21.2937 24.0329 31.1668
21.8317 23.7822 30.6345
21.4445 23.7882 30.838
21.4666 23.8785 31.3388
21.4743 23.8163 31.2827
21.5647 23.8285 30.7595
21.4539 24.2378 31.4564
21.1629 23.6685 31.4825
20.6259 23.1795 30.5082
21.0998 24.0456 31.9212
20.3561 23.1853 31.3326
20.9462 23.9356 31.9672
20.9486 23.5397 31.1699
20.9667 24.0615 32.301
21.0703 24.1156 32.3792
20.6135 23.7625 31.9432
21.0603 24.1854 32.492
20.6233 23.9085 32.2537
20.804 24.4116 33.2161
20.2322 23.6821 32.2458
20.2338 23.8107 32.8901
20.8971 24.8698 34.4133
20.4141 24.5421 35.6773
24.4052 28.7542 37.2989
20.2048 23.8882 32.7448
19.7813 23.6547 33.3204
20.3189 24.1929 33.894
19.8009 23.6839 33.3377
20.1571 24.2929 34.009
19.3356 23.2045 32.8123
19.6708 23.6368 33.4309
19.5008 23.4933 34.1093
19.9989 23.8964 33.8039
19.24 22.7272 32.2414
19.7763 23.7498 33.8274
19.4359 23.7027 33.8794
19.4518 23.3979 32.9681
18.7277 23.2092 33.5827
18.4758 23.029 33.4645
19.2217 23.623 33.8063
18.7517 23.2138 33.912
19.1555 23.7967 34.3523
18.5559 23.2716 34.4383
18.6237 23.4613 34.1198
18.5979 23.3891 34.6861
18.7012 23.2576 34.1451
18.7306 24.0381 35.8573
18.7189 23.2723 34.1449
18.5973 23.4359 34.4848
18.2029 22.8029 33.8314
18.2497 22.8622 34.4593
18.5565 23.5867 35.2518
18.1176 22.852 34.5563
17.8473 23.1095 35.0196
18.1232 23.3953 35.2405
18.264 23.5922 35.8394
18.0833 23.2841 35.1471
17.4622 22.6751 34.8601
17.8449 22.7397 35.0416
18.3035 23.7098 35.9021
17.4165 22.5513 34.8769
17.7187 23.1026 35.5556
17.567 23.2336 35.9255
17.3758 22.9977 36.2582
17.9578 23.3064 35.4485
17.1763 22.8729 35.7587
17.0016 22.4034 35.107
17.3954 23.35 36.6444
17.0895 22.537 35.507
17.1397 22.7399 35.8995
17.2928 23.3315 36.8093
17.1246 23.0258 36.3107
17.0305 22.7818 36.2963
17.0289 23.0202 36.274
17.3655 23.6684 37.4254
16.8505 23.5059 37.7324
16.9624 22.6264 36.2378
16.4998 22.4267 35.8709
16.2213 22.9434 37.6802
16.3 22.5395 36.6561
16.4756 22.3001 36.1178
15.925 22.0898 36.3238
16.4338 22.8899 37.2871
16.4354 22.7469 37.1824
16.2714 22.787 37.6537
16.2685 22.3782 36.886
16.4998 23.0388 38.0284
16.1597 22.338 36.9837
16.5087 23.2029 38.1952
16.4253 22.7039 37.5057
16.2039 22.4198 37.3703
15.9712 22.3341 37.305
15.6073 22.4529 37.3494
15.5073 21.9821 36.6735
15.554 22.6788 38.5462
15.6177 21.714 36.6772
15.7335 22.5495 37.5835
15.0597 21.983 37.7149
15.5353 22.1824 37.8164
15.6389 21.9122 37.2043
14.9628 21.7904 37.4108
15.513 22.6969 39.1809
15.4263 22.1131 37.8163
15.2767 22.4879 38.6253
15.2682 21.9337 37.9444
15.4185 23.0557 40.5723
15.079 21.945 38.1872
15.2543 22.0072 38.1566
15.0152 22.1939 38.5165
14.8705 21.6907 37.8821
14.8171 22.207 39.2317
15.0698 22.5398 39.3189
14.7263 21.759 38.4481
14.974 21.8574 38.4441
14.917 22.4529 39.5165
14.479 21.8047 39.1559
14.8343 21.848 38.5677
14.7268 22.011 39.0149
14.4033 22.2053 43.0313
17.8255 27.1195 45.085
14.9801 22.3974 39.5586
14.0567 21.6597 39.2346
14.2067 21.5552 39.3556
14.1307 21.6492 39.1957
14.0247 20.838 37.7609
14.1412 21.6096 39.5584
14.2196 21.5948 38.7898
14.0393 21.4566 39.2588
14.1463 21.8485 39.9678
13.9123 21.3782 39.4718
14.0588 21.2618 38.6203
13.9245 21.8826 40.2179
13.7314 21.5776 40.0391
13.8962 21.513 40.2207
14.0659 21.7571 39.7846
13.6642 21.3684 39.7152
13.675 21.2966 40.4336
14.2024 22.4023 42.1293
13.8187 21.7469 40.609
13.648 21.1633 39.9994
13.7445 21.7394 40.9336
13.2737 21.1956 40.0151
13.6427 21.6096 40.7415
13.3766 21.1673 40.1308
13.4086 21.1989 40.5489
13.524 21.6971 41.3199
13.3612 21.1479 40.4205
13.532 21.3676 40.0068
13.3259 21.1379 40.6866
13.3451 21.4933 41.2118
13.0917 21.292 41.1635
12.9984 21.1487 40.0618
13.1068 21.4772 41.4575
12.9135 21.0181 40.7954
12.6163 21.0223 40.9558
13.1047 21.3564 41.8501
12.7645 20.9873 41.8731
13.1694 21.6831 41.9561
12.8131 21.1601 41.6891
12.7791 21.3146 41.683
12.5542 20.5989 40.8908
13.035 21.281 41.5774
12.7554 21.3608 41.7987
12.9383 21.0061 41.0947
12.5185 21.0831 41.3235
12.0764 19.9135 40.3327
12.4749 20.865 42.2895
12.9272 21.6888 42.4908
12.1859 20.9686 42.6739
12.3089 20.3506 41.4566
12.6201 20.6107 41.3017
12.5303 21.438 42.6848
12.4809 21.196 42.6889
12.4828 21.3923 42.877
12.1708 20.6719 42.7388
12.3985 20.9879 42.3594
12.28 20.7929 43.2194
12.6 21.748 44.2903
12.3506 21.2214 42.9896
12.253 20.9526 43.0081
12.0692 20.7866 43.0213
12.0623 20.4516 41.9384
12.0166 20.6577 42.7384
12.0779 20.9658 42.9973
12.0335 20.8501 43.4736
12.1929 21.1183 42.8404
11.6776 20.0815 42.3923
11.786 20.5969 42.7496
11.4332 20.4336 42.5603
11.5506 20.2464 42.972
11.7991 21.0045 44.0241
11.8298 20.6677 43.3955
11.5872 20.0027 41.5884
11.3326 20.1459 42.7598
11.3546 19.8422 42.476
11.3232 19.8726 42.2047
11.0293 19.4476 41.8221
11.3103 20.0275 42.6375
11.2401 19.9056 42.734
11.2901 19.9551 42.9775
11.4349 20.2994 43.5206
11.2359 20.216 43.2048
11.113 19.9261 43.1077
11.295 19.9391 42.6692
11.2033 20.0598 43.178
11.2812 20.7302 44.5793
11.0492 20.039 43.2598
10.9442 20.2719 44.9677
11.2689 20.3699 44.7549
11.2779 20.2774 44.0307
11.2974 20.5684 44.8169
10.8002 19.766 43.9233
11.0047 19.6706 43.2334
11.0825 20.6637 44.8009
10.8256 20.5886 50.3473
13.2623 24.0317 48.2859
11.2616 20.5767 45.4783
11.1924 20.2778 44.6912
10.8828 20.1119 44.6497
10.8105 19.2266 42.841
10.7254 19.9557 44.0024
10.7455 20.2936 45.3231
10.5925 19.29 43.1192
10.4336 19.7838 44.7928
10.7563 19.9596 44.3183
10.5007 19.6655 44.8446
10.7098 20.2525 45.1036
10.3965 19.0293 43.3362
10.3349 19.6345 44.5515
10.4652 19.6695 45.0341
10.8644 20.5022 46.5201
10.7777 20.3526 45.7518
10.2405 19.6432 44.9076
10.1803 19.0604 44.208
10.2052 18.9559 42.2803
9.93883 18.8962 43.1109
10.1922 19.8338 45.6303
10.2661 19.234 44.8361
10.277 19.3634 44.8561
10.4441 19.8589 45.0412
10.0337 19.3203 45.1749
10.2389 19.6884 46.2082
10.2422 19.9757 46.6041
10.61 20.0229 46.3347
10.0494 19.3999 45.3447
10.107 19.3944 44.9406
10.0968 19.839 46.5387
10.0475 19.3389 45.6145
9.80613 19.3341 46.4936
10.0075 19.6821 46.3611
10.1658 19.4739 45.5113
9.81686 19.4291 46.2052
10.0912 19.5757 46.4393
9.94546 19.6273 46.3062
9.72212 18.8156 44.7117
9.76469 19.1682 45.517
9.7674 19.5698 47.0062
9.775 19.1931 45.7256
9.62418 19.1233 46.5071
9.74131 19.1933 46.4855
9.9516 19.7021 46.6956
9.58276 18.7113 45.0195
9.64586 19.2306 46.0254
9.75197 19.2804 46.1325
9.66557 19.4907 46.0364
9.27493 18.4804 45.9744
9.46798 18.7062 45.4453
9.37242 18.7784 45.9677
9.40343 18.7271 45.998
9.70196 19.3216 46.7757
9.43351 19.316 47.856
9.7981 19.611 47.4413
9.69349 19.2873 46.7631
9.33826 19.12 46.9149
9.28811 18.6174 46.1008
9.41611 19.1406 47.0311
9.11782 18.364 45.1219
