# pn-170911/RbIIR-52-RbIIF-1280-1959.psd
# Power spectrum* (dif=0,1,2) (really just |FT|^2)
# NOTE: only the first half! (symmetric)
# weeks: 1280-1959
# 2512 clock-days, 29 excluded
# PSD: 1441
718.219 0.173075 0.0209901
33821 0.625785 0.0241035
157524 4.11478 0.0230762
24437.8 0.856364 0.023936
104561 8.60309 0.0242174
8257.86 0.759305 0.0245428
9094.02 1.70729 0.0238866
4082 0.746815 0.0248336
7181.94 2.08318 0.0237414
2697.82 0.727786 0.0236941
2528.98 1.05998 0.024038
1641.99 0.718179 0.0245265
2001.22 1.09409 0.0252886
1281.69 0.766349 0.0244075
1201.4 0.934448 0.0248392
1035.22 0.837743 0.0246678
1014.03 1.06075 0.025467
745.517 0.811478 0.0250376
811.728 0.976872 0.0257645
680.884 0.898475 0.0258945
628.98 0.95927 0.0267844
579.816 0.954583 0.0259685
536.802 1.01757 0.0271751
497.563 0.97169 0.0261315
467.341 1.02568 0.0275602
431.104 1.08323 0.0266239
409.313 1.08689 0.0279576
379.162 1.07814 0.028845
370.427 1.14214 0.0289938
355.397 1.19671 0.0266981
350.493 1.28901 0.0303159
335.948 1.25268 0.0289112
330.967 1.33348 0.0302894
296.884 1.3081 0.0304741
284.02 1.35295 0.03188
296.133 1.49963 0.0325537
287.475 1.55209 0.0337288
252.791 1.48767 0.0340499
271.866 1.62868 0.0353766
250.552 1.62443 0.0364969
263.553 1.69313 0.0372903
238.14 1.6727 0.0384785
238.598 1.76201 0.0393676
237.11 1.83642 0.0403051
234.349 1.86009 0.0407181
228.253 1.96173 0.0441011
215.219 1.94888 0.0436989
221.788 2.07125 0.045812
236.128 2.32616 0.0498122
214.321 2.18307 0.048922
208.246 2.24561 0.0516618
208.31 2.28798 0.0532422
211.848 2.46874 0.056986
223.282 2.65613 0.0593434
195.283 2.50461 0.0579481
202.854 2.63558 0.0637377
204.772 2.75273 0.0637096
203.624 2.838 0.0660772
196.338 2.87793 0.0701713
194.17 2.90814 0.0726583
204.196 3.11484 0.0768384
188.894 3.04445 0.0758222
198.42 3.28805 0.0855855
182.7 3.22166 0.0852324
183.571 3.31199 0.0886348
180.009 3.36201 0.0938575
181.57 3.47638 0.0949509
180.577 3.64837 0.103668
173.877 3.52566 0.101026
181.237 3.81855 0.110712
175.091 3.79506 0.114751
166.86 3.77625 0.117543
175.343 4.00909 0.123014
167.718 3.90923 0.126697
171.609 4.1615 0.132537
164.264 4.09335 0.133811
163.427 4.24937 0.141506
163.251 4.3426 0.147187
173.942 4.59411 0.15984
155.023 4.38126 0.1547
159.408 4.51102 0.158679
154.868 4.63609 0.170015
156.589 4.82104 0.177122
157.577 4.89665 0.18251
162.475 5.24263 0.198981
149.357 4.82154 0.184692
149.366 5.05081 0.201217
156.582 5.33034 0.216315
144.825 5.05579 0.209786
147.183 5.3489 0.222533
150.715 5.47065 0.23005
159.853 6.03863 0.261269
145.752 5.61462 0.246782
142.851 5.67954 0.252295
140.313 5.5994 0.261756
146.375 5.90904 0.277079
202.861 8.68039 0.395233
138.77 5.87935 0.289864
140.072 6.13823 0.30753
140.535 6.20777 0.311271
138.783 6.19825 0.320211
145.842 6.75683 0.349785
145.064 6.89635 0.362472
143.147 6.8664 0.369478
139.044 6.67493 0.365823
136.914 6.83896 0.37728
132.555 6.62826 0.375051
127.504 6.71111 0.389707
135.668 7.20545 0.422794
132.774 7.26008 0.433059
132.094 7.24816 0.438386
129.851 7.29306 0.447411
123.489 7.05377 0.440735
132.763 7.82104 0.495444
138.83 8.22803 0.526207
124.826 7.57093 0.498195
133.573 8.20922 0.545551
127.3 7.87798 0.532482
122.617 7.87733 0.542591
129.443 8.4051 0.590135
125.937 8.24008 0.580749
121.5 8.14903 0.5818
123.721 8.426 0.614986
119.686 8.42503 0.62139
117.834 8.36422 0.621459
119.399 8.52532 0.656225
129.44 9.48406 0.730973
125.357 9.21914 0.722372
113.383 8.59582 0.688943
117.645 8.93881 0.718161
113.986 8.76341 0.721076
121.824 9.60317 0.804744
123.612 9.73153 0.821777
118.333 9.60146 0.821219
113.725 9.30846 0.8131
113.664 9.57264 0.853726
112.983 9.6347 0.859993
111.019 9.48219 0.866262
111.2 9.62741 0.881033
112.271 9.99148 0.936718
109.82 10.0095 0.946373
107.426 9.77289 0.938801
107.062 9.81365 0.950597
110.003 10.2411 1.00172
120.703 11.6081 1.15642
109.958 10.5034 1.05062
106.388 10.4005 1.0607
103.887 10.3292 1.08238
111.799 11.3979 1.209
104.721 10.5092 1.11765
107.943 11.1178 1.20002
104.888 10.8338 1.19593
104.711 11.0193 1.21576
102.685 11.1124 1.25081
103.595 11.2572 1.28209
106.771 11.881 1.385
110.886 12.1767 1.39577
99.1788 11.2727 1.33411
100.008 11.3797 1.36191
96.2031 11.1375 1.34369
97.3778 11.3088 1.36738
102.905 12.3369 1.53078
98.5223 11.8403 1.46329
94.9924 11.6675 1.48153
98.9791 12.3187 1.59016
102.723 12.8035 1.65368
97.2925 12.3477 1.61977
101.629 13.0698 1.72712
100.444 13.0938 1.75714
98.268 12.8041 1.73298
96.5471 12.8477 1.76884
91.9033 12.2703 1.6963
92.9584 12.7016 1.79295
89.8194 12.3854 1.77158
94.3807 13.1167 1.89224
96.3411 13.3605 1.92646
91.5106 12.9402 1.88852
89.2416 12.954 1.92934
91.4958 13.3581 2.01583
91.8247 13.6112 2.075
94.1416 14.0029 2.12886
89.305 13.3428 2.08312
89.5193 13.5276 2.11288
91.2141 13.8811 2.20248
87.7548 13.5301 2.14932
92.3312 14.3653 2.31622
89.0736 14.046 2.28559
86.4782 13.5938 2.24358
84.9145 13.6736 2.27949
88.3809 14.2289 2.4038
84.5175 13.8844 2.35621
84.7789 14.1281 2.46693
126.698 21.4696 3.67599
87.3874 14.7959 2.60297
83.221 14.4893 2.58966
86.3519 14.9658 2.66977
87.9693 15.2812 2.73794
82.7421 14.7748 2.70603
82.3572 14.8234 2.75694
84.72 15.37 2.8748
79.59 14.4948 2.71691
75.4254 13.977 2.66613
82.9527 15.6581 3.00463
82.2222 15.4355 3.00546
81.9664 15.7324 3.09921
81.1693 15.5763 3.06191
77.082 14.987 2.98752
79.3314 15.4958 3.11766
78.266 15.4695 3.12468
76.8043 15.4806 3.18046
77.5117 15.44 3.16867
74.9515 15.5339 3.27456
74.8107 15.5986 3.29066
73.3185 15.2875 3.26067
74.3973 15.6343 3.36472
75.4712 16.2662 3.59827
77.9239 16.4795 3.55694
72.5641 15.6619 3.46558
73.8204 16.1184 3.60783
74.8964 16.4366 3.70688
74.2949 16.5962 3.74667
73.0463 16.2437 3.69767
73.0574 16.5774 3.86084
76.6796 17.3775 4.00489
68.469 15.8728 3.77115
71.4682 16.4786 3.89007
69.5557 16.3618 3.94565
71.9171 16.9062 4.0739
75.2594 17.8454 4.3484
70.2484 16.7832 4.10068
70.5254 17.062 4.21075
70.1737 16.9968 4.21314
68.6957 16.9322 4.27289
70.5443 17.5477 4.45117
71.364 18.0323 4.62264
68.5179 17.2953 4.45656
67.6764 17.1322 4.40559
62.8567 16.2571 4.28446
68.8011 17.8099 4.70523
65.9949 17.2224 4.63483
69.2798 18.1611 4.8307
64.3036 17.0682 4.61537
63.143 16.8513 4.62826
64.5756 17.4883 4.829
64.6074 17.4747 4.86966
65.862 18.0276 5.02881
64.9073 17.9959 5.06845
64.3929 17.8788 5.04186
60.9068 17.2583 4.986
62.8519 17.6458 5.09137
63.1482 17.9904 5.20732
60.8936 17.5661 5.14696
63.418 18.6216 5.53457
63.6676 18.4094 5.416
62.5311 18.4847 5.54284
62.3083 18.5356 5.64523
61.3511 18.2279 5.50531
61.0986 18.4512 5.67858
61.0709 18.4214 5.65127
59.3667 18.2303 5.68532
60.5324 18.6535 5.80194
59.1024 18.4613 5.87782
57.3571 17.9073 5.68986
58.8816 18.5846 5.98408
60.934 19.287 6.19723
57.6083 18.2857 5.92854
58.4276 18.8437 6.16444
55.5811 18.0256 5.93863
55.5497 18.4436 6.21772
56.3711 18.5187 6.19511
56.887 18.951 6.4206
56.7057 18.9427 6.39363
55.4125 18.5042 6.30403
53.328 18.206 6.28042
56.1581 19.2017 6.67016
56.6299 19.5287 6.90303
56.1818 19.3909 6.7634
53.2844 18.6211 6.62451
56.1576 19.491 6.92575
51.5489 18.2888 6.60008
56.0209 19.7587 7.07917
52.8522 19.0153 6.97238
53.7336 19.208 7.10642
53.5306 19.3582 7.13799
52.2462 18.9086 7.02962
52.2014 19.2351 7.21776
51.3054 18.9671 7.21688
52.1104 19.7098 7.71193
81.2966 29.7523 10.9851
52.1016 19.856 7.70349
53.0416 19.9756 7.80487
51.9738 19.7733 7.70743
50.9257 19.3958 7.63864
51.2953 20.0599 7.97632
50.5433 19.3042 7.65027
48.5979 19.0919 7.65794
48.6784 18.9946 7.6153
48.7128 19.5217 7.95055
49.8957 19.9053 8.03078
46.5314 19.1344 7.99368
49.4229 20.2178 8.39682
50.6918 20.6933 8.6074
49.2311 20.3142 8.45314
47.7788 19.7752 8.31726
46.9744 19.5824 8.34246
47.3706 19.9889 8.58642
46.6412 19.6062 8.41753
45.7133 19.4118 8.34364
44.931 19.3379 8.51253
45.6867 19.6018 8.52913
45.3743 19.6208 8.64971
44.8566 19.3553 8.54854
45.0799 20.0702 9.03543
45.1115 19.7871 8.87345
46.2043 20.5611 9.28636
44.1181 19.7241 8.94398
43.3458 19.464 8.90494
45.7429 20.572 9.43047
43.3158 19.8265 9.27404
44.8512 20.244 9.35902
44.4034 20.3573 9.49522
42.279 19.3678 9.0534
42.5921 19.8818 9.42322
43.3196 20.446 9.80261
42.3374 19.8503 9.4234
41.4578 20.034 9.74074
41.8049 20.0905 9.79127
40.6598 19.5958 9.56684
41.8043 20.2015 9.92323
39.9018 19.4021 9.67095
42.2767 20.8685 10.3943
41.4329 20.4508 10.2061
40.2483 19.9563 10.0691
39.8256 19.7805 9.96778
39.4884 19.7815 10.0559
39.5408 19.9296 10.1838
40.0652 20.1605 10.3612
42.5587 21.6245 11.0771
37.7784 19.4182 10.1596
39.5866 20.5635 10.8168
39.7533 20.5197 10.7206
40.2925 20.9536 11.075
39.1969 20.7778 11.2116
41.7702 21.9242 11.6696
39.473 20.7858 11.1908
39.4741 20.9561 11.3141
38.4564 20.4419 11.041
37.8717 20.3357 11.086
36.5301 19.8453 10.9282
36.8208 19.9217 10.9216
37.3795 20.6656 11.5572
36.5915 20.1242 11.3642
38.0246 20.9792 11.7766
36.7825 20.304 11.4569
37.5323 21.0043 11.8735
37.3643 21.0088 11.9596
37.0877 20.9805 12.0529
37.3219 21.0254 12.0328
35.7385 20.6091 11.9966
35.3709 20.3774 11.8911
35.61 20.7675 12.3406
35.9932 20.83 12.2275
34.2476 19.771 11.6787
36.2635 21.1452 12.5366
34.666 20.3116 12.1558
36.1503 21.4238 12.955
34.8286 20.8135 12.685
34.2928 20.1393 12.175
34.8265 20.9551 12.6692
33.363 20.4446 12.6925
33.9151 20.6112 12.7302
35.0792 21.4157 13.2646
33.4935 20.6235 12.9231
33.8928 20.687 12.8325
33.4652 20.9471 13.1519
32.4969 20.4672 13.0471
32.6907 20.4871 13.0769
32.7885 20.5029 13.0976
32.7153 20.7515 13.4336
33.5242 21.3084 13.8003
32.6313 20.922 13.6504
33.0319 21.0369 13.6521
31.7229 20.5116 13.5419
32.596 21.555 14.9424
50.2695 31.9404 19.7863
31.3393 20.6992 14.0249
32.2065 21.5724 14.6395
31.2224 20.5032 13.8522
32.3264 21.3417 14.3209
32.0179 21.2256 14.4047
30.6985 20.359 13.9235
30.9259 20.6477 14.082
31.5547 21.1013 14.326
30.8194 21.2263 14.8844
30.1384 20.507 14.3791
29.7059 20.0049 13.8426
30.0298 20.5413 14.4074
29.4958 20.3415 14.4757
31.1596 21.6041 15.3434
30.9112 21.5338 15.0941
30.0404 21.0694 15.0656
29.3507 20.6887 14.8819
29.8717 21.4873 15.4899
28.493 20.3166 14.862
30.6092 21.6398 15.5206
27.7156 20.332 15.0079
28.9377 20.9966 15.5458
28.6321 20.6444 15.1742
28.9805 21.5226 16.1243
28.7457 20.7781 15.2942
27.2819 20.2691 15.2819
27.3346 20.1489 15.2519
28.4105 21.2371 16.0957
28.4603 21.0525 15.7493
27.1451 20.5027 15.854
28.9372 21.6295 16.4299
28.269 21.4538 16.6076
28.6042 21.3986 16.3544
27.8653 21.2922 16.5105
27.9995 21.4247 16.6231
26.4258 20.4372 16.1109
27.1776 20.9441 16.4261
26.6002 20.6364 16.2016
26.5796 20.9589 16.7643
26.2688 20.5252 16.4297
26.9156 21.0288 16.7988
27.2171 21.6914 17.5082
26.498 20.8897 16.7008
25.63 20.8238 17.157
26.6301 21.2913 17.2688
26.331 21.1129 17.0485
25.0802 20.1875 16.6358
25.3926 20.7053 17.2155
25.8187 20.693 16.9507
25.5377 20.9735 17.6138
25.5912 20.9207 17.3426
24.6827 20.3924 17.1357
24.87 20.5663 17.4068
24.6785 20.6114 17.7105
25.3591 21.0181 17.8201
24.0863 19.9115 16.8272
25.1202 21.0353 17.9366
25.1428 21.1935 18.1101
23.5002 20.1241 17.6659
25.2475 21.3476 18.345
24.9593 21.6426 18.9355
24.4945 20.8027 17.9707
24.6195 21.5304 19.0511
24.4315 20.9975 18.2722
23.619 21.2146 19.2684
24.3843 20.9063 18.4008
23.2188 20.4507 18.3161
23.6426 20.6447 18.4107
23.1999 20.3258 18.2953
23.1709 20.9663 19.3179
23.5431 20.6431 18.6634
23.2641 20.8756 19.0685
23.4523 21.1183 19.4415
23.756 21.139 19.3322
22.8656 20.5315 18.8614
23.9659 21.9273 20.1279
22.126 20.1713 18.7604
23.1276 21.3433 20.0667
23.2996 21.3931 19.9438
22.9949 21.1163 19.6489
22.1388 20.8794 19.8648
22.4058 20.9095 19.7788
22.4699 21.0248 20.0632
22.3302 20.9587 20.025
21.7366 20.0307 18.9566
21.4679 20.5536 19.9755
21.3809 20.2915 19.6377
21.3001 20.3124 19.6941
21.9649 20.9202 20.2448
21.445 20.6741 20.2393
21.7588 21.0995 21.0535
21.3835 20.4815 20.1406
21.4064 20.4875 20.3766
21.3233 21.0411 21.1333
21.678 21.4545 23.0283
34.1941 32.5429 29.5008
21.0632 21.0814 21.6041
21.2857 21.1019 21.1877
20.0803 20.0778 20.5486
20.7452 20.6922 20.8852
20.4 20.6506 21.2489
21.1865 21.3512 21.9665
21.1421 21.1558 21.298
19.7696 20.0209 20.7209
20.2107 20.6397 21.6515
20.2445 20.3 20.9305
20.1332 20.8221 21.6417
19.918 20.8533 21.9212
20.0727 20.8596 22.1502
20.2678 20.5049 21.1421
19.8723 20.916 22.1605
19.8992 20.686 22.0346
19.8879 20.6747 21.6583
19.2142 20.5946 22.5628
20.1471 21.1421 22.5711
19.1849 20.1821 21.593
19.2384 20.5593 22.4222
19.5078 20.6566 22.305
19.3964 20.6583 22.3349
18.9595 20.4478 22.4227
18.6242 19.8122 21.6454
19.0107 20.5791 22.3719
18.5421 20.0035 22.0825
18.8796 20.9914 23.4195
18.6312 20.0799 22.2836
18.6424 20.5186 22.8822
18.3627 20.192 22.5212
17.616 19.2852 21.751
18.245 20.3384 23.0425
18.0208 20.1672 23.1119
18.5864 20.1413 22.3811
18.1063 20.3388 23.1765
17.7761 19.936 22.8491
18.2846 20.8272 23.8674
18.024 20.4415 23.5803
18.1061 20.5853 23.8032
17.3937 19.8463 23.2346
17.8992 20.2711 23.2572
17.6687 20.3151 23.6477
17.4022 20.0028 23.5946
17.9092 20.3285 23.6666
17.1814 20.213 24.1778
17.5229 20.04 23.8169
17.0597 19.6558 23.4027
17.1849 19.7667 23.3708
17.1223 19.8027 23.4841
17.1803 20.0027 23.8876
17.5422 20.6944 24.8889
16.8871 19.7476 23.7353
17.1453 20.548 24.9376
16.5517 19.8422 24.2576
17.1468 20.6082 25.0528
16.2447 19.5222 24.1078
16.7926 20.0755 24.6135
15.9495 19.1501 23.5795
16.4095 20.1114 25.083
16.6912 20.0458 24.6148
16.3859 19.9923 24.5503
16.1622 19.9809 24.925
16.1579 19.8845 25.1423
16.2951 19.917 24.8423
16.1325 20.1239 25.3211
16.0294 19.8946 25.3357
15.8805 19.5842 24.7901
15.747 19.7205 25.1923
15.508 19.272 24.6536
15.7415 19.7095 24.9621
15.0947 19.1993 25.022
16.2552 20.4446 26.0758
15.8911 19.9671 25.5041
15.0065 19.0939 24.9994
15.8993 20.274 25.9172
15.0858 19.6273 25.6996
15.0503 19.5568 25.8255
15.561 19.925 25.8909
14.8979 19.1812 25.2672
15.4193 20.1443 26.6313
15.3482 20.069 26.7592
15.4206 20.0942 26.7262
15.0957 19.3735 25.5477
15.0298 20.1261 26.9656
14.9402 19.6024 26.1972
15.1473 20.5609 28.1468
15.1641 19.6976 26.9314
15.1859 19.8569 26.98
15.3567 20.0569 27.5008
15.3545 20.1627 27.1766
15.2218 19.9931 27.1901
14.5755 19.4611 26.8165
15.3256 20.4651 27.9703
14.5838 20.3399 31.1217
22.9227 29.7843 36.7637
14.8888 20.2488 28.0618
14.3486 19.3003 27.1446
14.933 20.3548 28.1452
14.6931 20.3288 28.8589
14.423 19.4682 27.2275
14.4151 19.9212 28.2464
14.4873 20.0958 28.5298
14.1859 19.2973 27.1214
14.0332 19.4073 27.4584
13.9898 19.6413 27.8723
13.8128 19.1955 27.4915
13.9139 19.5194 27.5932
13.5411 19.4343 28.0776
13.3121 18.6746 26.9415
13.3492 19.0356 27.5956
13.5843 19.0776 27.2082
13.3173 19.3294 28.2611
13.2594 18.825 27.4998
13.2081 19.0285 27.7316
12.9515 18.8148 27.8866
12.9864 19.0683 28.6908
13.3616 18.9513 27.7461
12.9357 18.7842 28.1178
13.4866 19.3109 28.0436
12.5818 18.4598 27.908
12.9413 18.4277 27.0931
12.8071 19.0151 28.533
13.049 19.0444 28.4105
12.7801 18.9062 28.3816
12.7609 18.7549 28.4286
12.9874 19.1037 28.4095
12.9533 19.6737 30.3059
12.8345 18.7549 28.2402
12.3198 18.4178 28.2901
12.5412 18.6097 28.4012
12.6292 18.7657 28.4657
12.9531 19.3398 29.2066
12.2154 18.5553 28.9519
12.1905 18.6012 28.9423
12.2654 18.5595 28.7783
12.247 18.4769 28.4621
12.3947 19.3569 30.4093
11.9089 18.1444 28.677
12.0676 18.3906 28.8182
12.0289 18.2902 28.4357
11.7132 18.374 29.1426
12.2039 19.1803 30.6213
12.204 18.7688 29.4676
11.9434 18.6692 29.5836
11.402 17.9142 29.17
11.9651 18.5396 29.4705
11.9514 18.9094 30.5543
11.839 18.257 29.2382
12.3175 19.5882 31.1407
11.4481 18.0182 29.4483
11.3556 17.9213 29.528
11.931 18.6086 29.8166
11.5836 18.3304 29.6399
11.3845 18.0402 29.4878
12.0538 19.0434 30.147
11.1395 18.3424 30.3964
11.1756 17.6699 28.8344
11.2009 18.2646 29.7473
11.1616 18.3846 30.7394
11.3586 18.4854 30.9282
11.5692 18.9292 31.0171
11.0971 18.1351 30.5379
11.2528 18.4451 30.6454
11.1703 18.5201 30.924
10.8728 18.0399 30.5708
10.8061 17.659 30.0174
10.7911 17.7766 30.0845
11.4723 18.986 31.3812
10.9568 18.605 31.9642
11.076 18.3045 31.1085
10.8157 17.9229 30.9185
11.3158 18.7058 31.255
10.7085 18.2281 31.4342
11.1214 18.7839 31.8201
10.3597 17.7329 31.4869
10.7376 17.652 30.5182
10.6781 17.9674 31.1363
11.2372 19.029 32.3427
10.4755 17.7694 30.6965
10.5609 18.2426 32.0926
10.5912 17.9128 31.4377
10.686 18.2805 31.859
10.278 17.6226 31.2999
10.3368 17.5645 30.8662
10.3825 18.1067 31.8777
10.3622 17.8417 31.5868
10.1648 17.8422 31.9056
10.3606 18.0433 32.1486
10.1435 17.9218 32.6645
10.015 18.058 37.6407
16.2872 26.5794 39.5229
9.89055 18.1363 32.5309
9.78889 17.7711 32.6746
9.92163 17.6243 32.1823
9.97547 17.562 31.6837
10.095 18.1217 32.5954
9.88771 17.4881 32.0198
9.96947 18.0175 33.0221
9.91328 17.4735 32.1131
9.76014 17.3682 31.7752
9.79899 17.2982 31.2556
9.50815 17.0308 31.5662
9.68149 17.5891 32.1761
9.40207 17.1424 31.9951
9.33914 16.74 31.4137
9.78806 17.6928 32.728
9.53184 17.1184 31.6794
9.29293 16.8268 31.3462
9.30143 17.0676 31.7159
9.42964 17.3577 32.2797
9.4191 17.4499 32.2047
8.93311 16.8771 32.7386
9.37309 17.0524 32.0001
9.13505 16.8136 32.0797
9.3657 17.2943 32.5514
8.78362 16.3764 31.6507
8.96783 16.3004 31.1914
9.25474 17.1163 32.4202
9.04373 16.7921 31.8989
8.95594 16.8768 32.4094
9.03037 16.9677 32.1953
8.82818 16.5575 31.5992
8.92195 17.2032 32.9724
8.48705 16.1971 32.1793
8.76851 16.7491 32.9675
8.93735 16.5108 31.3574
8.45994 16.3097 32.2569
8.78158 16.6138 32.6061
9.03951 17.0744 33.2532
8.8739 16.8218 32.5059
8.55988 16.3495 31.9737
8.51108 16.5081 32.6838
8.63261 16.5704 32.4274
8.71995 17.2112 34.4062
8.68591 16.7522 33.2002
8.49837 16.0563 31.35
8.15989 16.0329 32.0434
8.42494 16.718 34.4268
9.2292 17.8941 34.8427
8.43531 16.5771 33.5573
8.37573 16.1262 32.4993
8.26147 16.0011 31.9621
8.21796 16.3885 33.1698
8.6614 17.1854 34.2049
8.25183 16.4629 33.903
8.55481 16.8764 33.9987
8.22832 16.3348 33.5845
8.3938 16.1742 31.752
7.83598 16.1953 33.8478
8.13889 16.0512 33.4637
8.23554 16.4675 33.6675
8.10723 15.805 31.9078
7.64979 15.6293 32.6562
7.96581 16.1313 33.6473
8.26077 16.5653 33.7135
7.86569 15.6629 32.103
7.81978 16.2076 33.9831
7.87917 16.1633 34.2795
8.09497 16.4741 34.4455
7.82593 15.628 32.3881
7.68164 15.665 33.1915
7.99747 16.21 33.6959
7.98364 16.4303 33.3974
7.46264 15.7226 33.9517
7.70005 15.7316 33.8403
7.86962 16.2227 34.1062
7.79635 16.0595 33.7496
7.59374 15.7885 33.8127
7.63548 15.6849 33.1812
7.54174 15.958 34.2939
7.41086 15.2981 32.9542
7.67891 15.8901 33.7366
7.69949 16.4477 35.2674
7.36845 15.4284 34.208
7.85272 16.2561 34.3204
7.43992 15.6571 34.2123
7.41028 15.4565 34.1043
7.84696 16.3073 34.326
7.29479 15.5072 33.7635
7.44508 15.9511 34.257
7.19641 15.2143 33.4506
7.20787 15.372 34.1128
7.43129 15.7833 34.225
7.33137 15.6411 34.2192
7.1492 15.7176 34.8895
7.11989 16.6851 45.8132
12.1612 24.05 42.27
7.06597 15.8553 35.7937
7.13669 15.511 34.699
7.25169 15.7468 34.9913
7.27803 15.7934 34.9629
7.16048 15.4756 34.1055
7.07171 15.6258 35.0769
7.22888 15.6525 35.0673
7.07766 15.4647 34.1853
7.02756 15.7863 36.2686
7.1572 15.4182 34.5476
6.92285 15.1396 34.139
6.9156 15.1734 34.1227
6.90185 15.0654 33.6779
6.81188 15.3926 35.5925
6.9751 15.0546 34.2645
7.01501 15.4564 34.4324
6.72082 15.1787 35.3266
6.83081 14.8758 34.0286
6.84917 15.0466 34.0905
6.66241 14.8798 34.6905
6.97379 15.2675 34.4688
6.68568 15.1634 34.8484
6.77607 14.9097 34.1659
6.57727 15.0608 34.8484
6.53636 14.7832 34.4109
6.41145 14.55 34.2237
6.48076 14.5841 34.5459
6.88479 15.5827 35.5468
6.36737 14.6353 35.4655
6.758 14.8059 33.6887
6.25875 14.3907 33.6381
6.34113 14.6652 34.8289
6.43897 14.678 34.7693
6.48702 14.7462 34.7927
6.4564 14.7728 34.3241
6.35375 14.5591 34.4988
6.33214 14.3831 33.854
6.39705 14.8606 34.7465
6.18725 14.1279 34.1552
6.40493 14.7721 33.941
6.09035 14.4114 34.654
6.1728 14.401 34.4011
6.13976 14.2585 34.5106
6.27871 14.404 34.186
6.12466 14.2518 34.0946
6.1809 14.31 33.7933
6.12002 14.943 35.9387
6.15188 14.4727 34.892
5.95494 13.897 34.0714
6.20236 14.4887 33.4933
5.67238 13.6198 34.164
5.98972 14.1361 34.8549
6.13983 14.1953 34.7764
6.06751 14.4152 35.1229
6.23715 14.6906 35.145
6.05753 14.5891 34.9663
5.69197 13.5347 33.8063
5.93085 14.3521 35.261
5.89613 14.0719 34.8568
