# pn-170911/RbIIR-45-RbIIR-1280-1959.psd
# Power spectrum* (dif=0,1,2) (really just |FT|^2)
# NOTE: only the first half! (symmetric)
# weeks: 1280-1959
# 3593 clock-days, 1138 excluded
# PSD: 1441
516.746 0.22987 0.0617755
39835.6 0.843365 0.115962
193930 4.05726 0.112043
34907.5 1.3588 0.11069
95383 7.41795 0.112909
12728.3 1.33522 0.114608
13504.5 2.05766 0.111323
7101.01 1.4539 0.110511
14159.5 4.16663 0.11089
4455.65 1.52686 0.114065
11588.8 5.46942 0.110945
3461.31 1.7818 0.112133
7555.86 5.03598 0.111945
2602.73 1.9144 0.11064
6629.15 6.08871 0.112895
2148.3 2.10562 0.115961
5412.2 6.42898 0.117279
1842.68 2.30779 0.114533
5863.6 8.9074 0.123008
1711.29 2.76166 0.11446
4914.26 9.27132 0.1286
1609.98 3.22102 0.116709
4827.65 10.9959 0.133852
1465.05 3.48135 0.120645
4004.45 10.9104 0.137469
1399.07 3.93872 0.123678
4397.15 13.9881 0.146691
1328.5 4.43367 0.125573
3732.17 13.7092 0.157013
1298.17 4.93401 0.12881
3125.86 13.1592 0.163563
1223.6 5.34858 0.136662
3084.04 14.8168 0.181296
1237.77 6.24263 0.138883
2966.85 16.1022 0.189198
1224.85 6.88151 0.154108
3117.95 19.097 0.216685
1165.41 7.31824 0.155869
2476.9 16.889 0.227088
1158.26 8.08573 0.165483
2297.11 17.3707 0.243818
1100.73 8.43753 0.175944
2350.98 19.5949 0.275239
1097.57 9.369 0.19125
2312.94 21.1428 0.298145
1044.05 9.83892 0.206361
2328.99 23.2019 0.345869
1043.19 10.6978 0.224048
2015.68 21.7782 0.342229
995.257 11.1252 0.243689
2004.62 23.6556 0.384549
967.024 11.6006 0.24949
1954.38 24.9736 0.436436
979.058 12.6852 0.279072
1804.49 24.8959 0.449024
942.593 13.2661 0.30323
1718.3 25.5282 0.490567
937 14.1279 0.329638
1664.81 26.6014 0.537683
917.114 14.7714 0.34966
1569.74 26.8422 0.563569
908.317 15.5837 0.375065
1491.26 27.1242 0.597485
858.565 15.7225 0.395875
1406.1 27.1408 0.628601
853.426 16.7841 0.440888
1384.97 28.6555 0.687146
825.726 17.1299 0.471648
1333.26 29.1862 0.748449
824.685 18.2416 0.516791
1253.4 29.1176 0.774255
814.634 19.0708 0.556213
1193.5 29.2982 0.8251
764.044 19.0136 0.591501
1193.16 30.8871 0.907532
762.214 19.9696 0.644458
1110.44 30.2667 0.937042
729.953 20.1348 0.660157
1073.01 30.7663 0.996597
720.253 20.8649 0.71382
1021.67 31.0179 1.0354
703.935 21.6724 0.783536
1015.7 32.3915 1.15111
684.107 21.8428 0.809796
964.286 32.2963 1.1783
679.652 22.7017 0.877847
922.218 32.2127 1.23239
658.192 23.1654 0.921174
881.026 32.3946 1.29037
648.777 23.8374 0.992674
860.32 32.9305 1.35962
644.905 24.9461 1.07562
819.954 32.7697 1.40377
600.849 24.2073 1.0728
797.133 33.3582 1.49792
610.026 25.5458 1.18961
792.535 34.603 1.59332
586.043 25.5379 1.22813
759.484 34.6146 1.66725
578.232 26.2266 1.29989
741.993 35.0024 1.75156
566.566 26.9483 1.38277
706.527 34.7325 1.81494
558.074 27.4975 1.47106
681.024 34.9933 1.90464
531.481 27.2807 1.52739
663.111 35.3359 2.0028
536.794 28.275 1.61733
653.288 35.9043 2.06909
534.292 29.3974 1.76063
627.297 35.7514 2.13989
495.385 28.3542 1.74384
607.763 36.1749 2.24837
504.347 29.9553 1.88492
608.681 37.103 2.37914
493.705 30.3565 1.9811
580.156 36.9377 2.45146
469.783 29.8047 2.02862
553.857 36.2438 2.47618
466.587 30.8653 2.13948
564.418 38.4049 2.72519
459.966 31.2192 2.27079
525.179 37.0033 2.67012
464.414 32.6711 2.39912
525.403 38.2286 2.84535
433.026 31.4882 2.40815
523.881 39.3351 3.04932
439.829 32.8853 2.57654
489.253 37.7111 3.01769
421.234 32.4792 2.64293
498.121 39.9526 3.28422
425.875 34.0852 2.83179
481.473 39.5183 3.33692
404.146 33.1606 2.84481
462.035 39.0793 3.40488
414.269 35.0867 3.09261
448.991 38.9963 3.48143
384.512 33.4193 3.04827
441.451 39.5991 3.67221
379.665 33.9334 3.15532
442.283 40.9357 3.86196
373.65 34.3712 3.31921
421.219 40.1013 3.91992
378.106 35.8491 3.53314
420.309 40.8855 4.07242
362.467 35.4939 3.60119
399.002 40.0761 4.10892
359.605 35.9214 3.72581
395.139 40.9939 4.35057
361.56 37.2341 3.95485
391.856 41.6188 4.46737
347.716 36.6517 4.00247
370.144 40.5662 4.51811
336.668 36.5573 4.11325
372.72 41.9323 4.75949
346.611 38.503 4.40154
374.34 43.1812 5.04759
329.744 37.6659 4.40487
359.463 42.3181 5.02828
328.313 38.789 4.69334
348.493 41.9475 5.12905
317.055 38.0382 4.6715
347.827 42.9478 5.39542
319.847 39.4523 4.97427
334.757 42.265 5.43525
310.687 39.2533 5.0496
324.832 42.304 5.58332
316.921 40.7522 5.37974
322.76 42.8153 5.76719
306.03 40.4669 5.48362
313.607 42.5131 5.85773
297.522 40.2544 5.54557
312.41 43.2867 6.12476
294.082 40.6369 5.70207
296.956 42.4886 6.14271
281.69 40.2666 5.8385
301.052 43.8082 6.42908
286.136 41.3855 6.08744
288.135 43.0053 6.53256
280.317 41.6962 6.31149
280.347 42.6738 6.54799
276.413 41.7961 6.43173
277.568 42.9942 6.76147
279.907 43.3801 6.8517
283.136 44.9268 7.19626
273.496 43.3063 6.9799
271.978 44.0364 7.17173
260.947 42.7151 7.03738
281.064 46.6448 7.81791
258.82 42.7547 7.1832
269.163 45.2948 7.71835
254.597 43.3227 7.48461
275.401 47.5995 8.29606
255.668 43.9204 7.6882
259.736 45.8032 8.16938
246.364 43.3505 7.74547
253.929 45.1841 8.17068
244.996 43.8627 7.99358
246.157 45.3957 8.40081
237.66 43.278 8.08079
239.167 44.6071 8.40365
237.239 44.1756 8.3626
250.112 47.7774 9.2032
233.559 44.5103 8.61728
242.228 46.7406 9.1821
231.143 44.8887 8.83108
239.381 47.5068 9.52345
229.802 45.2107 9.05418
235.943 47.7751 9.80449
233.207 46.6628 9.46366
234.068 48.0328 9.91424
224.623 46.4837 9.74566
225.339 47.1892 10.0106
220.409 45.8799 9.6704
220.744 47.203 10.201
221.532 47.3197 10.2315
215.254 46.7268 10.2293
211.305 45.9211 10.0743
213.337 47.4272 10.6644
204.26 45.0914 10.0744
212.243 48.2528 11.0403
210.576 47.2377 10.677
207.447 47.833 11.1923
208.049 47.597 11.0136
208.141 48.5763 11.4692
201.672 46.9375 11.107
209.845 49.3752 11.7793
202.075 47.885 11.3928
200.767 48.7724 11.9034
203.869 49.4893 12.0799
194.776 47.6191 11.7544
198.298 49.0962 12.1935
195.802 49.1284 12.4956
195.508 49.0375 12.3964
190.163 48.2066 12.3106
192.121 48.8632 12.5583
191.041 49.3439 12.7756
187.331 48.7075 12.741
185.551 48.9749 13.0655
190.789 49.9475 13.1843
190.535 50.6323 13.5656
177.213 47.6091 12.9321
179.611 48.7422 13.3357
179.679 48.8551 13.4275
177.733 49.0448 13.5457
176.864 48.7548 13.6494
181.914 50.883 14.3377
180.33 50.2827 14.2199
176.603 50.1504 14.4699
177.216 49.9681 14.2442
172.423 50.2572 14.6667
172.512 49.9989 14.5707
173.64 51.4983 15.3889
172.269 50.3701 14.9224
168.097 49.7777 14.9321
172.694 51.3651 15.454
165.71 50.3312 15.5002
165.85 50.1514 15.2702
167.283 51.4365 15.8631
164.177 50.9957 15.9306
163.298 51.0769 16.1623
166.119 51.691 16.1576
160.146 50.6405 16.1994
156.144 49.7512 16.0973
162.215 52.013 16.763
155.617 50.1115 16.3534
158.571 51.9266 17.1847
157.593 51.1406 16.7629
159.986 53.0909 17.693
153.415 50.49 16.8314
151.314 51.1317 17.511
159.771 52.7908 17.6385
156.87 53.29 18.3017
155.375 53.1138 18.3264
152.099 52.1974 18.0466
148.711 51.7888 18.097
145.931 51.4413 18.2312
147.167 51.4815 18.2512
144.954 51.0635 18.2137
146.941 52.2707 18.7249
144.654 51.994 18.7708
142.39 51.2108 18.7379
142.968 52.199 19.2597
147.977 53.7982 19.8327
144.516 53.4776 19.9505
142.302 52.5556 19.7612
141.417 53.0312 20.1269
139.76 52.4214 19.9905
159.126 60.0397 22.69
141.93 53.7999 20.6367
138.359 53.4614 20.78
136.312 52.5643 20.495
133.861 52.2489 20.6257
137.895 53.8813 21.1712
131.832 52.323 21.0393
132.692 52.4709 20.904
134.045 53.5703 21.6185
132.919 53.4616 21.4383
129.134 52.2205 21.4376
132.248 53.6272 21.9279
128.829 53.4409 22.4381
128.473 52.4097 21.6073
126.338 52.5975 22.1206
129.652 54.0767 22.8165
128.58 54.17 22.9642
127.3 53.6485 22.8448
123.819 52.7513 22.6159
123.592 53.0642 23.016
126.88 54.6501 23.7238
126.021 54.8755 24.0176
122.763 53.7784 23.798
121.801 53.4365 23.7022
123.797 54.6511 24.353
118.889 52.7625 23.682
124.068 55.1423 24.8312
117.379 52.6469 23.9008
120.563 54.8187 25.0314
116.92 53.4503 24.6764
119.251 54.6891 25.2586
119.043 54.6641 25.2159
111.886 52.2483 24.6
115.76 54.0934 25.5152
113.113 53.369 25.455
116.529 55.0155 26.2401
111.711 53.3786 25.637
114.699 54.6819 26.3428
115.596 55.6666 27.1194
114.813 55.2707 26.7146
111.923 54.8174 27.0053
114.673 56.2917 27.8535
109.412 53.6248 26.6969
110.554 54.7418 27.3484
108.767 53.9798 26.9849
110.176 55.3002 27.9737
110.271 55.2866 28.0699
110.67 56.1867 28.6663
108.235 55.4564 28.7158
105.754 53.7313 27.6031
104.371 53.9171 28.1701
107.034 55.4693 29.0247
105.877 54.7319 28.6653
105.685 55.4631 29.3124
104.711 55.0657 29.3546
104.84 55.286 29.3717
102.237 54.6888 29.497
101.612 54.7527 29.626
101.881 55.1157 30.204
104.665 56.1814 30.3511
97.608 53.7908 29.9585
99.3379 54.4058 30.1553
97.563 53.429 29.7473
97.5222 53.8746 30.0549
97.6428 54.7179 30.8637
99.3857 55.7965 31.6097
96.3907 53.9937 30.66
99.0722 56.0524 32.007
99.3688 56.0859 31.9195
98.1338 56.7112 32.8715
94.4835 53.8927 31.2736
95.9637 55.7283 32.6601
94.9642 54.7662 32.0905
94.6743 55.1256 32.3365
92.9467 54.4849 32.3598
90.5038 53.3218 31.7027
95.1876 56.5416 33.8812
90.4201 53.4765 32.1469
92.0147 55.1346 33.343
90.9766 55.2898 33.9108
90.1206 54.7769 33.7318
93.5873 56.4994 34.2755
85.6067 52.197 32.3711
91.5804 56.5189 34.9909
89.4224 55.4184 34.6713
90.7987 56.4986 35.3814
87.9729 54.9971 34.8913
92.5463 57.9204 36.5632
88.1992 55.4538 35.3658
90.3999 57.4676 36.688
85.8775 54.277 35.029
90.5321 57.7173 36.9173
86.1518 55.6158 36.1867
82.4422 53.7997 35.526
85.3198 54.9659 35.8104
85.4523 56.2127 37.6649
102.076 65.8479 42.069
84.6847 56.7729 38.2643
84.7746 56.1674 37.9288
83.0763 54.271 36.1481
86.1603 57.6446 38.5778
83.084 56.1854 38.0891
81.8972 55.4988 38.1148
83.0936 56.8281 39.2744
83.9238 56.5256 38.5303
82.2139 56.6519 39.0799
78.1666 54.2707 38.052
80.617 55.4657 38.6044
78.3724 54.4517 38.2741
78.3256 53.741 37.4917
78.6758 55.1684 39.0153
78.2914 55.4838 39.6198
78.8985 55.5115 39.5641
79.186 56.3864 40.3408
78.1264 56.0097 40.1298
75.6029 54.2172 39.3087
76.2059 55.6062 40.7162
76.2739 55.0723 40.2409
74.7288 54.5578 40.3139
76.6828 56.2885 41.5837
76.0775 55.9217 41.5674
73.8189 54.5125 40.5723
73.0226 53.7323 39.9629
72.7154 54.2096 40.7187
73.7277 55.3916 41.9328
72.9567 55.1426 42.0813
74.3246 56.0671 42.7457
70.4817 53.5245 41.3943
74.6866 56.3119 42.7952
69.7919 53.7326 41.9887
74.2658 56.5052 43.2734
73.6985 56.9607 43.8919
69.8095 54.3358 42.6421
71.5737 56.1971 44.2647
71.1246 55.8506 44.3837
70.4089 55.4783 44.041
69.6968 55.1778 44.212
68.9584 55.0175 44.358
70.6029 55.8649 44.5043
66.803 53.6785 43.4407
67.6336 54.5292 44.5031
68.3061 54.5755 44.1313
68.5168 55.452 44.8861
64.2491 52.5262 43.4405
66.9131 55.0788 45.7226
66.5368 54.3733 44.9585
68.2228 55.9197 46.2697
67.9154 56.438 47.1451
67.2733 55.2996 45.896
65.8505 55.6851 47.2773
65.0301 53.9906 45.6597
64.33 55.172 47.6292
65.4054 54.5359 46.189
64.9149 54.9314 47.0385
65.1021 55.3618 47.2882
62.3029 53.2933 46.0256
62.6089 54.2673 47.3797
63.634 54.7006 47.2511
63.1149 55.2709 48.5404
63.2846 55.1434 48.4955
63.8017 56.2372 50.0038
62.6556 54.4888 48.459
62.547 54.3715 48.2219
61.3556 54.4004 48.3674
62.0265 55.0971 49.5111
63.2911 55.8731 49.6884
60.7168 54.3066 49
61.5539 55.8305 50.5726
59.2309 53.0637 48.507
60.6088 54.5319 49.5737
59.9555 54.7677 50.2484
60.5348 55.8755 51.8786
61.2083 55.4915 50.9057
61.1081 56.4497 52.489
59.0079 54.3043 50.6425
59.4383 54.973 50.961
58.1674 54.887 51.9518
59.5501 55.5101 51.8571
57.0439 53.8 51.3213
58.5324 54.8297 51.917
57.0482 54.642 52.7994
58.2827 55.2132 52.8208
58.7276 55.9039 53.6573
57.0088 54.8564 53.2656
57.6526 55.3601 53.4786
56.7123 55.0175 53.7938
56.2849 54.4394 53.4156
58.5627 57.0722 55.795
56.2236 54.0848 52.9274
55.2167 54.6285 54.2381
55.6 55.1657 55.3572
54.9405 54.0615 54.8028
64.2166 63.2194 61.7017
55.8008 54.682 54.5404
53.6456 53.3609 53.5409
54.0924 54.3463 55.1088
55.3581 55.9311 56.9207
55.2142 55.9536 56.9532
52.3584 52.8027 54.5462
53.8968 54.2614 55.454
54.4728 55.8651 57.5962
52.7044 53.5023 54.7893
52.5578 54.5287 57.4029
53.9624 55.2946 57.6149
53.7939 55.9009 58.4795
52.9011 55.0035 57.3406
50.5631 52.4731 55.4682
52.4978 55.3119 58.3415
51.6211 54.2651 57.985
52.6483 55.5913 58.866
51.1022 53.7009 57.1215
49.8184 53.3885 58.0353
51.2508 54.4035 58.3786
51.4467 54.6276 58.5862
49.308 52.8459 57.4463
50.0823 53.7803 57.842
48.6587 52.8679 58.3401
51.319 55.8517 61.184
50.063 53.927 58.7456
50.0842 55.1428 60.8167
48.5104 52.7132 58.1473
48.2628 53.4854 59.622
48.7532 53.7184 59.59
48.3771 54.0056 60.5578
47.5242 52.9038 59.717
48.5997 54.4685 61.7784
49.2742 55.2163 62.3715
48.3033 53.692 60.3155
46.794 53.0055 60.5462
48.2882 54.6639 62.1949
45.8211 52.0649 60.1512
46.4046 52.8734 60.8709
46.768 53.5329 61.9135
47.1081 54.1969 62.6781
45.6614 51.9517 60.22
47.1312 54.6276 63.4327
47.6678 55.5059 64.6229
45.2656 52.7954 62.6179
44.8522 51.7705 60.9153
44.873 52.5373 62.0931
44.7894 52.9965 63.3254
45.4147 53.0944 62.6349
44.9347 53.1513 63.3185
44.0003 51.8762 62.381
44.8807 53.7369 64.9285
44.9218 53.598 64.7395
43.8527 51.9961 62.8986
43.5194 52.9892 65.3279
44.6546 53.0693 64.0756
44.0118 53.5142 65.7462
44.3868 53.7497 65.451
42.9463 51.9646 63.8888
42.6917 52.3827 64.8571
43.4498 53.0703 65.8076
42.9954 53.0789 66.2986
42.3336 51.7599 64.551
42.5742 51.9056 64.1266
41.2166 51.4796 64.8595
42.0343 52.7241 66.8424
42.7597 52.5995 65.8116
41.6625 51.9223 65.4938
40.6157 50.692 64.3391
42.306 53.3686 66.8748
40.3146 52.1023 68.0139
42.5972 53.3784 67.9041
40.8056 51.8774 66.5723
40.9827 52.1084 66.9514
39.0807 50.319 66.2213
40.4596 51.5616 67.0264
40.5517 51.9967 67.0949
40.0683 51.9044 68.0228
40.3323 52.3886 68.8397
39.367 50.8445 66.7099
39.7776 52.4175 69.5284
40.6108 52.8787 69.688
40.0171 52.5199 69.3247
39.8737 53.1144 71.6008
39.4835 50.8482 67.3084
39.5456 52.9618 70.6384
39.2945 52.9148 72.1784
40.4611 53.1299 69.912
37.5779 50.6258 69.3115
38.6917 51.6083 69.6936
37.6963 50.7516 69.3397
38.1157 51.0957 69.4977
36.9891 50.7783 70.2838
38.3825 52.7706 73.2429
37.5578 50.9112 72.179
44.0951 59.165 77.6357
37.7121 52.3405 73.0455
37.4373 51.3022 71.265
37.2411 51.6626 72.974
37.8807 51.3184 71.2875
37.8869 52.1297 72.2823
35.9611 49.5261 69.527
34.998 49.185 70.2279
36.5589 50.9113 71.9775
37.087 51.6898 73.0872
37.4366 51.9812 72.0309
35.7017 51.0478 73.3914
36.4697 51.8519 74.3905
36.433 51.6621 74.1993
35.9713 50.7962 72.9516
35.5814 50.9542 73.1701
34.6891 49.7445 71.9462
34.0824 49.4082 73.1793
34.9524 49.5508 71.7119
34.073 48.9167 71.2295
34.8352 50.9708 75.0698
34.7171 50.6793 74.8646
34.3525 49.9691 73.8514
33.6109 49.0215 73.3239
34.7616 49.9654 73.0619
33.8383 49.6905 73.6247
33.5269 49.4718 73.5644
33.2707 49.3689 74.4538
34.6068 50.8482 76.2218
33.9966 50.5346 75.9808
34.0711 50.145 74.8114
32.897 49.5558 75.4316
32.515 48.0796 72.8494
32.3523 48.5272 74.141
32.2472 47.9991 72.6737
32.6608 49.426 74.9565
32.6749 49.7729 76.2206
33.0777 50.7737 78.118
32.0675 48.0851 73.2272
30.6779 47.0977 73.4776
31.8457 49.2393 76.6268
31.6715 48.4479 75.155
31.5287 48.9957 76.3006
30.3206 46.999 75.0275
31.0102 47.0021 73.7356
31.9655 49.0448 76.4464
31.8839 50.0215 79.1372
31.84 49.2487 76.6632
31.1599 49.0422 78.3714
31.4927 48.506 76.2554
31.0338 49.0328 77.5822
30.9714 49.2959 78.5917
30.1707 47.9468 77.8128
31.6155 50.3821 81.1266
30.9342 48.714 77.7281
30.2941 48.6775 79.2375
30.4782 48.3154 77.6142
29.808 47.7433 77.9076
29.622 47.6903 77.7884
30.1224 48.4062 78.7339
30.3019 49.5741 81.5563
29.8974 47.6908 77.2538
29.4745 48.5993 80.3015
29.1639 47.4243 78.9331
29.8728 48.4538 79.859
30.2358 49.3636 81.5031
29.5356 48.2475 80.3324
29.4369 48.463 80.4061
29.2108 47.7071 79.21
29.4389 48.9808 81.8294
28.5912 46.925 78.7802
28.5226 47.2551 78.569
28.0954 47.2599 80.1358
28.1765 46.6402 78.3533
27.3968 46.3237 80.2359
28.5506 47.4736 79.8718
28.079 47.2272 80.696
27.6479 46.5739 80.4833
29.35 49.6236 83.8897
28.0854 47.3249 81.186
27.7128 46.9221 80.9136
27.6234 46.6173 80.1666
27.564 47.1153 81.3505
27.7167 48.1069 83.7665
27.1924 46.4757 80.8332
26.6906 45.7203 80.1926
26.9942 46.248 81.5451
27.7278 47.3695 82.1714
26.7461 46.1232 81.0207
27.0734 47.2579 82.397
26.7105 46.862 83.4899
27.5487 48.0877 84.7023
26.5649 46.4776 83.7366
27.0572 46.5921 81.2054
25.7509 45.8102 82.2589
25.7262 46.0647 86.5989
30.0434 51.1779 85.4885
26.0197 46.804 83.3234
24.8202 44.5761 81.4146
25.68 45.3832 82.5432
26.0107 46.7322 84.3662
25.7221 45.0941 80.7942
25.4416 45.8491 82.7833
24.6949 44.1243 80.4161
24.9561 46.0894 84.9856
24.9717 45.1972 84.1771
25.7352 45.7871 83.2673
25.3993 45.8338 84.4862
25.7207 46.8362 86.3278
25.6662 46.1141 84.4256
25.1886 46.0523 85.5095
25.1388 45.4856 83.9924
24.6169 45.1693 84.3107
24.8016 45.7929 85.9798
25.1104 46.0631 86.1335
24.7764 45.6371 85.6219
24.6947 45.1147 83.7465
23.8458 44.6021 85.3764
24.6375 44.892 84.136
24.2759 44.7497 83.3944
23.7787 44.5452 84.5213
23.9151 44.8741 85.3247
23.7639 44.3625 84.2605
23.804 45.0076 86.4304
24.0792 45.4468 86.309
23.1243 43.0536 82.5873
23.4295 44.6625 86.1794
23.8592 45.2467 87.2175
24.0677 45.8707 88.293
23.7155 45.0154 86.4365
22.9305 43.9676 86.0802
23.1674 43.9305 85.5773
22.908 43.7495 85.5996
22.9172 43.2877 83.7533
22.5092 42.9427 83.6982
22.811 44.3296 86.0511
22.6451 44.4078 88.4667
23.5074 45.9413 90.0348
22.5818 44.0248 87.6417
22.8021 44.1581 87.6829
22.4664 43.0153 85.1128
22.06 42.7036 84.285
22.2569 43.4675 85.3503
22.1289 43.6609 87.0095
22.2517 43.9868 87.243
21.4646 42.2979 85.8734
22.459 44.4331 87.9508
21.5936 43.0924 87.4797
21.7222 43.0622 87.4885
21.963 43.5538 88.469
22.0258 43.6146 87.6176
22.0895 44.3696 89.602
21.6945 43.0756 88.8046
22.1681 43.9147 87.6785
21.064 42.2874 86.3723
21.4943 43.6075 88.645
20.9201 42.7334 89.5144
21.6003 43.3507 89.5132
21.3843 42.6823 87.8971
20.9145 41.9064 86.4985
21.595 44.1834 89.6653
20.6697 42.2328 87.3652
20.5463 42.356 88.6946
20.3047 41.461 88.1218
20.8851 41.8296 87.1331
20.8705 42.5865 88.725
21.0846 43.5337 89.9054
20.0361 41.3257 88.0171
20.4142 41.2407 85.7177
20.3371 42.6503 88.5626
20.0711 42.7577 92.5734
21.6237 44.0846 90.5083
19.9054 41.8679 89.5814
19.7116 40.8701 87.6026
20.1487 42.3858 88.8212
19.284 40.3463 86.9676
19.6694 41.1385 88.1378
20.0041 41.842 89.2469
19.5461 41.2691 89.718
20.5314 42.9256 90.3945
19.6916 42.1197 91.1035
19.8489 42.0842 89.9117
19.3144 41.2573 89.2653
19.2339 40.6981 88.6381
19.6354 42.1386 91.1924
19.2242 41.334 91.2616
19.1863 40.5117 88.298
19.1603 41.0314 88.2398
18.354 40.0787 89.3827
19.0632 41.1012 89.9809
18.919 40.8809 89.8971
18.4193 39.9712 93.1587
21.7681 46.886 97.0902
18.4521 40.1354 90.809
19.3936 42.0474 91.3329
18.6313 40.8923 91.7356
18.5371 39.732 88.8974
18.4524 40.1354 89.7019
18.6039 41.1315 91.1437
18.186 39.0941 86.6764
17.9268 39.7831 88.6381
17.9811 39.72 89.1439
18.1967 40.6222 91.1255
18.1399 39.7793 89.6251
17.9263 39.9171 92.3562
19.0658 41.5512 91.6475
17.6891 39.4035 89.5615
17.7954 39.5048 89.8122
17.4822 39.3024 90.9943
18.3296 40.4518 90.3629
17.6771 40.1369 91.8178
17.7815 39.6868 90.3878
17.5149 39.4881 91.6115
18.106 40.982 92.6967
17.2899 39.3778 91.041
17.2035 38.6097 89.6835
17.1933 38.787 90.0418
17.6135 39.6395 89.6737
16.6842 39.1181 93.1903
17.4524 39.2149 91.8834
17.5745 39.5552 90.6116
16.9444 38.7316 91.3779
17.2927 39.2852 90.2087
16.6941 38.6462 90.5408
16.725 38.2586 89.8612
16.8858 39.3539 92.1444
16.5704 38.3047 90.4304
16.9276 38.664 89.7598
15.9626 37.3442 89.2395
16.3836 38.5953 92.7797
16.5331 37.6042 89.099
16.5554 38.1913 89.2706
16.3396 38.5489 91.1856
16.4628 39.3388 94.1784
15.942 36.6747 87.7011
15.9108 37.2517 89.165
16.051 37.7695 90.6284
16.0564 37.087 87.7274
15.8519 38.6896 93.8082
16.0088 37.6304 90.9979
15.8284 37.4216 91.6664
15.9187 37.2407 89.4032
15.6211 37.1271 89.9297
16.1017 39.0152 93.315
15.4271 36.1437 88.8716
15.6612 37.2771 91.1108
15.802 37.7533 91.585
15.7908 37.8452 91.6101
14.9304 36.0032 90.5853
15.4178 36.5466 91.1438
15.7802 37.3794 90.4577
15.5715 37.7471 92.9179
15.3241 36.5793 90.2811
15.7885 37.6984 91.3943
15.4316 37.7279 92.4533
15.2053 37.4983 93.4204
15.2353 37.2821 93.7847
15.3875 36.474 89.6466
