# pn-170911/RbIIR-46-AMC2-1280-1959.psd
# Power spectrum* (dif=0,1,2) (really just |FT|^2)
# NOTE: only the first half! (symmetric)
# weeks: 1280-1959
# 474 clock-days, 72 excluded
# PSD: 1441
1425.86 0.14953 0.0517075
43579.2 0.534878 0.0918687
382030 8.26231 0.0996817
20345 0.660314 0.1006
31639.7 2.27931 0.107796
5882.08 0.547544 0.105145
4966.85 0.753242 0.0992285
2982.59 0.528226 0.111736
2493.09 0.568562 0.0991621
1809.4 0.494869 0.106517
1574.67 0.556932 0.103862
1197.13 0.514789 0.100395
1076.07 0.551094 0.0998989
947.773 0.599914 0.107689
895.247 0.645722 0.105167
723.889 0.621392 0.10563
665.682 0.647299 0.107836
695.35 0.785763 0.108296
619.824 0.720939 0.11123
558.301 0.758428 0.0997786
540.421 0.899999 0.099024
476.165 0.860882 0.0969686
509.692 0.989904 0.1069
459.038 0.944363 0.10914
538.861 1.21027 0.107318
486.197 1.2119 0.111797
490.2 1.38475 0.104252
476.641 1.48857 0.107709
445.698 1.52605 0.105488
458.256 1.66275 0.11563
421.323 1.61376 0.120788
425.694 1.74131 0.105117
485.629 2.33078 0.113864
441.108 2.09976 0.116289
448.598 2.27684 0.114744
424.939 2.35888 0.117348
441.853 2.63648 0.12094
419.064 2.56751 0.129135
455.851 2.87144 0.124804
451.616 3.12285 0.121015
466.455 3.3993 0.13169
441.673 3.23974 0.124403
495.461 3.86757 0.140588
465.234 3.85503 0.14158
455.956 4.06288 0.143756
425.053 4.03824 0.140927
462.223 4.51469 0.160588
475.137 4.73771 0.158717
492.527 5.28853 0.161122
482.762 5.27046 0.15714
452.385 5.18914 0.167058
527.135 6.25597 0.175923
480.705 6.11244 0.179022
498.209 6.56879 0.17971
513.108 6.8285 0.194111
430.646 6.06995 0.192393
446.681 6.50186 0.206695
428.03 6.49414 0.208754
436.939 6.86301 0.205161
480.772 7.70745 0.230504
435.649 7.23415 0.240773
428.906 7.4472 0.233118
401.778 7.15678 0.223088
425.402 7.64475 0.256861
435.121 8.23409 0.252087
459.346 8.85789 0.294337
481.371 9.8422 0.297872
428.681 8.82148 0.266894
442.136 9.78241 0.331887
398.079 8.75693 0.302929
401.175 9.03328 0.324043
388.921 9.24417 0.333712
471.993 11.3022 0.361816
426.685 10.6239 0.347139
398.796 10.0632 0.352532
419.559 10.899 0.410404
426.048 11.4767 0.423034
415.975 11.4891 0.447548
384.428 10.8958 0.383876
396.107 11.4925 0.442083
377.621 11.4095 0.431628
375.011 11.3397 0.444731
391.34 12.5043 0.490645
370.278 11.6754 0.46079
371.161 12.279 0.500378
348.869 11.6368 0.51059
314.983 10.8221 0.476141
361.456 12.673 0.537113
352.297 12.718 0.552342
359.408 13.3444 0.589603
323.999 12.1069 0.551844
375.023 14.5592 0.657832
373.314 14.7519 0.679374
320.996 12.7186 0.613279
324.451 13.2028 0.629585
317.996 13.1538 0.650984
478.107 20.7764 0.954688
307.743 13.2986 0.65915
303.703 13.3903 0.701588
317.16 14.5657 0.769346
278.044 12.8817 0.703702
268.905 12.8879 0.717467
335.144 16.3832 0.930603
288.15 14.3526 0.806418
275.604 13.9927 0.777501
274.382 14.1041 0.782585
274.451 14.4178 0.830793
258.336 13.828 0.790076
260.312 14.2131 0.890042
238.306 13.3798 0.818404
270.863 15.2552 0.95785
235.946 13.6418 0.874846
239.386 14.1975 0.873168
251.672 14.8596 0.989621
290.173 17.4484 1.13737
252.456 15.3784 0.980378
222.994 14.0293 0.990088
242.84 15.2802 1.05675
235.972 15.1608 1.07658
217.408 14.5126 1.05794
252.351 17.137 1.26662
238.435 15.9557 1.18027
214.857 15.1166 1.14189
215.31 15.2666 1.13069
229.174 16.5064 1.24664
227.175 16.7993 1.27937
244.628 18.2415 1.44589
217.177 16.0353 1.32472
228.923 17.5461 1.39521
204.161 15.7711 1.28541
215.461 16.9611 1.41675
219.683 17.7768 1.51625
228.135 18.3292 1.55955
218.059 17.6923 1.5664
196.054 16.3201 1.46348
201.171 17.0496 1.50676
182.071 15.6812 1.46041
198.413 17.3702 1.61573
201.233 18.0512 1.62823
187.069 16.9211 1.54096
182.175 16.989 1.60989
202.915 18.5971 1.81148
165.844 15.5327 1.49203
187.972 17.6578 1.75748
176.717 17.6134 1.80663
185.076 17.4496 1.754
165.677 16.6974 1.74516
177.105 17.9001 1.84309
173.179 17.9305 1.91428
167.938 17.2174 1.85149
182.488 19.1068 1.96839
170.039 18.3144 2.07122
162.235 17.1519 1.91138
148.531 16.1214 1.80065
158.438 17.5264 2.00328
158.163 17.5357 2.06867
179.975 20.3689 2.33611
171.908 19.7686 2.31937
155.682 17.848 2.08829
138.853 16.264 2.04047
157.243 18.6757 2.33093
166.711 20.2888 2.53435
155.202 18.5648 2.28484
140.8 17.3901 2.18433
142.471 17.7335 2.23078
152.47 19.2033 2.52426
132.194 16.7495 2.19429
162.568 20.5257 2.72659
152.904 20.3848 2.74718
141.842 18.6872 2.52986
134.359 18.2192 2.50914
142.143 19.2739 2.61294
142.953 19.8533 2.7662
138.742 19.3192 2.77991
134.537 19.1063 2.70173
136.123 19.727 2.77555
127.349 18.2483 2.67141
123.003 18.069 2.66065
122.073 17.7124 2.6688
132.422 19.8558 2.9923
139.75 21.1042 3.25248
126.101 19.2471 2.93999
120.547 18.8864 2.94952
124.375 19.0431 3.03435
120.385 18.9435 3.04962
121.484 19.6002 3.2027
128.184 20.6702 3.31002
108.712 17.5898 2.93554
122.58 20.0058 3.3099
122.383 20.2153 3.36163
121.318 20.347 3.4587
115.666 20.1837 3.59653
213.62 36.442 6.11253
112.717 19.1625 3.37692
116.901 20.4571 3.62902
108.853 19.2076 3.38045
114.111 20.0156 3.58751
116.777 21.1531 3.75946
130.625 23.9851 4.45097
104.713 19.1572 3.54958
107.586 19.5552 3.64469
113.634 21.4224 4.04642
104.79 19.89 3.75652
98.9219 19.3785 3.84642
124.95 23.775 4.56697
109.516 21.2283 4.1807
106.733 20.3847 4.01424
94.2761 18.8035 3.76935
99.1358 19.9007 3.9686
101.793 20.8333 4.29935
101.319 20.3184 4.19646
99.0768 20.3874 4.13529
97.0863 20.2708 4.25315
105.661 22.4703 4.85769
92.9526 19.2229 4.03309
92.6597 20.6388 4.49236
104.152 22.7253 4.9207
104.41 22.4891 4.82169
94.3697 20.7678 4.67585
102.774 23.1569 5.26814
95.2453 21.1542 4.83616
88.9939 19.8187 4.43784
101.743 23.688 5.44566
98.563 22.2702 4.95505
88.946 20.3898 4.76889
84.4082 19.4499 4.65924
89.4293 21.0735 4.95772
87.4157 21.193 5.22195
96.3687 22.9727 5.58675
92.3834 21.7208 5.17507
83.2389 20.3309 5.02152
82.9228 20.5864 5.14162
87.4661 21.4415 5.3454
91.6779 23.1563 5.93283
95.3378 23.7506 5.91533
77.8179 20.1427 5.23681
82.1154 20.8226 5.32845
80.2613 20.623 5.42802
85.6019 22.0635 5.71259
79.4965 21.3064 5.78798
83.4802 22.0103 5.76701
77.0573 20.5232 5.48105
82.0763 22.1454 5.91008
76.8632 21.1879 5.9755
82.017 21.955 5.90437
75.6398 20.6384 5.76512
82.883 23.2908 6.54865
74.6716 20.7115 5.85022
80.7486 23.1405 6.66532
72.9589 20.7955 6.00111
78.381 22.5601 6.44786
75.6653 22.2579 6.63213
82.7596 23.9603 6.91647
74.8784 21.7317 6.45836
77.9198 22.4539 6.47465
74.844 22.3108 6.69433
71.5421 21.9737 6.54006
72.9299 22.5314 7.06594
74.9028 22.7482 6.83037
70.9202 21.5714 6.72559
73.1878 22.7935 7.22491
75.4532 22.8434 7.11725
75.0478 23.4539 7.39808
78.9745 25.2017 8.11557
71.6419 22.6449 7.26841
69.8163 21.7022 6.93921
69.6587 22.8778 7.45735
66.54 21.8283 7.23812
64.2199 20.8858 6.92608
68.1024 22.5043 7.54881
81.169 26.7453 8.82617
63.1703 21.3418 7.37594
71.6449 24.5529 8.42852
64.1533 21.8056 7.6038
74.8741 25.4543 8.53496
60.6863 21.8065 7.98574
66.1488 22.6347 7.8226
63.7087 22.373 8.0216
63.879 22.5149 7.85695
66.0156 23.4791 8.28582
64.2917 22.9079 8.27226
64.7939 23.636 8.67938
69.2205 24.8236 9.0108
56.7331 20.7788 7.80127
65.2902 24.6309 9.19449
57.7568 20.4914 7.57006
57.2313 21.385 8.37298
58.7453 22.7638 9.42678
136.929 50.5314 18.0755
58.7867 22.0934 8.25983
49.8418 19.5829 7.84608
57.4024 22.848 9.22753
59.9465 22.6412 8.9183
65.0712 25.4204 9.86744
60.2287 23.6142 9.51249
60.8142 23.746 9.44889
56.5874 22.5014 9.04872
60.68 23.6098 9.42486
52.9325 21.3722 8.77033
57.6483 23.223 9.61916
62.7004 25.4073 10.1763
58.1206 24.2374 10.1273
59.8853 25.4042 10.7148
55.4324 22.6716 9.41413
56.5731 23.7647 10.0257
57.7967 24.0176 10.129
59.2097 24.7415 10.504
53.6147 23.17 10.0073
54.8094 23.6508 10.1818
54.2889 23.578 10.4663
56.9776 24.7384 10.766
50.0639 22.0224 9.79881
56.5358 24.2724 10.5407
50.8646 22.671 10.2279
51.6223 22.962 10.212
49.9779 22.7095 10.4332
49.9191 22.2281 10.0696
53.3961 23.6843 10.7609
46.659 21.137 9.75335
53.1782 24.7341 11.4731
48.0834 22.7393 10.6831
51.3732 23.9235 11.265
51.1953 23.6622 11.1377
49.2578 23.7252 11.4714
48.2215 22.1249 10.3484
48.8144 23.0892 11.3009
44.7849 20.9774 10.3137
46.9988 22.0796 10.5825
48.5614 23.3165 11.4592
51.3467 24.6141 12.0283
50.0713 24.5626 12.3247
49.1797 24.1227 12.108
51.1956 25.6847 12.8838
53.1261 26.3525 12.9496
50.0093 25.5205 13.0056
50.5174 25.7088 12.8164
48.6659 25.3286 12.9315
51.2889 26.5526 13.6843
45.7917 23.5158 12.1027
46.4351 23.94 12.4608
46.9979 24.0206 12.4956
47.8041 25.7838 13.7242
46.0555 24.3708 12.9205
46.4205 24.7601 13.5233
46.1787 24.2879 13.0897
46.3727 25.0481 13.6271
44.4773 23.8423 12.9663
48.0408 25.8773 14.0296
44.7841 23.8771 12.8437
44.0732 24.344 13.6036
46.7217 25.1347 13.9123
43.2315 24.4236 13.8445
45.5347 25.0973 14.0335
45.3012 25.1774 14.141
43.0863 24.1372 13.559
42.5774 24.1802 13.7794
45.6696 26.2941 15.4578
44.2796 24.4959 13.9181
42.5624 23.9291 13.7987
39.1724 22.5886 13.4642
44.8129 25.2937 14.3988
41.8723 24.0484 14.1446
40.4578 23.9382 14.5092
42.1766 24.2699 14.2398
43.7913 25.8955 15.5114
40.3951 24.6495 14.9568
43.9965 25.4481 15.1798
40.1463 24.6991 15.3831
43.1618 25.4588 15.3224
39.504 24.476 15.1288
40.1517 24.2831 15.0546
38.8328 23.2897 14.3758
43.2749 25.9919 15.697
38.5316 23.9497 15.0252
36.958 23.1014 14.8089
38.4546 23.0979 14.1389
41.3176 27.0099 17.2877
37.3688 24.0347 15.6805
36.772 22.8057 14.3824
39.1136 24.798 16.0685
39.1389 25.0029 16.299
40.5011 26.0686 17.1173
41.1274 26.2524 16.8888
35.5842 24.2042 18.0013
77.3083 50.4848 30.2438
35.592 23.128 15.4452
38.2534 24.8881 16.3707
38.4859 25.3991 16.6893
37.887 27.0432 18.6845
34.2485 22.9485 16.019
39.4713 25.9655 17.2694
37.4832 25.1391 16.9956
36.4821 24.8522 17.1703
38.0421 25.9922 17.746
35.1858 24.0562 16.6807
35.1292 24.8552 17.6538
35.0909 25.0677 18.2615
39.4345 26.3535 18.0687
35.1012 24.88 17.9386
35.4731 24.4166 17.3229
35.4669 24.9425 17.8004
37.8219 26.7704 18.9197
34.6899 25.2849 18.6178
37.6668 26.5575 18.826
34.3952 24.5283 17.4234
32.1316 23.7033 17.6218
31.6062 23.2324 17.5328
33.4936 24.1425 17.8845
33.2444 23.8319 17.2984
34.1913 25.1565 18.4975
31.9517 23.3027 17.1781
30.7403 23.1431 17.4996
29.2129 21.1758 16.1759
32.9809 24.4268 18.3361
30.1278 22.3675 17.1689
29.9425 22.4023 17.1295
31.8011 24.5595 18.9703
34.4143 26.2526 20.1166
32.0054 24.1765 18.7649
28.0567 21.4499 17.1777
33.0379 24.3256 18.5098
31.3763 24.487 19.4059
30.3968 23.6615 18.834
31.5623 23.7787 18.623
31.1295 24.7476 19.9464
31.9284 25.2874 20.4024
30.7352 24.3874 19.7862
30.2324 24.293 19.486
31.2074 24.2606 19.462
30.0121 24.5519 20.263
28.6923 22.476 17.9323
27.0389 22.22 18.7816
31.3968 24.8957 19.3818
27.525 22.702 18.5844
30.5135 25.7234 21.5467
28.4625 22.6274 18.4589
27.5329 23.0176 19.0419
27.9416 23.1617 19.3984
25.5129 21.4359 18.1401
25.1438 22.1657 19.4705
27.9866 23.03 19.7292
28.5065 23.8517 19.8853
28.2317 24.2463 20.8976
27.6388 23.4689 20.151
26.1743 22.5273 20.1225
26.4857 22.7624 20.0921
29.0893 24.7647 21.2938
26.3404 22.1792 19.2782
27.5909 24.2838 21.2162
26.5299 23.1392 20.9421
27.6688 24.5149 21.5195
25.913 22.2104 19.4303
25.7511 23.8443 22.5493
26.7402 22.6748 20.1696
26.0559 22.531 19.8382
27.7795 24.9465 22.442
26.7948 23.755 21.614
26.9519 24.7575 23.0224
26.5153 23.6781 21.4956
25.907 23.7332 21.9182
24.9416 22.5724 20.8161
24.6796 22.6702 21.4735
25.802 23.3936 22.3078
26.5554 24.088 22.3298
26.8528 24.3788 22.2223
25.525 24.3586 23.5773
24.9783 22.389 21.2951
26.0246 24.3523 22.9073
26.5768 25.2743 24.159
24.9257 22.8603 21.4632
23.4984 22.3036 21.2183
23.1765 22.1 21.6193
23.2459 21.5377 20.7764
23.04 22.3766 22.1711
22.1024 20.2336 19.5594
22.4867 21.5475 21.0569
24.4468 23.5928 22.998
24.9479 24.3298 23.5687
24.0856 23.9269 24.8006
24.374 24.9804 28.2892
49.7945 46.813 40.8754
24.2484 24.5533 24.9151
20.8691 20.5989 21.5511
22.0402 21.9623 22.3356
21.6463 21.4428 22.1417
25.0566 24.4881 24.3883
22.516 22.8906 23.9011
21.644 21.4465 22.0733
21.4988 21.1207 21.2698
21.9527 21.8855 22.4626
21.7731 22.4617 23.6137
23.9375 25.4956 26.5243
23.3519 23.9529 24.8512
22.6238 22.9592 24.0961
22.3765 22.8122 23.4105
23.0266 24.4906 26.2166
22.0073 22.7645 24.0973
20.6797 21.1727 22.9049
22.6795 23.0688 24.1961
22.8461 24.1355 25.4063
23.9168 25.841 27.5836
22.3507 23.1933 24.8678
21.3707 23.2577 25.4207
21.3787 22.7934 24.8646
21.2763 22.6014 24.7642
21.2466 22.921 24.9881
20.5267 22.8574 25.9889
21.8354 22.8131 23.9753
21.18 23.5427 26.5791
21.0395 23.0008 25.3481
20.9698 23.3136 26.1037
21.1095 22.7185 25.3551
20.1612 21.8196 24.1755
19.6503 22.0106 24.9701
21.5306 24.7058 28.3313
20.3316 21.4018 23.0792
18.9709 21.7972 25.5549
20.5694 22.2304 25.1437
20.5408 22.9024 26.0297
19.8277 22.2367 25.2798
19.9398 22.3654 25.2454
20.4436 24.1016 28.392
20.967 23.8456 27.6259
19.6979 22.3275 26.4336
20.1171 23.1332 26.8178
18.8919 22.8126 28.5556
21.5777 23.9813 27.8975
19.2823 22.6773 27.0832
18.7692 21.4176 25.0045
19.9064 23.5504 28.2428
17.885 20.1088 24.0951
19.5638 22.16 26.1996
18.8574 22.4106 27.3989
19.5134 22.7681 26.6369
18.6667 21.8365 26.5528
17.8692 20.6821 24.8467
17.3996 20.5369 25.1263
17.9285 21.1331 25.944
19.9157 23.71 28.4116
18.4139 22.5361 28.661
18.8841 22.0831 26.9689
18.8056 22.9053 28.8013
19.3896 23.1091 27.7367
18.5715 23.1652 28.5894
17.6875 21.4572 26.6341
18.2167 22.9532 28.6074
17.0788 21.3498 27.5702
18.4753 22.3012 28.0796
17.7527 22.09 28.1921
19.4719 23.2232 28.1736
17.3014 21.8688 27.5357
16.9233 22.2135 29.5068
18.3167 23.4241 30.4941
18.8118 23.1002 29.4129
17.6328 21.7374 27.2192
18.0679 23.4591 30.536
18.0491 23.1928 30.317
18.1616 23.2837 30.8239
18.7206 23.1967 29.9387
18.5916 24.1251 31.0168
18.1505 23.3336 31.2277
16.7863 21.5112 29.2923
17.8694 22.5981 28.6639
17.0216 22.0938 29.0253
16.4487 21.6792 29.6494
16.8248 20.9771 27.3825
16.7244 22.679 31.2018
18.4763 24.5528 32.4983
15.7056 21.2166 30.3297
17.8982 22.9826 30.7364
17.6146 22.9589 30.6691
15.6561 20.1252 27.4457
17.795 23.705 31.201
16.0628 21.726 30.6021
16.359 21.6087 30.5556
15.843 23.8529 42.3391
37.5748 46.0218 50.7529
17.4581 23.9866 33.3353
17.5222 23.854 32.7379
16.1293 22.3433 31.5255
16.375 22.6269 32.1365
15.6376 21.6969 31.2375
15.7324 21.3162 29.8708
14.443 19.7715 28.6374
15.7065 21.2025 29.7383
16.5033 23.176 32.8209
17.0038 23.502 32.4849
15.046 21.0601 30.1316
14.5479 21.4749 32.2947
16.5223 21.9188 29.8502
15.7649 22.1301 31.9346
14.8732 20.8321 29.5465
15.245 21.8717 31.2293
14.1242 21.0296 31.4664
14.6983 20.5878 30.3703
15.0136 21.6261 32.3133
15.4726 22.3109 32.6397
15.6454 22.3336 32.5934
15.7849 22.4375 32.5515
14.6403 21.5937 32.0401
14.4011 20.7298 31.0313
15.0418 22.2817 34.1576
14.7976 20.8041 31.3581
14.8959 20.8089 30.6685
14.6855 21.7577 31.837
13.2689 19.7131 30.5808
14.6852 21.6069 32.737
15.4267 22.1139 32.7402
14.6033 21.2945 31.623
13.407 20.1142 31.4401
14.0494 20.0094 29.7971
14.4985 21.8266 33.2046
13.9913 21.4745 33.8749
14.4792 20.8798 30.8324
12.5527 18.6814 29.0507
13.816 21.2664 34.1066
14.5521 21.3706 32.4193
13.8478 21.3549 34.3163
14.851 22.6551 35.5921
14.4433 21.4291 33.1907
14.3362 21.8585 33.6802
12.8797 19.7397 31.5547
13.9536 21.5871 33.3092
12.9046 19.9771 32.696
14.4817 21.8181 33.609
13.7673 21.3815 33.2814
13.8354 20.8388 31.8885
12.4313 20.1845 32.7746
13.5066 20.5494 32.2253
13.4604 22.0252 37.4563
14.1705 20.8929 32.3233
12.7502 19.8032 31.8716
13.0979 20.7501 33.4243
12.3895 19.3552 32.5153
13.3792 20.8524 33.4524
13.3104 20.7036 33.5781
14.0004 23.0899 37.9315
13.3243 20.8233 35.5548
14.1482 21.9743 35.1825
13.4098 21.151 34.2814
11.9023 19.0934 31.7711
12.6078 19.9627 32.0924
12.223 20.0731 33.9998
12.3116 19.4719 32.9332
12.92 20.1751 31.7182
12.0303 20.4991 35.416
12.4987 20.3644 35.7499
13.0936 21.0578 35.8899
14.1048 22.1937 35.5402
12.6396 21.1358 35.5695
11.8413 19.2364 31.8608
11.1452 18.3895 31.3014
11.203 18.6447 32.9845
12.8615 20.4017 34.0792
11.5931 19.3751 32.7994
11.9021 20.9683 36.1284
12.0612 19.7556 33.9531
11.6528 19.3137 33.9059
12.3504 21.2548 36.4294
11.3766 18.9973 34.2373
12.3801 19.9622 34.1201
11.8691 19.7685 34.09
12.0572 20.3827 35.94
12.2645 20.3967 34.7238
11.937 20.8483 36.8912
12.6045 21.5339 37.6334
12.4233 21.89 38.4874
12.0232 20.6371 38.3897
12.7377 21.3399 37.0431
11.5829 19.7518 35.9243
12.2924 21.558 40.0447
12.5587 23.5362 55.1439
26.7476 43.0003 58.8793
11.4446 20.724 37.6923
11.6425 19.1481 34.3051
11.451 20.4815 37.0136
11.2187 19.5011 35.4366
11.54 20.8215 38.7095
12.2468 20.2912 35.892
11.7019 21.1898 38.4607
10.8664 19.4982 37.0327
11.3917 18.9561 34.0206
10.9872 18.6583 34.331
11.9631 21.3909 37.1416
11.4652 20.416 38.1884
10.9341 19.4228 36.4078
11.4152 19.6528 34.8801
11.381 21.1013 39.2604
10.8822 19.9588 38.0292
11.9297 20.974 38.5286
11.3575 20.1666 37.2252
11.0675 20.1501 38.639
11.4668 20.7374 38.0732
11.2226 20.8451 39.5098
11.5449 21.1909 39.166
11.1965 20.3409 39.4715
11.4707 20.3577 38.0653
10.5809 19.3616 36.8506
10.5188 19.502 37.4631
11.2502 21.1623 39.4114
10.9899 20.2177 37.9068
11.0836 22.3283 47.4342
13.5491 23.7351 41.6877
9.87711 17.7068 34.8712
10.6535 20.4848 40.1254
10.2415 18.4147 34.2103
9.86013 19.2376 36.8586
10.0794 19.3001 38.4999
9.92979 18.1 34.9567
10.0474 18.9118 36.9798
10.3526 19.1557 35.8154
10.4278 21.2773 42.3633
10.5372 19.6001 38.8803
10.3821 19.8981 41.0528
10.7028 18.9759 35.7141
9.37 18.0531 35.7735
9.97892 19.2348 38.8271
10.1163 18.9672 36.8999
9.59391 18.7328 37.4728
10.0111 19.9268 41.4308
11.0507 20.2474 39.1593
9.7846 18.8162 37.7243
9.55041 18.7704 37.9975
9.6907 18.813 37.7221
9.52432 18.3133 37.3129
9.99966 18.9592 37.6054
9.84327 19.6607 38.9191
9.31356 17.7375 36.0643
9.44934 18.7653 38.5824
9.38677 17.8863 36.0875
9.58225 19.5971 40.5303
9.6436 19.0156 39.2403
9.92006 19.3616 38.864
9.35187 19.0284 40.2331
9.80113 18.7685 37.3205
8.90928 17.9086 37.6485
9.16964 17.998 35.9216
8.78945 18.1948 38.1782
9.08851 17.881 38.024
9.32057 18.8356 39.8025
9.52269 18.055 35.3469
8.50543 17.7507 38.5234
8.99847 17.1942 33.9624
8.60467 18.163 38.3492
8.74036 17.4795 37.3209
9.44089 18.3585 35.8054
8.36496 17.2288 36.3974
9.12208 18.9204 39.7967
8.73829 18.3147 40.3524
9.9232 19.3882 37.7122
7.9463 17.2883 38.3457
8.66609 18.1818 40.0382
9.06399 18.714 39.5265
8.71483 17.6509 37.9724
8.53785 17.6381 38.5254
8.05728 16.6086 36.5749
8.90871 17.8567 38.8463
8.93326 18.5279 38.082
8.46753 18.0049 39.4481
8.78399 18.6746 40.0355
8.18219 16.9242 37.6592
8.72698 17.7534 37.601
8.01966 17.6885 39.8872
8.66659 17.746 37.9578
8.07869 17.3429 38.6023
8.39832 17.9533 39.5216
7.75304 16.4102 38.4625
7.88276 19.617 64.9008
20.4668 39.0225 61.2736
8.40744 18.2876 40.6007
8.07688 16.9172 37.4204
7.74517 16.9553 37.3679
8.14391 17.6219 38.7232
8.19681 18.0576 40.0685
8.12857 17.4889 39.952
7.92131 17.1595 38.6309
8.09946 16.8739 35.6905
6.9853 15.6449 37.3392
8.16526 17.848 40.1865
7.60645 16.0077 36.8419
7.84913 17.1175 38.5358
7.74968 16.1525 36.8706
7.82936 16.7256 37.6336
7.96825 18.431 41.2592
8.48342 18.4868 39.9498
7.08926 15.2745 36.942
8.6121 19.6251 42.611
7.4762 16.434 39.6777
7.73735 16.8854 40.1197
8.38051 18.0467 39.3499
7.1899 16.0817 37.2322
7.10066 16.5746 39.641
8.19985 17.7033 39.9005
7.6888 17.6687 40.4405
7.0916 16.0354 39.7945
8.5394 18.3971 42.0106
8.21235 17.7273 38.8424
6.95225 15.9096 39.8389
7.68008 16.7547 38.1967
7.64028 17.4742 41.8064
8.03071 18.1562 40.7781
7.28902 16.1755 38.0854
7.33095 16.6798 40.3868
7.43563 16.7939 40.6525
7.88897 17.9572 40.8208
7.51334 16.9242 39.3356
6.84152 15.7035 38.8908
7.08133 15.2474 36.8473
7.47578 16.9093 39.1953
7.24655 15.8902 38.8532
7.40029 16.6266 39.2186
6.82865 15.2046 37.8753
7.76383 17.5419 40.2275
7.38322 16.7916 39.0971
7.13822 16.8348 40.5441
6.66123 15.6848 38.7056
7.05333 16.449 41.3442
7.09107 15.9003 37.7725
7.2004 16.1886 37.7973
7.12195 17.2297 41.1795
7.43785 17.3426 41.3466
7.1127 16.7873 41.0118
6.87917 16.0318 38.7487
6.52873 15.5009 38.1165
6.84774 16.039 39.6735
6.93961 15.1528 37.1381
7.2689 17.0035 40.5172
6.73408 15.512 37.9975
6.90994 16.6824 41.1576
6.65258 15.2046 37.5819
