# pn-170911/RbIIA-35-RbII-1280-1959.psd
# Power spectrum* (dif=0,1,2) (really just |FT|^2)
# NOTE: only the first half! (symmetric)
# weeks: 1280-1959
# 96 clock-days, 19 excluded
# PSD: 1441
172423 2.29809 0.00978993
5.74716e+06 136.107 0.0210324
5.43824e+06 83.5124 0.0226132
2.13153e+06 36.4313 0.0202695
1.15454e+06 30.8666 0.0226532
850873 20.8837 0.0223568
558528 18.0418 0.0252158
370532 14.2415 0.0190307
322972 16.3314 0.0259553
289188 18.5252 0.0247151
151781 22.7936 0.0298967
189403 23.2104 0.0354716
111111 16.4538 0.0263805
114269 12.4356 0.0235037
99630.9 13.643 0.02869
107273 16.76 0.0287502
84590 27.0779 0.0537613
64230.3 6.3137 0.0278301
51464.3 5.31065 0.033175
60074.9 8.57726 0.0286957
34631.6 14.3203 0.0419703
61319.9 13.4023 0.0435233
41856.5 4.8644 0.031083
33859.3 7.94535 0.0411604
31487.9 12.5573 0.06925
27782.6 6.86611 0.0482415
25463.1 8.56418 0.0601328
26980.8 10.1743 0.0579752
22696.8 9.37075 0.0622311
22950.9 9.85333 0.056602
14258.8 5.33969 0.0364011
17156.8 4.19824 0.0402045
21544.3 7.76598 0.0481823
14443.1 5.36849 0.0489522
15790.9 6.47507 0.0509438
13694.6 5.40679 0.0464077
16007.5 7.11859 0.0610258
12397.5 7.52796 0.0604197
11277.7 9.73245 0.0712672
12222.5 5.09105 0.0507945
9677.6 12.4894 0.097736
9655.7 6.7521 0.0628544
9671.58 6.14019 0.0628489
7795.79 4.34364 0.0480747
7925.8 6.99599 0.0846302
7985.96 5.4313 0.0764344
7749.95 5.03818 0.0735547
7112.03 4.48055 0.0730996
6507.86 7.76558 0.105719
7898.79 7.12414 0.114291
7124 5.15129 0.0950111
6843.08 8.65942 0.150032
5081.99 3.61156 0.0688833
5852.86 7.374 0.136259
4931.99 3.25906 0.0662394
6090.56 5.56718 0.108406
5007.1 4.3871 0.08389
6488.77 2.72782 0.0671071
5728.9 4.77619 0.0996278
4590.09 3.81352 0.103594
4789.77 3.71528 0.0849616
6149.27 6.68084 0.154655
4816.43 3.22069 0.0816254
5120.13 6.68911 0.143731
5358.94 3.02348 0.0959187
5491.45 3.52574 0.0951482
3850.33 2.53105 0.0736998
5210.26 4.58862 0.119148
3598.25 2.59529 0.0840031
4072.97 4.25901 0.104508
3295.89 2.93104 0.0867567
3128.46 3.3837 0.0906855
3085.49 3.17623 0.088399
3142.65 3.06256 0.0850066
3375.76 3.75123 0.10572
3438.51 3.16498 0.100842
2824.4 2.387 0.0832198
3156.69 3.06416 0.111181
3163.83 2.03559 0.0873189
3099.25 2.47412 0.104379
2514.74 3.37546 0.145154
3172.12 2.41702 0.0958312
2811.78 2.91365 0.11195
2321.9 2.5068 0.0974864
2495.98 2.30412 0.10002
2721.75 2.56243 0.115166
1657.2 2.93462 0.119589
2497 1.90713 0.086271
2030.27 2.92535 0.133185
1728 2.4327 0.0971878
1787.47 2.63255 0.129175
2353.23 2.37465 0.107829
2003.74 2.47614 0.121691
2129.51 2.5872 0.134206
2162.2 3.38317 0.167679
1895.22 2.51151 0.124772
1763.26 2.81859 0.159869
2255.9 3.0073 0.162855
1913.35 2.94235 0.162267
1560.29 2.99456 0.175179
1397.9 3.09627 0.164785
2160.53 2.27614 0.129736
1448.14 2.77249 0.155712
2019.99 2.85389 0.168397
1473.11 2.20441 0.129638
1697.31 2.8451 0.191311
1100.77 2.33602 0.132268
1879.82 2.96208 0.188512
1428.14 2.39398 0.140962
1671.2 2.54624 0.194885
1279.67 2.97582 0.204014
1726.02 2.36609 0.15245
1601.51 3.30653 0.238303
1260.16 2.22776 0.155899
1402.45 2.53168 0.17628
1720.76 2.1759 0.156685
927.475 2.61908 0.193372
1089.83 1.9623 0.129228
1149.85 2.65513 0.205355
1044.27 2.31785 0.159686
1511.16 2.46337 0.20314
951.023 2.25086 0.180841
1296.18 2.87332 0.201457
1639.66 2.66649 0.202541
1317.01 3.43308 0.253457
1308.35 2.64716 0.213067
1173.06 3.13332 0.271101
991.396 2.94966 0.242651
1052.12 2.79885 0.242162
919.786 3.43345 0.304061
1049.64 2.54215 0.205969
1105.64 3.50852 0.365827
812.841 2.47289 0.228128
1147.33 2.9162 0.26872
1026.78 2.63195 0.279767
860.179 2.95873 0.276714
1086.46 2.8527 0.27341
869.321 2.39265 0.236184
878.424 2.91528 0.27873
838.635 2.59546 0.256492
803.446 2.31529 0.224651
936.188 2.29508 0.265224
719.66 2.58368 0.234417
936.851 1.81805 0.184849
854.82 2.4096 0.234676
882.035 2.49512 0.268118
732.922 2.55194 0.270271
858.399 2.89442 0.287943
711.515 2.87551 0.297037
773.663 3.43171 0.393526
744.271 2.89842 0.342053
874.143 3.79407 0.403946
731.129 2.57388 0.33002
804.695 2.89535 0.333973
844.116 3.07952 0.354149
862.927 3.32067 0.387013
610.314 2.63538 0.319631
864.449 2.09556 0.264533
664.331 2.24641 0.29606
624.162 2.67504 0.318402
649.381 2.50943 0.363502
567.903 2.58341 0.317663
695.799 2.91374 0.425526
663.418 2.43996 0.299982
765.801 2.93337 0.394561
879.366 3.2927 0.422542
667.364 2.22354 0.328771
515.244 2.87466 0.385377
856.407 1.96787 0.289395
504.386 2.52667 0.356265
592.278 2.86699 0.40952
466.119 2.16498 0.312492
441.721 2.86675 0.429898
725.316 1.98148 0.319416
556.009 2.75142 0.411146
477.482 2.84351 0.456225
589.66 2.45643 0.358612
601.793 2.72781 0.461342
485.703 2.7861 0.44452
612.266 2.53116 0.393289
559.19 2.27828 0.385619
645.506 2.01443 0.321972
424.315 2.48524 0.413892
586.141 2.55789 0.397054
451.326 2.364 0.410065
667.337 2.8195 0.462463
463.883 3.11709 0.529752
655.59 2.60851 0.437808
430.827 2.55297 0.422017
467.965 2.33456 0.392915
501.398 2.88572 0.485267
619.248 2.59717 0.43037
476.505 2.31872 0.392384
516.786 2.43429 0.437646
557.4 2.1072 0.371246
560.329 2.96125 0.518202
495.5 2.14767 0.421977
590.148 2.56177 0.492242
411.741 1.95919 0.386853
394.611 3.02697 0.580113
457.516 2.66758 0.516369
483.334 2.61997 0.538951
317.589 2.7516 0.546076
572.349 2.71851 0.597913
489.861 2.28703 0.461881
407.302 2.6929 0.545743
521.591 2.69243 0.565463
544.691 2.48083 0.483895
402.532 2.6938 0.576099
512.189 2.39027 0.496211
435.517 2.18786 0.477379
461.326 2.7055 0.569922
380.658 2.12126 0.464794
433.476 2.58806 0.551603
419.138 2.55658 0.544638
391.144 2.70537 0.615409
361.869 2.35965 0.505748
368.906 2.96937 0.688792
370.765 2.08108 0.456172
375.568 2.92349 0.62898
357.496 2.37138 0.585388
478.98 2.21867 0.516124
365.092 2.39291 0.586997
483.144 2.58575 0.596098
486.87 2.55227 0.608424
347.028 2.82881 0.678797
402.388 2.17033 0.535902
376.913 2.2326 0.571112
344.308 2.60496 0.633409
323.621 2.68533 0.669984
350.879 2.35727 0.623579
345.335 2.51285 0.669931
319.161 2.51782 0.624256
381.732 2.57469 0.63641
277.394 2.45143 0.659606
385.659 2.41434 0.676544
260.461 2.22699 0.58964
374.969 2.97724 0.816484
359.719 3.09503 0.826572
361.96 2.19983 0.623333
320.003 2.56141 0.717532
314.505 2.46576 0.673441
266.481 2.48745 0.692268
291.186 2.7355 0.746929
253.125 2.81398 0.803598
273.552 2.28082 0.607512
306.461 2.55853 0.715514
254.724 1.97243 0.590308
255.966 2.52544 0.69951
318.712 2.81896 0.844509
280.865 1.89136 0.512455
298.153 2.14562 0.577529
303.976 2.78402 0.843129
287.55 2.64994 0.782011
272.947 2.7169 0.860286
249.08 2.05192 0.629313
358.047 2.82065 0.903985
222.137 2.34558 0.725919
240.799 2.51506 0.795887
254.022 3.1025 0.973983
256.58 2.7218 0.857525
249.827 2.55553 0.837353
197.306 2.6716 0.872039
235.132 2.00904 0.663295
215.635 2.53073 0.855221
196.103 2.57137 0.828462
303.415 2.41787 0.814947
336.155 2.55811 0.872991
180.744 2.41047 0.805004
333.125 2.68696 0.901031
242.09 2.70854 0.975072
250.431 2.60536 0.957169
252.769 2.76193 0.943093
292.397 2.79226 0.983945
216.673 3.45999 1.12839
277.616 2.43456 0.913995
187.89 2.3752 0.866473
260.548 2.71961 0.956206
179.424 2.87245 1.03894
280.149 2.67381 0.976948
209.148 2.77912 1.00302
206.697 2.69323 0.964085
250.756 2.60385 0.915502
218.697 3.17101 1.1556
198.777 3.0234 1.16912
184.483 2.68904 1.02732
109.758 2.47887 1.00376
263.816 2.53606 1.04674
170.63 2.31887 0.857053
119.476 2.61669 1.03121
173.885 2.53735 0.978977
156.309 2.71754 1.00161
151.639 2.49245 0.98869
226.095 2.62748 1.00408
201.728 2.87599 1.15946
185.901 2.55701 1.00924
221.48 3.12154 1.25673
197.588 2.84258 1.24141
178.79 2.92002 1.1708
227.351 2.81302 1.08799
134.778 2.39442 0.999023
223.491 2.96625 1.2745
185.906 2.58466 1.10702
223.464 2.37325 0.965101
179.361 2.80777 1.20702
181.609 2.85949 1.24851
167.039 1.87752 0.882806
183.258 2.08999 0.954001
148.796 2.5813 1.11383
252.53 2.57036 1.02993
194.436 2.58793 1.17834
189.789 2.49165 1.1814
158.331 2.6936 1.1775
179.824 2.53748 1.18352
142.98 3.21755 1.4457
175.156 2.61367 1.22681
159.531 1.98563 0.968662
189.612 2.53061 1.19938
122.117 2.71975 1.27531
212.753 2.57985 1.25214
195.585 2.54744 1.20478
178.054 2.61844 1.24682
200.872 2.68585 1.26471
186.967 2.53393 1.20611
199.13 2.60718 1.30984
167.611 2.98174 1.46204
141.305 2.40734 1.22256
175.117 2.55957 1.22166
161.182 2.53583 1.27513
128.311 2.67483 1.26286
168.374 2.68009 1.31486
134.274 2.4157 1.19703
136.093 2.09037 0.995247
144.138 2.69301 1.37727
127.081 2.52473 1.37252
135.324 2.83243 1.5837
123.343 2.60966 1.3332
149.537 2.19832 1.15945
165.863 2.7352 1.36448
143.818 2.31685 1.33057
135.857 2.55747 1.35787
144.991 2.22615 1.16592
122.825 2.27368 1.27116
161.789 2.76002 1.48861
123.676 2.61928 1.40045
193.578 2.54864 1.41867
175.186 2.58585 1.48282
127.57 2.37817 1.32273
153.179 2.60629 1.44147
168.486 2.36768 1.32518
143.567 3.00608 1.77841
140.918 2.71826 1.44858
172.404 2.89308 1.68031
188.641 2.78581 1.57078
152.671 2.67201 1.6149
207.262 3.06698 1.89309
156.589 2.48911 1.44339
188.108 2.49054 1.38692
143.022 2.44566 1.57353
147.14 2.67211 1.60424
151.923 3.06015 1.72863
133.294 2.68098 1.60542
156.327 2.67664 1.6127
176.213 2.80982 1.61847
120.643 2.72301 1.67403
134.42 2.84783 1.65779
152.407 2.49462 1.58856
144.041 2.63736 1.50645
115.11 2.44875 1.57184
157.945 2.51619 1.53241
143.05 2.617 1.64068
117.624 2.89748 1.80709
140.866 2.37106 1.53567
148.227 2.27746 1.52601
97.0944 2.35229 1.57072
147.14 2.54558 1.56407
116.508 2.70354 1.7247
111.904 2.55911 1.69166
118.482 2.58709 1.55421
133.844 3.34749 2.19273
116.717 2.97782 1.96052
124.658 2.76938 1.73532
135.014 2.89479 2.11708
122.115 2.17675 1.53096
113.955 2.56797 1.65954
153.433 3.10615 2.03021
133.519 2.24362 1.49907
122.195 3.04172 2.18018
110.732 2.69546 1.86741
150.396 3.16263 2.15993
113.205 2.50415 1.66265
142.91 2.97805 2.01085
112.02 2.64201 1.99401
127.922 2.37705 1.58954
92.7586 3.16513 2.26451
137.318 2.58037 1.79635
120.292 2.425 1.79147
147.562 2.99245 2.00998
116.386 2.71773 2.04486
160.972 2.76648 1.9244
142.566 2.50784 1.83377
119.524 2.74464 1.95396
126.402 2.54496 1.89285
152.09 2.43112 1.76025
93.7123 2.5267 1.85654
111.924 2.65044 1.8663
114.093 2.83511 2.22355
118.828 2.60046 1.8886
125.184 3.14838 2.50043
99.0882 2.40301 1.74432
135.066 2.94331 2.05168
151.514 2.83747 2.301
120.47 2.8165 2.12768
134.179 2.613 2.1154
112.936 2.26255 1.7602
108.907 2.67104 1.91105
110.637 2.69022 2.26293
93.3025 2.23648 1.78943
112.915 2.41581 1.8042
99.7236 2.6174 2.02042
80.6505 2.33593 1.83412
112.9 2.78863 2.15066
83.0849 2.49327 1.97588
78.266 3.56608 2.90248
108.624 2.39163 1.91683
96.6896 3.26558 2.64481
94.7588 2.48759 2.02235
94.9634 3.0695 2.39244
109.144 2.57754 1.94956
119.472 2.33318 2.02871
84.0678 2.93827 2.43049
119.053 2.73619 2.22658
105.579 2.59635 2.03936
102.828 2.3393 2.03824
100.016 3.24722 2.64467
95.0559 2.83901 2.3138
89.7722 2.9846 2.37746
95.3261 2.98652 2.48946
108.945 3.25828 2.63502
115.437 2.67441 2.20347
95.5589 2.91111 2.40398
139.454 2.8888 2.66714
125.816 2.87132 2.38198
121.478 2.67098 2.35822
83.0495 2.73172 2.35499
140.336 2.45318 2.29149
91.0043 2.67747 2.25656
99.4121 2.35271 1.93737
90.0018 2.65312 2.43923
77.8243 2.838 2.49697
109.064 2.38367 2.11223
86.4716 3.21989 2.91878
114.999 2.8207 2.79649
126.778 3.13696 2.53947
79.2521 3.10077 3.05399
87.3925 3.20216 2.89478
137.689 2.56651 2.34477
73.8643 2.83913 2.54716
90.5785 2.65624 2.55131
85.2702 2.77754 2.61111
76.2585 2.56349 2.37288
108.636 2.43493 2.15783
88.5698 2.84665 2.81558
77.0587 3.02427 2.90289
85.73 2.59039 2.28645
84.0175 2.71018 2.56482
83.143 2.89052 2.79579
88.7689 2.68082 2.64938
89.8272 2.46167 2.32038
101.277 2.95023 2.68854
70.0799 3.03628 2.98696
84.5647 2.90318 2.94847
64.8167 2.91229 2.84569
99.5421 3.24815 3.18449
69.8579 2.7354 2.72999
88.8062 2.85824 2.82261
73.1673 2.68643 2.71945
88.7741 2.72807 2.5301
76.3997 2.57302 2.70146
108.642 3.07135 3.00842
72.1351 3.00063 3.08261
92.8292 2.93886 3.01194
103.518 2.99184 2.78512
94.4726 3.04354 3.11292
100.672 2.6916 2.79386
115.414 2.93846 3.22892
79.9485 3.0971 2.89435
92.6436 2.50815 2.63718
91.3043 2.87527 2.8656
87.3885 2.4725 2.56612
70.0075 3.00911 3.0891
102.017 2.77581 2.92078
87.4437 2.74141 2.86202
89.7132 2.49385 2.68643
103.314 2.56941 2.83511
112.043 2.34878 2.32149
85.977 2.75074 2.99841
98.5711 2.46209 2.63572
87.9558 3.03825 3.27068
96.1414 2.84322 3.02606
74.3967 2.97827 3.13308
72.9493 3.19858 3.62403
78.0006 3.19719 3.60476
81.1367 2.59767 2.57117
63.0697 3.22282 3.4253
76.8207 3.09132 3.44858
74.5326 2.94873 3.46665
58.6781 3.00294 3.19811
76.0394 2.75174 3.17812
89.2783 2.70198 3.04803
62.7051 3.18104 3.43663
99.2475 3.39401 3.61093
87.6371 3.14333 3.57389
77.0731 3.02879 3.2257
93.1777 3.5401 4.1722
68.9672 3.50141 4.03368
76.2132 3.41833 3.64949
79.4005 3.16979 3.78889
70.3336 2.97684 3.63005
79.6171 3.92748 4.4114
71.05 3.13334 3.81717
98.7553 2.39077 3.00244
66.4726 3.603 4.13015
79.1447 3.46334 3.91362
63.9002 3.2901 3.77139
87.8967 3.05325 3.69993
75.4719 2.95398 3.29366
93.9396 3.29822 3.86108
75.8839 2.54645 3.0389
82.9255 3.00853 3.64103
70.4422 3.21116 3.6657
71.0482 2.96501 3.51441
69.6055 3.07767 3.68351
63.1934 2.683 3.49027
74.0912 2.89484 3.44322
74.7776 3.58993 4.42031
61.6311 2.67744 3.42606
86.665 2.72577 3.32519
73.1679 2.91668 3.70538
88.8762 3.12981 3.64573
86.1103 3.20369 4.01003
60.9166 3.36812 4.24739
62.6952 2.78846 3.39913
65.3682 3.12893 3.95216
74.0484 3.0621 3.79044
51.5202 3.32455 3.997
71.4316 3.47182 4.09623
57.6398 3.02056 3.67999
80.8257 2.99892 3.82504
64.82 3.54566 4.98196
51.4034 3.71566 4.47588
65.0376 3.00742 4.09671
51.9643 3.64857 4.27667
48.9098 3.34179 4.25539
76.5157 2.82999 4.1072
72.1771 3.08788 3.96853
51.8123 3.2982 4.50068
82.3498 2.92693 3.91272
61.8231 2.85235 3.62003
66.7449 3.72288 4.75949
65.5796 3.03022 4.41558
81.6517 3.23632 4.15436
59.0342 3.68306 4.80931
78.4142 3.26389 4.23135
68.2775 3.19433 4.33836
69.4742 2.79329 4.31669
59.095 3.56411 4.09845
88.5246 3.08364 4.10246
56.0908 3.10285 4.33362
64.1303 3.5318 4.94319
73.7117 2.93814 4.38838
66.3687 3.98776 5.25834
65.3143 4.17043 5.74242
52.6725 3.63708 4.75372
45.9683 3.92745 5.44437
111.823 3.70408 5.02977
52.4401 4.04923 5.57818
47.1998 3.44785 5.02669
63.3054 3.90092 5.21119
51.8155 3.89363 5.11719
57.3895 3.09736 4.64547
59.3638 3.45783 4.62503
61.9735 3.70096 5.3076
55.485 3.9289 5.29192
65.8376 3.32429 5.00886
57.794 3.6346 4.88899
57.7647 2.77775 4.15631
55.127 3.44017 5.14601
45.1079 3.04271 4.43455
61.4221 3.55134 5.00275
54.9582 2.46331 3.75155
57.9006 3.07123 4.81892
52.8337 2.99671 3.89166
60.577 3.39224 4.6698
45.0772 3.57043 4.84565
48.2847 3.17922 4.80647
53.1143 3.18596 4.69154
70.3967 3.20497 4.69209
59.9956 3.44393 4.95471
68.7493 2.99081 5.06229
52.2322 3.17424 4.71811
68.7489 3.00883 4.13124
49.7652 3.08576 4.62261
57.3585 3.72514 5.50792
59.8419 2.97491 4.16771
62.2289 3.15464 4.59074
39.5699 3.26314 5.41565
74.1585 3.19327 4.80211
52.8969 3.6437 5.31827
59.2798 3.42188 5.35167
56.2363 2.69836 4.16555
64.4994 3.32058 4.78311
49.8294 2.94355 4.72029
47.3999 3.27652 4.65204
39.9307 2.60333 4.31024
52.705 3.97612 6.37294
51.8703 3.83122 5.3539
51.975 3.89636 5.68751
56.0946 2.73532 3.91117
47.2293 2.87487 5.02361
52.6111 4.20866 6.48112
53.221 3.50762 5.39407
41.4021 4.13138 7.26944
43.7921 3.00021 4.50423
46.0642 3.56264 5.56301
52.0155 2.82251 4.58571
51.8727 3.5521 6.03437
56.2925 3.32128 5.48779
52.1611 3.22621 4.80966
48.2868 2.98887 4.90922
47.424 3.61166 5.87951
53.7544 3.25157 4.75075
38.6505 3.83052 5.86201
64.654 3.37721 5.76406
59.758 2.81381 4.92739
46.8509 3.32382 5.48108
51.9442 3.6663 6.02184
56.6672 3.59506 6.11473
48.2239 3.44429 5.71293
50.0294 3.37782 5.75058
51.3808 2.64118 4.42167
56.125 3.67999 5.85199
48.9528 3.13063 5.14975
61.5602 3.4826 6.00941
52.0331 3.08004 4.96884
69.5856 3.48609 5.84559
45.1016 4.02732 6.21299
51.8785 3.40441 6.08419
51.9952 3.29043 5.10342
43.4754 3.65658 6.56578
55.6493 2.85007 4.75334
61.7628 3.09308 5.15822
43.8762 3.36174 5.68364
51.3303 2.89769 5.2073
54.5656 3.60246 6.05905
51.4488 2.79041 5.14108
49.3245 2.91147 4.92083
56.0752 3.89696 6.76146
53.758 3.53271 6.55984
49.3561 4.15149 7.1221
50.5332 3.99372 6.41404
53.7226 2.9767 5.32789
38.2072 4.08233 6.96981
53.9393 3.17587 5.44605
40.9432 3.46077 6.05674
40.2174 3.69683 6.51478
43.079 3.10894 5.6199
42.515 2.92027 5.07004
43.7588 3.64005 6.22206
41.4307 3.49201 6.36462
45.4883 3.13106 6.17235
51.4658 3.06488 5.72937
40.7796 2.9723 5.2842
51.0492 4.26308 7.27699
56.4666 3.3214 6.51943
43.3867 3.30737 5.83127
45.0328 3.20451 5.32212
52.7324 3.17661 6.60027
44.8737 3.77114 6.11071
55.0728 3.44937 6.66755
42.1961 3.32189 6.20506
47.0995 3.29504 5.80964
42.328 3.2557 5.43243
50.4563 3.78392 7.84685
45.8584 4.18897 6.54685
56.7967 3.28847 6.84609
45.0522 3.20379 5.4575
69.1386 3.0903 6.55297
57.0539 3.6508 6.43227
52.853 3.13897 6.1199
53.897 3.65307 6.48929
55.0827 4.05482 7.8501
38.4586 3.68019 6.51375
50.3548 3.52252 6.18111
40.5119 3.53317 6.50508
45.7835 3.74329 8.19016
38.9951 3.36989 6.43437
41.3027 3.74449 7.71417
49.5045 3.35627 5.6821
54.7366 3.1806 6.32389
43.7221 3.98231 7.63585
54.3471 3.02597 5.95452
41.7479 4.16956 7.39271
51.3668 3.52353 6.33711
39.6237 3.30647 6.91261
49.0498 3.7143 7.00752
47.9158 3.52315 7.22428
43.3397 3.62514 7.40743
40.2242 3.56097 6.72357
46.3958 4.04432 7.57736
35.2376 3.77099 7.10987
38.976 3.63623 7.25918
45.2516 3.53493 7.23981
37.0386 3.68549 7.18348
46.2267 3.46694 6.82654
38.0593 3.72167 7.48772
50.9211 3.48671 7.25699
48.2215 3.15594 6.92051
35.4432 3.43517 6.79941
56.9203 4.69135 8.8998
42.3718 4.12856 8.24457
45.4528 4.2659 8.15661
45.7201 3.25623 6.64989
36.2362 3.52734 7.76318
44.7793 4.24303 8.88018
35.2898 3.61122 6.59914
43.5015 3.80373 7.64653
47.0195 3.22666 6.62243
31.8024 3.35008 6.4466
59.9415 3.36905 6.68946
52.7 4.00235 8.65915
44.4493 4.23144 9.2943
38.9798 3.99596 6.95841
64.9986 3.75397 8.47228
43.8383 4.63449 8.02231
48.0971 3.76616 7.99301
38.3603 3.54748 7.3448
39.0381 4.29278 8.9678
47.2072 3.70359 7.65406
39.8895 3.36437 7.6328
52.2016 3.55483 6.43746
52.1259 3.99831 8.47599
40.6717 3.26424 7.40047
43.9823 3.99661 8.38084
54.3198 4.12603 8.35872
34.3848 4.09431 8.37668
42.103 3.75974 8.16475
37.6295 3.42501 7.01047
36.7947 3.9561 9.43403
35.3164 4.11183 8.52677
40.4235 3.76438 7.89522
34.2412 4.29568 8.39023
32.0345 3.38395 7.6987
31.8133 3.30469 7.35072
36.1702 3.91162 8.19279
33.9781 4.09054 7.79939
38.6675 4.20163 9.04378
41.3745 3.63066 7.85771
39.5132 3.44633 7.57974
39.4268 3.45591 7.68921
33.4461 3.96248 8.42511
49.8704 4.03921 9.49924
32.9491 4.30092 8.45732
40.0831 4.13167 9.1945
41.3959 4.01466 8.95776
39.9829 3.93158 7.92077
35.8683 3.99786 8.93453
47.8975 4.40637 8.36614
34.1371 3.49285 7.88024
47.7084 3.74085 8.25461
44.471 3.53699 8.379
41.2999 3.70582 8.63572
47.9009 4.83352 9.65845
50.877 4.01866 9.86315
40.6743 4.74786 9.38512
43.8283 4.17933 9.39152
43.7155 3.53494 9.40071
45.3507 4.01941 8.35224
35.1375 4.08969 9.21591
54.1559 3.79638 8.2558
42.6763 4.19509 9.43572
43.9048 4.73687 11.0358
52.2169 4.38065 9.81233
47.5238 4.27126 8.90232
42.2353 3.81584 8.76833
49.9333 4.01554 9.90885
37.1409 4.26809 10.1991
54.9699 4.49434 9.91108
35.5455 4.64481 10.3924
34.629 3.95565 9.98495
42.4323 4.42667 9.72157
37.6742 4.04205 9.37174
33.7102 4.60705 10.4797
46.0015 4.13043 9.09876
35.9239 3.93964 9.20421
35.1664 4.00059 8.31153
38.1949 3.83654 9.95981
39.1607 3.56324 8.0263
35.2276 3.31033 8.64531
41.8671 3.64851 9.68061
37.9675 3.80354 7.32741
34.6142 3.84221 8.98074
41.7707 4.97719 11.9373
32.6854 3.75872 8.76599
30.0629 3.80299 9.53988
37.8587 4.15694 9.72749
34.523 3.63507 8.1988
31.2195 4.07974 10.2481
38.3751 3.91768 8.1249
50.1369 3.88072 9.8559
36.2035 3.96581 9.26298
43.4816 3.83266 7.92807
34.2648 5.04612 12.6449
50.2832 4.3353 10.7743
38.1604 4.07993 9.5422
41.8326 4.45285 10.1461
45.9403 4.69781 11.1002
43.8765 3.72039 9.41237
31.2461 3.97264 9.84431
47.8738 3.83522 9.22336
34.4382 3.99582 9.21777
