# pn-170911/RbIIR-57-KOKB-1280-1959.psd
# Power spectrum* (dif=0,1,2) (really just |FT|^2)
# NOTE: only the first half! (symmetric)
# weeks: 1280-1959
# 3 clock-days, 0 excluded
# PSD: 1441
100.141 0.158076 0.00732195
139446 2.50356 0.0155054
111816 1.02952 0.015681
51942.4 0.874004 0.0159677
18395.8 1.45246 0.0152049
6016.71 0.608446 0.0150755
23382.2 1.94757 0.0191552
3217.03 0.583544 0.0177508
8366.67 0.846308 0.0184533
1691.58 0.757098 0.016361
3470.66 1.66596 0.0151049
998.96 0.84446 0.0187303
1651.18 0.276628 0.0179773
1777.78 0.20198 0.0162599
472.486 0.84045 0.0146712
1328.55 1.45918 0.0174332
645.755 0.637881 0.0196612
1215.29 0.959255 0.0145548
539.381 0.556116 0.0121446
1070.21 0.456081 0.0167165
309.341 0.484837 0.017315
569.878 0.326613 0.014566
790.605 1.04486 0.0249374
340.781 0.606994 0.0149137
317.059 0.36174 0.0162269
1066.25 1.11822 0.0194713
1052.19 1.97373 0.0162732
1283.56 1.71382 0.0261006
365.349 1.15586 0.0239842
173.904 0.342733 0.0215536
618.69 1.77015 0.0123063
374.996 0.90653 0.0303751
219.014 0.429843 0.0211496
185.596 0.204739 0.0208485
153.935 0.417717 0.0198794
227.547 0.340384 0.021655
107.806 0.180784 0.0224047
296.914 0.390263 0.0180192
163.066 1.19585 0.0303023
83.1781 0.727071 0.0225084
256.298 1.1912 0.0216869
55.7168 0.752529 0.0223955
205.542 0.874066 0.0216678
154.289 1.253 0.0296515
497.521 2.98496 0.0595937
86.2005 0.98523 0.0304106
67.3492 1.36089 0.0376365
313.974 2.57518 0.0597352
109.523 2.51288 0.0601538
347.998 2.9631 0.0708551
189.537 1.13467 0.0112177
373.547 3.84214 0.114221
215.034 2.39161 0.0257048
249.164 2.29928 0.055275
143.812 0.708502 0.0190289
355.28 4.57968 0.068102
33.4122 0.981648 0.0177924
170.128 1.28612 0.0360292
241.281 3.05606 0.0321441
142.548 3.26737 0.0888722
36.5496 2.32215 0.0543405
161.075 3.85268 0.132719
177.541 2.8209 0.0716437
151.776 1.55548 0.0446212
218.699 2.8109 0.0615658
69.7941 2.59799 0.0938537
109.891 2.67407 0.0336401
294.522 4.15933 0.0835456
39.5641 1.44957 0.0519272
425.496 9.31438 0.284942
43.4456 1.26713 0.0220063
55.3418 1.66121 0.0702681
40.5501 0.656708 0.0523978
297.024 4.98961 0.153555
53.7013 1.37523 0.072375
24.1548 1.29075 0.0383677
413.312 7.80273 0.247725
111.457 2.20543 0.0458832
180.995 5.19362 0.184339
72.5936 2.25134 0.0562806
313.156 6.21929 0.155897
131.788 3.78942 0.0873285
137.067 4.20114 0.127912
133.516 3.14509 0.143285
237.172 7.96198 0.353515
147.441 2.28924 0.115475
125.469 6.00289 0.239346
48.6076 1.35644 0.0791171
49.5447 2.56476 0.160049
111.809 2.46355 0.0626212
119.373 4.14388 0.185376
107.793 2.69275 0.156339
188.833 7.65711 0.292061
180.347 8.76755 0.452333
21.4205 1.14639 0.0488759
90.5121 3.88974 0.193893
358.66 13.707 0.729416
20.1036 1.89846 0.123315
26.534 3.08484 0.19763
14.4121 0.108616 0.0121955
72.1893 1.94408 0.0973072
43.9088 1.6101 0.0857891
62.446 6.27474 0.309262
120.993 4.21024 0.274694
87.1329 4.51557 0.341283
111.606 6.12045 0.296844
305.695 15.6921 1.01381
64.4081 2.81386 0.284091
109.644 3.2531 0.236021
188.06 11.4217 0.561683
171.969 11.5613 0.630052
133.604 9.90606 0.604203
10.5679 2.02015 0.130402
244.557 11.6403 0.631217
42.7721 1.60582 0.152195
262.769 14.2378 1.05458
68.8811 6.83301 0.500399
159.192 12.8552 0.804856
55.0579 3.76482 0.237318
86.0915 7.86862 0.451154
74.5125 2.7855 0.279991
131.93 9.52925 0.626426
109.105 5.27914 0.42697
121.32 9.1813 0.738365
160.372 8.5825 0.639585
90.7354 4.57546 0.273533
75.6669 5.77662 0.430065
107.939 11.5864 0.978067
294.333 19.3441 1.61152
132.418 8.79687 0.670676
93.6796 6.16028 0.490058
120.189 11.2293 1.03325
57.4161 2.64235 0.178022
117.295 7.74516 0.642124
75.9301 6.76725 0.693192
73.1169 4.84237 0.509257
152.441 10.7861 1.18396
95.7458 7.02068 0.776548
252.544 20.8624 1.96653
122.537 12.0646 0.919414
81.7323 8.6216 1.0602
139.678 16.8664 1.62434
128.861 8.18511 0.635697
45.485 6.37034 0.563567
82.5511 5.65898 0.582914
41.8999 6.5118 0.730463
23.7401 2.15451 0.208586
173.259 14.7761 1.62542
156.574 10.5972 0.978073
56.9197 4.24079 0.412406
55.9054 5.08662 0.469232
183.653 17.4963 2.08517
28.0735 1.34877 0.13215
487.939 48.0883 4.69339
206.628 21.2534 2.23077
52.4633 3.98822 0.472375
94.5799 12.3723 1.46701
139.342 16.7707 1.90923
70.3683 5.32293 0.564848
114.244 12.1094 1.47152
105.174 7.58395 0.973855
143.229 13.2611 1.77486
143.463 15.4404 1.92579
111.957 11.6601 1.69634
59.6726 8.99657 1.29518
22.5526 4.3057 0.753583
80.548 13.2899 1.96976
52.8759 6.18846 0.99486
86.516 7.34916 0.711135
94.1087 11.9276 1.39588
100.188 11.1978 1.53645
228.675 35.2894 4.93507
59.3092 9.71506 1.65485
26.6463 4.45055 0.972318
53.4094 3.66102 0.251164
208.065 23.6401 3.53978
80.1802 11.9478 1.98896
123.297 17.469 3.07252
122.997 16.8659 1.88681
57.9698 7.01066 1.26542
103.609 12.8646 2.01338
40.9176 5.93613 0.874856
118.337 22.5216 3.03255
133.103 25.689 4.13158
104.519 14.3226 1.86368
89.5671 12.8817 2.21278
95.7639 19.7453 2.95047
50.2287 12.5902 2.44227
33.8358 4.25364 0.58549
46.3094 5.30781 0.910173
55.0082 11.582 2.1136
72.1201 12.4787 2.43368
149.01 24.4007 3.69397
119.98 16.8599 3.05684
148.272 26.7649 4.16051
69.5678 14.4759 3.09519
94.8414 15.3576 2.64177
102.44 23.0009 4.29778
71.9877 17.063 2.80199
63.7831 16.2316 3.26407
41.514 6.43464 1.43112
52.4527 5.51089 1.01893
129.903 23.0223 4.43001
81.0592 17.2981 3.37207
126.627 22.6255 4.12159
29.5593 8.89826 1.61991
20.9185 3.91853 0.822116
59.7077 16.7135 3.98705
119.578 22.2413 5.03585
102.069 19.2325 3.29102
52.8901 11.8145 2.14914
61.8874 15.8555 3.6515
39.4197 6.71881 1.19389
144.795 24.886 4.9244
42.6139 10.4695 2.06835
47.0612 11.0967 2.73129
43.8237 6.25738 1.41293
149.045 33.4145 7.57736
60.6089 16.6285 3.88975
86.2498 20.4036 5.46919
30.2968 3.05316 0.587223
62.7604 14.2745 4.14122
262.904 48.9006 10.3135
47.7171 10.077 2.9792
93.5864 20.9595 4.26533
52.6666 15.6966 3.08203
36.9661 13.5175 3.6272
76.8165 16.331 4.28185
44.8594 10.0059 2.6648
175.5 36.9621 8.28832
74.9578 20.4733 5.3037
114.794 24.9529 6.1907
99.9148 18.0191 3.96334
51.3827 11.7635 3.26523
18.5033 4.95906 1.79915
19.4875 5.5305 1.98708
97.7884 22.5116 4.85855
26.9451 7.82202 2.54276
62.9935 14.9032 3.33677
37.9108 9.55363 2.86325
35.3288 6.77852 1.9798
85.5384 20.8238 5.96125
121.918 26.0219 6.41726
39.4855 14.7207 6.20014
125.458 29.143 5.97683
46.808 14.939 4.68148
48.7464 8.49716 2.02606
36.8778 11.6317 3.91276
26.7197 8.30436 2.13525
70.9772 20.5496 5.56773
71.8644 16.1174 4.75085
48.5975 8.90004 1.89182
63.7927 16.5913 5.54572
34.7074 9.28914 2.43771
92.7531 24.8267 7.77676
23.38 4.30168 1.20204
33.5222 8.93552 2.54565
37.6139 9.11512 2.89704
38.8411 14.2327 3.87652
107.856 28.8423 8.31273
25.6869 7.31027 3.32604
92.3647 30.8748 9.47838
41.1486 9.98552 3.00651
51.9906 18.2333 5.80387
25.3997 5.83541 2.25305
51.1143 21.6188 6.65835
38.778 9.75719 3.10508
58.9602 27.8362 11.2496
28.9334 7.13014 1.92767
76.8698 26.9925 9.40412
78.6493 18.9622 4.93701
54.4651 19.9566 7.86545
18.1409 5.91639 2.19236
27.3708 6.18071 1.60529
67.6393 19.346 5.96589
38.2469 14.4288 6.67758
30.6053 8.40924 1.9519
30.9902 9.3049 3.25609
52.8322 14.0964 5.51964
5.95554 1.88837 0.585106
38.6503 17.2937 5.61488
54.8899 21.8458 7.97614
13.3075 4.57773 1.70661
13.7963 3.93083 1.47389
68.2052 22.9788 9.2221
26.5609 6.86501 3.02246
21.1411 9.02799 3.31074
57.4158 24.0895 9.84227
62.9761 20.3717 7.6132
76.1365 26.7658 9.33009
43.8563 13.8773 4.69218
31.6848 13.7301 6.23364
87.0426 29.2321 10.566
45.7479 16.6652 6.88178
45.5949 18.6991 5.25198
61.1972 30.0346 12.6157
48.8923 27.1339 13.831
14.3947 5.75261 3.86753
39.2969 7.24546 1.66868
37.1059 13.33 6.48391
35.4255 13.6284 5.3125
55.3948 23.0667 9.23394
34.6882 13.0824 6.72122
58.0889 18.2873 7.1677
60.2613 21.5534 7.75518
39.0241 19.6605 9.5387
57.9167 27.1771 11.6672
30.818 12.0345 6.48927
17.7087 6.47324 1.55705
24.3572 11.8727 5.5355
39.501 15.1895 5.75293
66.292 26.8974 12.5029
14.4033 9.58264 4.54717
54.6887 21.0677 8.94632
36.0371 21.0803 11.9671
31.657 12.9031 6.41861
55.3929 22.8125 7.14158
50.5709 25.81 11.559
58.3168 31.7567 14.2616
18.5516 12.2239 6.79202
34.4087 11.5786 5.19032
66.2633 33.6859 18.796
32.1739 11.8421 6.9188
110.257 48.4844 20.6444
45.2649 16.2117 6.59557
23.0628 16.1177 8.22764
47.6898 26.891 13.2561
46.2765 15.4893 6.39661
31.0987 14.9743 8.77465
47.8144 22.5942 10.4058
28.4216 15.5723 7.80864
61.561 37.0069 19.4806
16.7285 7.06058 3.82165
58.347 33.1032 16.1521
8.28977 4.81704 4.3555
25.3867 7.62592 3.23995
51.7476 23.8418 12.5438
51.4278 20.7284 8.40535
33.2613 17.8626 8.40618
62.4431 27.9924 15.2169
37.418 18.7429 7.58824
18.1198 13.0702 7.06135
20.0136 12.2319 5.60244
32.0657 14.8827 6.60684
52.5098 30.42 17.8303
22.4847 15.064 10.6351
52.2595 24.9615 11.7522
25.5738 11.8288 5.84671
16.1295 16.1297 11.1374
56.9199 27.5375 15.382
24.717 20.4528 14.2375
38.0025 20.175 11.2417
77.0558 29.9508 12.2976
9.37095 6.78398 5.28756
8.52152 6.38314 4.5221
31.6947 14.2318 6.43203
17.2533 9.65018 6.59415
19.2237 17.8495 11.7195
66.8758 28.7645 15.1206
31.7719 18.5843 10.2781
57.2645 35.9179 22.3316
76.2261 32.3906 15.7046
40.0076 26.2531 19.5947
36.4756 16.6996 9.56927
21.2038 10.7297 6.14237
17.0155 9.04989 4.56283
9.60596 4.94234 4.23421
13.3108 11.0596 8.47315
81.9267 46.5964 26.554
18.8363 17.3522 10.9969
9.45597 5.03504 3.13251
21.8955 16.6471 13.8992
108.679 56.3928 31.9702
32.4147 18.5677 11.4049
11.952 6.64939 3.52659
9.35737 5.12191 4.39826
38.4836 23.068 14.0245
30.2071 15.745 7.60892
16.3632 13.5413 8.9717
37.4966 25.7194 17.7205
41.0777 24.6667 11.9886
22.8458 14.3107 7.23222
39.116 27.2749 16.203
61.6385 41.2315 24.8449
25.3881 29.4139 25.5438
35.5596 27.6273 20.2452
12.0011 1.83583 1.3877
49.1336 34.9879 21.1704
22.4709 16.6488 13.6234
46.7153 32.6685 26.7932
35.4583 20.2134 15.6693
43.9378 19.5175 8.04176
36.4796 23.5382 17.0139
12.0805 7.95132 7.37927
69.562 43.6711 24.5671
5.42497 8.57139 7.87897
37.7864 19.9374 14.3285
39.8926 26.081 16.9317
7.34517 3.15512 3.32736
35.1205 23.2427 12.2214
21.7683 17.8313 14.1103
20.2384 10.4011 6.20208
28.7996 26.3333 19.9237
41.466 34.9776 29.1394
47.1809 31.4325 18.8874
22.8604 27.1135 27.0862
54.9957 41.0988 29.8338
36.3953 16.7444 6.65683
17.8721 17.7965 15.6184
27.1532 15.0948 13.0756
26.9705 18.7488 14.4998
73.3493 48.9745 28.6177
7.01732 5.44541 5.97927
15.8029 14.0011 9.69625
36.924 28.3858 19.4662
12.9706 12.2117 11.0034
29.799 21.2246 12.0673
18.5952 21.075 20.33
10.8048 4.3233 3.13594
8.6059 10.2149 11.3807
30.8319 11.3828 4.94201
33.6806 28.3964 23.7363
34.6994 28.9759 21.9359
34.2034 21.6731 13.7815
25.824 19.5059 18.877
27.5046 20.4991 12.2857
18.4608 21.0695 17.2236
21.5708 19.2167 18.2741
13.2098 7.78817 7.10275
10.2136 9.78248 7.06487
15.6524 22.4023 22.2454
24.2058 10.1541 7.38133
53.9219 35.8102 26.3847
15.6634 17.6917 22.4936
24.3357 13.4994 8.79589
39.7904 32.6545 24.6186
12.7713 10.8054 9.5247
13.2549 10.8257 7.34946
16.2513 17.6145 18.3215
22.912 26.5199 24.1378
24.8125 13.3622 12.0438
20.6839 18.2407 19.6144
43.9872 29.5017 18.7282
7.224 6.31711 8.61185
13.0809 12.9415 8.7431
16.3096 14.1237 16.965
21.4087 14.9699 9.84586
20.8257 20.9817 16.3446
23.3422 16.4779 12.8311
16.6766 14.5906 14.4683
13.8709 11.5401 8.97741
19.9523 21.9897 19.0729
26.0313 18.7237 13.1368
18.6315 25.9177 23.5637
25.1625 20.4855 18.5968
38.9592 41.7862 39.3663
17.6073 15.3948 12.9878
6.65073 11.2981 13.9698
22.4043 23.7561 25.5388
15.3956 11.1228 10.3551
22.2143 16.2615 10.0114
10.7842 9.76255 12.5212
23.3367 19.9759 17.0595
14.5776 11.8688 12.0706
59.6828 54.0904 44.4607
13.2502 9.89272 13.8352
83.0205 67.1524 54.3357
10.1933 11.6764 16.2461
44.6694 45.6013 37.9167
12.6807 26.9065 35.9431
27.7217 21.9808 21.4414
15.8155 12.2838 13.9434
14.8645 7.82558 4.07775
29.6619 26.8215 22.5936
4.8028 7.50161 10.212
15.8879 8.61749 6.6175
32.1058 34.4553 37.4775
24.7262 21.2309 14.0141
8.25937 11.8215 12.585
15.5023 15.7628 13.0827
34.0458 46.0785 45.7491
12.9825 14.1304 16.2589
19.5752 26.9346 29.8165
22.7636 14.9363 16.1456
16.9274 16.2126 18.1439
24.1999 17.1489 11.711
38.9861 47.4926 50.1068
36.0815 27.7322 23.1458
9.45781 10.2897 11.9207
27.5773 42.5104 44.0063
25.4596 19.1605 17.3988
17.9732 13.6689 13.0918
17.4454 22.1711 23.6142
28.9636 32.8842 35.1676
7.68179 9.21782 15.0159
31.817 46.3973 46.3218
15.6414 14.7219 14.6357
8.73145 15.0383 20.674
9.73108 24.365 48.377
36.6792 16.4844 10.8211
51.3235 48.8144 47.4065
24.0656 17.3492 14.554
39.8412 39.9994 37.5207
20.3292 15.5231 16.4169
10.0395 14.6935 19.6208
9.663 6.15618 8.49841
14.954 22.6133 24.6688
12.1727 6.77246 8.16726
13.7209 16.0389 18.797
27.85 27.956 24.5983
12.2378 13.7434 12.9009
16.5403 29.652 44.3832
24.9368 16.2855 16.3598
22.2323 26.2487 34.4163
23.6685 19.5947 15.7882
21.2532 19.8781 20.1466
16.3627 16.9176 16.9431
22.7004 29.8516 37.0846
19.7637 20.3977 17.5721
14.4392 27.4198 38.5283
14.7075 14.9691 20.6525
27.7856 22.2676 25.0385
23.6255 15.9145 10.6494
9.66488 14.7334 21.8465
8.80818 4.79331 4.17042
15.2492 16.015 21.0533
24.8708 29.1001 32.9142
15.1573 16.9587 20.2544
12.1828 9.95273 6.78698
10.6566 19.4395 31.0706
15.3063 12.2169 14.7271
15.4894 19.0159 25.4305
12.2196 12.8152 14.5734
3.86408 5.7433 7.65922
17.521 31.1941 34.7385
7.43335 9.33314 18.4326
28.8266 23.0264 23.8823
5.15348 3.61013 5.56966
14.3407 13.8686 8.51872
17.3462 24.3416 28.8636
3.4463 6.40597 12.0832
21.9713 29.2624 43.0361
17.5938 18.5426 24.2111
17.5739 20.2223 23.8179
17.5035 18.9219 18.8772
11.8363 23.3204 36.0124
27.5576 20.0986 14.0645
6.34661 10.4394 14.8581
4.40695 5.67453 10.0041
18.9597 23.5872 30.8143
17.2221 26.025 37.2232
13.2755 13.422 15.322
9.29329 9.33288 12.4554
36.5313 58.1959 80.2593
23.1515 19.4981 15.0361
16.8202 21.2548 31.4288
12.4766 22.1549 27.1345
11.0968 9.39794 8.13569
5.24957 9.56811 19.219
14.8498 18.8335 16.5162
10.6609 19.4696 38.8761
25.3607 22.0947 13.6884
8.26014 19.8942 32.7356
9.86647 11.3874 20.0409
30.8769 35.1249 28.5215
18.1874 34.4788 46.6568
2.17735 9.04679 17.2547
7.03962 15.7779 24.5637
3.33822 10.8225 30.1602
12.6503 13.7326 28.091
19.6464 12.0872 8.13062
12.7835 15.0481 21.1841
16.9249 24.6346 35.3192
11.4237 7.98545 6.79088
16.4112 27.8997 39.0221
18.0094 17.1132 22.6487
19.2497 23.2218 29.0151
14.2447 15.0749 23.7454
11.7377 19.1152 25.0306
12.5027 15.4904 20.0574
14.33 18.3512 29.6856
18.8817 15.8465 12.8596
20.309 33.0382 45.4489
12.7899 15.3718 23.2162
12.3572 18.0882 30.8085
11.1745 16.6579 23.0053
2.2194 3.11211 7.00934
7.67391 16.7206 23.7335
14.0108 30.3826 48.1781
23.3145 34.2741 52.3524
27.1748 24.0612 22.0975
8.91804 9.21935 8.6335
1.90628 3.1378 4.126
4.88219 11.8864 23.8096
24.2342 41.6502 61.7595
17.6172 12.722 11.079
8.02329 14.5636 24.7417
14.2569 16.8951 20.1571
12.0713 28.4645 49.626
14.6771 21.397 43.1413
24.9118 22.6247 20.3481
11.52 20.7673 32.4732
6.32365 12.6356 21.5573
1.68178 4.43264 20.8844
20.6588 24.274 22.9294
6.81319 13.1251 23.2748
12.6308 14.9809 16.2672
4.93444 18.2975 34.2594
7.63466 5.8276 6.76441
7.81331 13.6845 24.9481
20.5711 29.1309 39.8346
4.38349 18.2464 58.681
32.8374 23.3042 15.8803
15.3468 27.3288 39.7105
5.70046 4.78522 6.01798
8.0835 13.7201 22.8305
10.6996 19.2726 38.2273
21.9807 15.4429 7.74921
9.71925 11.9166 15.8975
14.6922 30.4232 59.5563
18.1613 22.3818 25.0166
8.48539 12.1552 24.9362
17.3317 30.6765 38.1368
10.8848 12.7075 17.5616
8.81688 17.9511 25.0579
3.0543 7.56538 16.0471
6.16395 9.49567 17.4074
6.11371 17.1487 27.8721
14.7769 37.1208 81.3283
22.9552 24.1481 26.5795
15.6862 20.548 27.8379
2.33412 2.51244 4.65471
3.5933 13.1231 32.9502
20.0377 19.4969 19.1113
3.82192 12.309 33.4375
28.1853 35.2703 49.285
8.66298 18.7968 31.4481
18.5551 31.6515 56.5342
3.74464 7.78382 32.3314
11.6066 6.73708 8.60525
15.9471 25.5431 43.3399
19.5788 19.5743 13.9181
5.72716 11.0972 21.1677
10.9271 17.1393 27.5341
4.03166 8.123 16.1456
4.86683 8.8707 15.624
5.17676 12.1616 19.7791
4.80908 8.92892 12.4578
6.04566 15.7203 28.8888
4.68795 9.70486 29.0022
21.0352 39.6818 56.1732
11.828 13.006 19.1287
16.4047 22.0713 27.748
18.1609 38.3553 61.3391
10.6333 15.9706 24.0696
3.38527 6.61674 24.0151
10.9961 19.8744 31.5857
3.80574 2.92395 17.1475
13.4513 12.4733 15.3664
18.9571 35.0393 49.7157
3.89445 5.09312 15.3364
16.679 36.1355 50.8819
4.86049 7.96455 17.7861
11.6424 20.889 26.644
7.55289 22.0945 39.8282
3.98673 8.74151 18.1574
4.16165 7.22601 17.4333
7.03131 14.6895 37.603
8.62132 5.37163 5.63431
2.88446 10.0094 27.1413
7.97949 9.26357 18.4093
7.11985 6.51755 19.0146
14.8478 15.3964 18.2129
6.36029 4.8934 1.97575
6.95242 15.7283 27.9257
3.60155 6.35697 18.7795
5.32736 1.71308 5.04004
7.9182 9.17184 10.0271
7.44637 11.5027 26.6497
15.0812 22.0089 40.5354
18.3712 31.7962 49.1057
9.45505 26.8666 59.5405
16.4321 13.8633 13.448
9.14093 12.8249 14.6593
10.2826 23.686 55.456
20.503 36.9624 56.1811
4.97947 9.73558 31.9545
8.52909 8.88199 35.8117
31.5897 51.0032 54.3513
3.89278 13.4448 32.6876
9.82277 10.7327 15.1473
6.26442 7.87511 12.3275
7.56291 19.3814 38.0923
13.0997 20.9672 38.9641
4.12239 7.55646 30.4093
20.8057 33.252 41.61
4.77879 4.3927 6.30018
4.21774 14.0371 35.4863
16.3285 24.2988 46.7548
18.7944 40.9775 71.2174
6.89913 4.48738 11.3348
10.8149 24.0121 42.9314
10.9142 27.5502 51.81
14.3857 21.8411 31.929
4.85923 4.25814 7.94467
9.61164 23.9595 53.6898
9.86678 6.90861 10.3868
10.7697 20.0016 30.3943
6.71574 26.7405 76.5686
12.7226 14.7567 35.7613
16.5843 31.2659 56.9602
17.8967 29.978 47.7834
14.2863 20.8664 24.9353
2.93824 8.79479 25.3282
4.17609 7.47029 21.475
9.51044 19.881 38.3018
1.46712 7.14676 28.2772
3.45386 3.55481 12.2322
6.18162 13.3948 27.5155
13.3537 32.116 82.2066
35.2019 58.5034 77.1636
12.6456 34.653 78.2388
11.5276 27.4747 72.7813
16.9243 19.039 38.8566
20.2919 35.9461 40.3773
8.70204 18.8236 31.3763
2.0273 10.8218 30.0455
2.38289 1.60692 7.784
12.3518 28.2904 47.9762
3.3043 11.6063 37.1696
12.0725 33.9364 79.4318
17.182 16.8518 13.8068
7.27635 27.3129 58.1722
7.70176 17.1018 53.0726
6.06024 8.36733 25.8685
6.25962 6.85718 18.1582
5.89151 5.40278 21.8556
18.8906 34.2608 33.0243
6.42018 31.2543 74.8016
4.38655 7.11606 35.3955
12.3169 16.67 20.7933
5.07799 12.8752 31.7473
9.43306 18.7697 32.082
8.76371 14.5543 24.3249
2.72384 5.04212 11.3598
3.83826 8.48544 26.9747
4.77439 4.1801 4.4861
3.61388 7.3879 19.9962
8.57876 15.943 26.0221
3.44308 7.78497 17.6027
1.66337 6.22017 12.6349
2.55581 11.7034 32.2001
10.0027 27.18 58.551
7.85068 14.5488 38.7435
9.10012 10.4358 24.9525
3.39548 5.89714 7.10313
0.367535 2.94402 17.5692
6.12794 12.9978 34.4094
12.1785 12.8736 13.4598
4.48138 14.1689 37.117
9.46489 15.1149 26.4639
6.22448 9.50213 21.2269
13.5514 31.1977 50.2956
2.92496 11.7823 31.3843
4.62869 7.89094 20.4827
7.16047 13.1625 29.0627
2.6637 9.13502 21.188
2.53062 1.48379 8.41342
4.53827 10.4307 25.0572
3.44498 9.29984 27.3063
6.996 11.0212 18.6629
2.77809 8.25998 33.5125
7.38966 16.2603 26.3516
5.18379 20.5997 60.9483
12.4558 17.4089 22.2814
5.01185 15.7599 39.7561
6.57355 8.32922 30.3184
14.2513 22.9329 28.9125
5.2529 23.0017 82.5143
17.7933 36.712 67.7359
10.3769 13.9366 30.9667
6.34363 15.7325 33.3287
4.94754 8.10043 11.2462
5.88057 18.8478 50.7321
6.23399 7.91393 14.8504
3.69128 14.7418 51.4147
10.5452 17.874 20.7047
2.43131 15.4094 46.7784
5.74817 12.1381 28.5836
1.91839 13.8573 89.654
16.0807 24.8532 39.697
7.84894 19.7904 46.374
5.73368 7.26874 19.8535
7.97484 13.6214 16.0242
6.61002 17.7102 19.1497
5.41087 24.6825 47.8734
6.60916 14.5106 35.9937
5.86672 9.67393 19.615
8.29502 25.7809 66.7023
7.63847 9.86883 20.1475
7.95146 27.5555 54.9218
4.35149 4.93287 20.2294
11.3911 38.4357 73.4875
4.59303 6.41483 27.1764
5.36933 4.87081 22.7435
7.17764 15.1902 33.3517
10.1079 19.8526 50.5083
7.24751 16.0207 35.3583
5.75046 4.46391 11.769
5.93428 17.5968 30.5319
7.78271 26.4823 90.8782
15.8963 18.9769 16.7954
1.87906 9.06258 60.7223
19.0083 44.2413 74.3856
9.51662 20.4419 44.9496
4.98546 8.83175 20.3861
4.0436 10.6691 11.6627
4.54993 16.931 25.9588
2.06238 15.1177 54.6073
9.54486 27.0839 55.7815
4.34701 11.4779 37.279
7.7735 20.9852 73.1646
12.1991 12.6709 10.9747
6.41428 19.6908 44.8992
