# pn-170911/RbIIR-56-RbIIF-1280-1959.psd
# Power spectrum* (dif=0,1,2) (really just |FT|^2)
# NOTE: only the first half! (symmetric)
# weeks: 1280-1959
# 1988 clock-days, 553 excluded
# PSD: 1441
1964.54 0.179587 0.0344408
51712.3 0.453106 0.0785398
411888 10.2059 0.0746488
20672.1 0.715382 0.0789781
155414 12.5388 0.0774117
7398.54 0.634855 0.0781812
13049.4 2.45837 0.0742012
3919.5 0.688834 0.0747176
5619.61 1.71592 0.078355
2430.63 0.637913 0.0730148
2336.96 0.945936 0.0768706
1555.54 0.692479 0.0767059
1842.88 0.977884 0.0749172
1288.62 0.737351 0.0736061
1172.28 0.875859 0.0793054
966.707 0.759816 0.0744894
928.335 0.968081 0.0780895
739.222 0.807351 0.0768122
803.96 0.957894 0.0742879
648.453 0.853324 0.0782984
634.407 0.932193 0.0801993
568.234 0.914816 0.0815164
531.984 1.03217 0.0824667
485.687 0.949666 0.0815004
471.35 1.02548 0.082663
419.04 1.04081 0.0820085
429.002 1.12594 0.0861504
420.494 1.15668 0.0853128
374.772 1.18454 0.086948
352.028 1.18028 0.0866346
347.546 1.26953 0.0822265
349.395 1.31195 0.0843582
349.246 1.37385 0.0840666
295.518 1.28502 0.0911656
297.216 1.41964 0.0880898
308.418 1.57123 0.0875079
296.142 1.57918 0.0818092
278.263 1.62556 0.0949229
287.758 1.71117 0.0834257
269.764 1.69689 0.0966769
273.311 1.79449 0.0907791
251.858 1.80707 0.0969306
257.68 1.87419 0.0892036
253.363 1.94905 0.0972934
245.655 1.94957 0.0926874
244.72 2.07125 0.101856
235.195 2.12018 0.101117
224.018 2.08551 0.107022
223.358 2.14821 0.10405
210.747 2.16714 0.10584
216.272 2.28662 0.106916
218.27 2.37842 0.108405
205.473 2.31459 0.105933
211.295 2.55386 0.115701
198.243 2.51402 0.116438
207.944 2.7023 0.119001
206.81 2.75854 0.123473
203.464 2.82163 0.126094
187.152 2.7364 0.124694
190.655 2.8369 0.1311
200.726 3.0583 0.131392
181.164 2.96467 0.13627
183.765 3.03465 0.134543
183.526 3.20708 0.13928
185.773 3.26948 0.14129
174.194 3.24441 0.146583
175.24 3.37068 0.147883
170.244 3.41747 0.148301
175.033 3.49146 0.15046
172.866 3.63986 0.164734
175.819 3.81361 0.173785
168.819 3.87545 0.166221
174.404 3.978 0.170952
169.069 3.91707 0.179141
173.891 4.16467 0.181293
172.043 4.27515 0.195181
166.032 4.23074 0.193552
164.194 4.29973 0.193443
168.411 4.49975 0.203665
167.598 4.62381 0.217287
161.273 4.57582 0.210719
166.268 4.92149 0.235815
154.643 4.7599 0.228741
155.629 4.88867 0.233615
153.683 4.86668 0.24271
157.668 5.04336 0.250339
151.838 5.00937 0.250027
150.546 5.22718 0.266535
149.89 5.21295 0.263639
142.683 5.06781 0.264808
148.155 5.35643 0.279875
146.424 5.52841 0.288961
145.759 5.52718 0.303499
152.097 5.81929 0.310755
141.332 5.63415 0.314791
145.193 5.88012 0.327214
141.013 5.86738 0.333298
147.188 6.19002 0.344056
140.488 6.11198 0.360564
147.075 6.37071 0.369543
135.823 6.14806 0.366726
141.995 6.49321 0.394024
135.235 6.29202 0.373987
132.739 6.32086 0.395431
131.689 6.32062 0.396826
127.43 6.33327 0.399955
129.197 6.55868 0.429206
123.335 6.43739 0.419394
127.636 6.7126 0.44106
129.199 7.01805 0.452779
127.522 7.00853 0.48362
127.601 7.13592 0.489571
122.694 6.98166 0.48023
123.215 7.24941 0.506338
121.657 7.26511 0.51738
120.914 7.2644 0.518747
121.178 7.32669 0.535704
124.538 7.7643 0.575572
123.971 7.84511 0.600455
129.547 8.33562 0.649235
121.682 7.7728 0.606661
119.114 8.01478 0.630073
118.179 8.06451 0.634869
119.381 8.13758 0.66441
119.529 8.33697 0.674243
121.181 8.66221 0.710846
118.348 8.65647 0.712923
113.404 8.33191 0.71086
115.481 8.66622 0.744138
118.023 8.96452 0.77286
116.451 8.90613 0.790108
117.758 9.13711 0.805194
115.562 9.13507 0.822235
121.151 9.71411 0.876698
112.048 9.16924 0.846304
114.586 9.44626 0.876788
111.468 9.45464 0.89548
113.67 9.4254 0.899963
112.972 9.82171 0.943608
111.679 9.78963 0.960101
104.105 9.36899 0.925307
106.452 9.67474 0.988792
108.729 10.0769 1.01479
103.264 9.77953 1.01093
110.241 10.3224 1.08469
107.102 10.1576 1.07422
102.686 10.0495 1.0726
107.512 10.6444 1.1618
109.161 11.0348 1.20526
105.862 10.5561 1.1623
105.11 10.7646 1.20896
112.441 11.4518 1.27673
104.197 11.009 1.26496
103.836 10.9148 1.27969
104.748 11.3125 1.34722
103.605 11.2997 1.35705
99.812 11.2534 1.36851
101.968 11.5074 1.39003
100.058 11.3753 1.40173
101.618 11.8249 1.45062
101.501 12.0077 1.51144
103.446 12.264 1.55165
100.676 12.0873 1.54624
99.089 12.0301 1.5971
96.2502 11.829 1.56869
100.6 12.4417 1.65102
99.4787 12.4478 1.67514
97.7417 12.5559 1.73315
103.163 13.2855 1.80416
95.6014 12.5522 1.74666
97.9524 13.0039 1.82013
91.4163 12.2046 1.74556
99.701 13.5719 1.92718
95.9659 13.1662 1.91145
95.7222 13.3736 1.95346
94.9974 13.3236 1.98495
97.5683 13.8151 2.05434
94.8003 13.6076 2.07031
99.2841 14.3272 2.16243
94.3656 13.8471 2.13662
96.1661 14.1204 2.2122
98.9479 14.7376 2.31693
91.8361 13.9103 2.25792
92.2772 13.9401 2.21211
93.169 14.504 2.37035
92.6559 14.4245 2.35002
91.7973 14.607 2.4405
92.1625 14.5645 2.42341
91.803 14.9293 2.52996
95.3557 15.1795 2.59545
94.1656 15.4306 2.63399
90.7904 14.8975 2.61599
88.8292 14.7635 2.58091
90.2354 15.364 2.73032
89.9139 15.3385 2.78485
90.3982 15.5366 2.78725
87.446 15.277 2.78424
89.1908 15.8082 2.91042
91.1038 16.3227 3.04129
86.9652 15.7405 2.97533
88.5638 16.0935 3.03682
90.1773 16.7758 3.23518
86.6059 16.2677 3.14796
86.4495 16.2043 3.16877
86.6392 16.4929 3.23658
84.6446 16.1753 3.19679
85.9446 16.6934 3.34564
87.3949 17.0436 3.47567
85.5245 16.9082 3.4477
84.3235 16.8332 3.47949
85.1362 17.0253 3.54536
84.4051 17.1774 3.63996
84.7731 17.3099 3.64691
85.1189 17.4285 3.72893
83.304 17.4667 3.80484
83.7514 17.8202 3.8986
83.8307 17.9175 3.94848
82.1749 17.7609 3.94612
83.458 18.1952 4.09688
82.1809 18.132 4.11052
83.6496 18.3901 4.16066
83.0151 18.6786 4.31101
82.3321 18.4002 4.27355
81.4952 18.6549 4.39975
79.2144 18.0394 4.28612
83.2223 19.094 4.51658
81.2578 18.7901 4.48611
82.2644 19.4906 4.69675
82.2523 19.3905 4.73387
80.7577 19.2387 4.72974
81.2723 19.6858 4.87071
79.4978 19.3257 4.831
79.8519 19.7559 5.00056
78.963 19.5813 4.99609
77.7471 19.4549 5.03014
79.3315 20.0886 5.18944
79.8627 20.2239 5.2289
77.4403 19.7142 5.20209
78.0885 20.1668 5.32472
75.3202 19.5038 5.21989
77.7204 20.4716 5.45897
77.4366 20.8914 5.72658
78.4664 20.8684 5.74037
78.3633 21.1207 5.859
75.2755 20.2486 5.6556
77.3844 21.3181 6.03321
76.1887 20.6869 5.80422
78.5509 21.9311 6.30164
78.1215 21.7517 6.1986
78.3241 21.9525 6.40126
75.3507 21.0889 6.09801
75.1528 21.5838 6.38244
74.8971 21.7111 6.471
75.5326 22.004 6.58166
73.3003 21.2372 6.33178
73.6378 21.9691 6.71107
73.6224 21.654 6.53865
74.3811 22.2654 6.82231
71.9853 21.8126 6.76844
78.2815 23.8681 7.41605
70.6533 21.8239 6.88608
76.8248 23.4931 7.3535
73.149 22.68 7.21013
72.1416 23.1603 7.47456
69.6203 21.8462 7.10102
73.4605 23.4227 7.60901
72.4837 23.342 7.57989
68.3249 22.0256 7.2793
70.5547 23.1354 7.75694
69.2436 22.8376 7.64805
68.7637 22.6673 7.67181
68.0416 22.731 7.7217
70.3143 23.4643 8.06753
68.3323 23.1822 8.0492
68.5188 23.0722 7.96161
67.0935 23.0185 8.10394
68.7131 23.4155 8.15646
68.1611 23.7703 8.45009
68.2513 24.004 8.55299
65.2395 23.0221 8.28408
69.3502 24.5957 8.8757
65.0668 23.4621 8.60518
68.1006 24.4342 8.90877
66.392 24.3693 9.13231
67.7829 24.8044 9.29096
65.5452 24.0209 9.00442
65.528 24.1819 9.19101
64.9762 24.2052 9.20335
64.5082 24.2737 9.24848
65.7535 24.8607 9.61254
63.1301 23.9484 9.37391
64.4336 24.7026 9.69802
67.084 25.5019 9.91
65.8412 25.7961 10.2562
63.5962 24.7484 9.95025
65.4631 25.4925 10.0682
63.0174 25.0111 10.127
62.7817 25.0086 10.1262
60.5824 24.3427 10.0703
63.9291 25.336 10.2709
62.9535 25.6619 10.6109
63.1015 25.7379 10.6583
62.5237 25.829 10.8312
61.5268 25.6203 10.989
62.4502 25.6624 10.7785
62.7404 26.541 11.3871
63.5685 26.8249 11.5033
61.9842 26.4304 11.5358
60.9003 26.0037 11.3843
61.9646 26.8725 11.8664
59.401 25.4897 11.2338
59.6342 25.459 11.1867
59.6163 26.0033 11.6118
60.1371 26.3517 11.8317
61.1624 26.9408 12.0342
61.1623 27.4847 12.5822
60.7587 27.1887 12.4591
62.4767 28.0411 12.946
61.0806 27.6523 12.8178
59.7542 27.0833 12.5919
60.0643 27.6611 13.0764
62.2966 28.4843 13.3201
57.8529 26.8849 12.7217
59.4699 27.8868 13.3502
58.7463 28.1573 13.5859
57.9805 27.417 13.3252
60.8836 28.6771 13.9553
58.0272 27.6246 13.5397
57.7649 27.7296 13.5659
57.3875 27.8602 13.6792
58.1897 28.0619 13.7977
56.4647 27.8801 13.956
57.259 28.3257 14.2439
55.8686 27.6471 13.8887
56.7848 28.2595 14.2389
54.7243 27.8511 14.4528
56.0493 28.0855 14.369
58.0791 29.5166 15.1631
58.4984 29.8741 15.4916
54.6198 28.1473 14.7198
54.6866 28.576 15.2022
55.5448 28.9069 15.3212
54.5611 28.5768 15.1482
57.5853 30.4411 16.2846
54.5268 28.7895 15.4877
53.9818 28.5691 15.4092
52.1967 27.8263 15.1402
51.7935 27.7739 15.1057
52.6668 28.7971 15.9851
52.2722 28.4715 15.7931
54.2472 29.4433 16.3847
52.6608 28.8712 16.1668
54.3035 29.9434 16.8004
53.7471 29.537 16.6492
53.3314 29.3991 16.4844
51.1466 28.7965 16.5012
51.7749 29.2608 16.8244
50.0139 28.231 16.2215
50.7079 28.816 16.6274
51.5463 29.8325 17.4722
52.3711 29.984 17.3777
51.0941 29.7585 17.5121
50.6549 29.6647 17.5558
49.0881 29.2563 17.694
50.8548 29.8579 17.8408
49.4205 29.4517 17.8
51.5748 30.5059 18.2517
48.5447 29.0642 17.7096
50.6728 30.1644 18.2961
50.0712 30.3003 18.6746
51.4931 30.831 18.7195
51.9014 31.9971 19.924
51.3872 31.7162 19.83
50.9835 31.3072 19.4339
49.4025 31.0662 19.7995
48.747 30.3026 19.3654
50.9013 31.5878 19.7854
48.3669 30.3887 19.5445
47.6598 30.3735 19.7264
48.2443 30.682 19.8514
46.4124 28.996 18.7767
47.0076 29.7694 19.2207
50.4762 32.6405 21.2741
49.1576 32.2814 21.5328
48.9699 31.6698 20.839
47.7015 31.0769 20.6709
44.9796 29.2546 19.4838
47.1742 31.0415 20.6921
46.055 30.7638 20.9274
46.9593 30.8656 20.6083
45.1272 30.5672 21.2264
48.5751 32.2861 21.8838
45.5333 31.0392 21.5781
47.3 31.8595 22.1101
46.4826 31.532 21.7537
44.8397 30.8061 21.5476
46.5798 32.0437 22.5163
46.6905 32.2448 22.6573
45.4866 31.5287 22.5351
47.148 32.9947 23.4475
45.5828 31.8708 22.5918
44.8807 31.6933 22.8818
43.0976 30.4279 22.03
45.5931 32.4879 23.3515
43.2564 30.9404 22.6131
43.6129 31.2955 22.9405
44.3672 32.5029 24.0227
42.49 30.5577 22.7137
44.2762 32.2313 23.8476
44.9599 32.9779 24.5859
45.1218 32.8049 24.4
44.6246 32.7763 24.4546
43.369 32.4593 24.8622
44.1199 32.9033 25.0011
43.2428 32.2124 24.3898
43.9187 33.1105 25.3021
43.1387 32.7186 25.1309
42.6851 32.4042 25.2373
42.8615 32.6819 25.2592
43.1974 33.335 26.3789
41.5223 31.588 24.5355
40.5604 31.0447 24.2707
42.5059 33.0452 25.8366
41.9961 32.8049 25.956
39.7061 31.1112 25.0463
41.8617 32.6049 26.0934
42.9391 33.6534 26.3614
38.4964 31.0587 25.496
40.9663 32.1836 25.7104
39.834 32.271 26.4284
39.1196 31.645 25.8562
40.842 32.9505 27.056
40.8867 33.5798 27.7597
39.7176 32.2605 26.8095
40.1677 32.7855 27.3676
39.0484 31.8246 26.3909
38.394 32.0109 27.0002
39.3165 32.1653 27.0861
39.987 33.2505 28.019
39.053 32.135 27.0757
38.7376 32.876 28.3762
40.0399 33.3485 28.2616
39.0237 33.3885 28.8173
37.2648 31.4927 27.4503
40.0861 33.9752 29.3299
37.9595 31.6635 27.1872
37.4935 32.558 28.7953
38.8759 33.2709 29.0702
37.2375 32.1245 28.4762
38.167 33.1974 29.5164
38.1953 33.058 29.4052
37.6794 32.4861 28.9214
39.1078 33.961 29.9221
37.4058 33.477 30.2456
36.3109 32.7488 30.2896
37.4839 33.164 30.3386
38.0944 33.5332 30.331
37.3508 33.7666 30.8439
38.2942 34.5996 31.9133
36.5439 32.7506 30.1631
38.2475 34.7597 31.8437
35.3137 32.2628 30.1687
36.9157 33.8316 31.6664
35.6859 32.339 30.2268
36.7867 34.0451 32.1307
35.146 32.3458 30.5105
35.5576 33.0253 30.9833
34.7552 32.2134 30.7347
35.9604 33.2001 31.1893
34.6742 33.0727 31.9768
35.3165 33.0533 31.9388
35.3639 33.5303 32.1992
34.4422 32.8003 31.6688
34.5212 32.7587 31.8222
34.5542 33.1674 32.1621
32.7577 32.281 32.5737
33.9779 32.2169 31.51
34.3428 33.0353 32.7112
33.9386 33.0257 32.7546
33.3358 32.628 32.847
32.8127 31.9738 32.1475
34.1388 33.0156 32.8991
34.0641 33.6967 33.7946
33.5117 32.8798 32.9586
32.3832 32.654 33.1656
32.1411 32.4728 33.7354
33.9891 33.3761 33.3891
32.2419 32.3155 33.1319
32.3279 32.5821 33.6399
32.5888 33.2697 34.6679
33.0732 33.6945 34.7797
30.951 31.7583 33.6451
32.6074 33.2544 34.8141
32.121 32.5434 33.586
31.4541 32.5734 34.2678
31.2197 32.0916 33.7332
31.9503 33.5921 35.9923
31.9964 33.2475 35.2418
30.4532 32.0121 34.5901
31.9685 33.415 35.7976
31.6612 33.0713 35.2943
30.7537 32.435 34.9866
30.3648 32.5628 35.5049
30.5065 32.5827 35.7848
31.2027 33.2122 36.3216
30.485 32.4583 35.8033
31.6222 33.586 35.9741
30.2202 33.1835 36.9096
31.5864 34.0335 37.226
31.0462 33.6974 37.2193
30.9522 33.8107 37.2854
29.1417 32.0527 36.1019
30.2252 33.2559 37.1246
30.0883 33.1788 37.2286
29.83 33.3914 37.9175
29.8303 33.5137 38.2652
29.9888 33.4304 38.1894
29.6485 32.6531 37.0455
29.4516 33.2373 37.7581
27.9706 31.9409 37.5444
27.9308 31.0804 36.101
28.0454 31.5448 36.7802
29.8699 33.9564 38.9965
29.156 33.4406 38.8987
28.3735 32.3178 37.8878
28.9381 33.2776 39.2443
29.3977 33.7984 39.9531
28.8494 32.8326 38.5083
28.4791 32.848 38.6666
28.0392 32.5675 38.6149
27.6918 32.0994 38.2164
27.8059 32.4935 38.4244
27.6048 32.9667 39.9735
28.0747 32.7912 39.3283
28.1892 33.7832 40.9282
26.8983 32.0736 39.5392
27.1704 32.455 39.4102
27.2874 32.8446 39.8719
27.1796 33.417 42.076
27.2706 32.4396 39.7192
26.9104 32.5867 40.3807
27.598 32.8206 40.0288
25.7529 31.882 40.1188
26.7002 32.4256 40.3766
26.6521 32.6068 40.793
25.6388 31.2987 39.143
25.7478 32.3658 41.2157
26.9359 33.1067 41.85
26.7701 32.5978 40.9039
25.3893 31.59 40.3602
26.878 33.1732 41.475
25.8186 32.3458 40.7523
25.1756 32.2207 41.1311
25.3214 31.938 41.0884
25.1315 32.3099 42.5415
26.3615 32.9364 42.1249
23.8579 30.4075 40.2639
25.9435 33.1441 42.9146
24.3547 31.3385 41.0342
24.5636 31.9099 42.1898
24.6811 31.912 42.1011
25.0208 32.1141 42.3205
25.0935 32.7221 43.3563
24.7556 32.2436 43.5537
26.2332 33.8818 44.4691
25.1866 32.8911 43.8538
24.9494 32.5276 43.4452
23.8415 31.3702 42.3079
25.2285 33.6566 45.5046
23.8067 31.5148 43.2383
24.6106 32.0179 43.595
25.1372 33.5074 45.2049
24.7129 32.4118 44.3175
23.563 31.5358 43.5044
25.1135 33.0818 44.9815
23.868 32.2125 44.3344
23.3751 31.0938 43.773
24.32 32.0275 43.1002
23.8608 32.5824 45.4244
22.848 30.9043 43.575
24.0221 32.7166 45.3895
22.9621 31.3483 44.2107
22.786 31.0768 43.5875
22.6898 31.2538 44.0501
22.6439 31.6141 45.1431
22.8266 31.139 43.9834
22.5999 31.0945 43.998
22.5759 31.8104 45.3176
22.7501 31.8124 45.2399
22.3793 31.8897 46.4333
22.7796 32.0923 46.3064
22.3441 31.3827 45.3305
22.4086 31.1925 44.9152
22.2177 31.7264 45.8347
21.4531 30.5811 45.1859
21.8257 30.6376 44.5563
22.216 31.8786 46.4166
22.2024 32.3945 47.9294
22.7393 32.2563 47.0028
21.5505 31.004 45.291
21.0297 30.5066 45.6081
21.9643 32.1407 47.4472
21.5073 31.792 47.7881
21.4376 30.9422 45.6249
21.2145 31.088 46.521
21.5801 32.0313 48.4892
21.2174 31.2024 47.8409
21.3325 30.4974 45.2668
21.2464 31.763 48.5171
20.7049 30.832 47.3257
21.7535 31.6947 48.109
20.7869 30.46 46.0468
20.0968 30.0141 46.521
21.0381 31.5326 48.0932
21.2413 32.1677 49.579
21.0229 31.4163 48.3809
20.0807 30.2031 46.6616
19.777 30.0357 47.059
20.3764 31.1457 48.813
20.4461 31.1668 48.444
20.205 30.6586 48.1313
19.8622 30.826 49.0428
20.3675 31.1678 49.3163
20.9894 32.3877 49.9184
20.4981 31.8183 50.0223
20.1006 31.5521 50.4605
19.3448 29.6893 47.6713
19.4944 30.217 48.5447
19.9658 30.9083 48.3487
19.3723 31.0292 50.2852
19.4795 30.5762 49.4365
18.7937 28.9613 46.518
18.7262 30.1515 49.3337
19.6591 30.3938 47.9966
18.8287 30.605 49.7592
18.9161 30.379 50.3457
19.4526 31.0857 51.2072
18.94 30.1301 49.7052
19.3399 30.7313 50.6977
19.358 30.6192 50.0184
18.8525 30.8119 50.9574
18.8471 30.7728 50.8573
19.1182 31.2722 51.7565
18.4461 29.8 50.0164
18.7306 30.482 50.5607
18.3925 29.844 50.0492
18.4167 30.1264 51.4479
18.6245 30.2399 49.6647
17.6934 29.4876 50.0293
18.2774 30.2741 51.8279
18.5365 30.0679 50.0395
17.731 29.8782 51.7497
18.5612 30.4459 51.5167
18.2846 30.3903 52.4585
18.4194 30.1185 50.2262
17.6864 30.074 51.7927
17.3609 29.287 51.5905
17.9814 30.3273 52.4091
18.0279 31.1254 55.3813
18.6187 30.5484 51.645
17.5159 29.6442 52.0055
17.6742 29.8894 52.7284
18.2851 30.8563 53.056
18.0013 30.0058 50.6871
17.084 29.834 52.1911
16.7222 29.1303 52.1679
17.1424 29.6365 52.4137
16.9156 29.2787 52.0133
17.3285 29.9585 52.4082
16.9659 29.4427 52.6526
17.039 29.6356 53.7893
17.423 29.6354 52.1499
16.4746 29.2201 53.9481
17.7524 30.0544 52.304
16.4284 29.0873 52.1161
16.6207 29.0215 51.8838
16.3001 28.4742 51.5638
16.515 29.706 55.0525
17.0844 29.7213 52.6612
16.4023 29.1783 53.2019
16.1844 29.0561 53.6321
16.6582 29.2437 52.6192
16.2408 29.45 54.4933
16.8232 30.0729 55.2993
16.437 29.2855 54.0837
16.2012 28.6765 52.392
15.5779 28.2694 52.7758
15.6975 28.7854 54.0471
15.8115 27.625 50.1759
14.8176 27.4042 52.7464
16.2108 28.531 51.7636
15.9154 29.6631 55.7272
15.6194 27.968 52.6424
15.2704 28.0164 52.862
15.9186 29.774 57.0579
16.5117 29.6986 54.2653
15.3507 28.7902 55.8252
15.7868 28.5544 53.1849
15.289 28.6171 54.814
15.3445 28.3481 54.2063
15.0794 27.8724 54.5051
15.5043 28.556 54.4884
15.333 28.8969 55.9723
15.3885 28.4111 54.0374
15.1609 28.5718 55.0374
15.1898 28.4386 54.6253
15.155 28.9013 56.6578
14.9115 27.7258 54.424
15.2347 28.4312 55.268
15.0913 28.2376 55.442
15.2141 28.305 54.7675
14.9961 28.906 56.8652
15.1593 28.6382 54.9927
14.297 27.686 55.5553
14.9111 27.8625 54.6446
14.8432 28.1932 54.9822
14.5126 28.0671 55.2422
14.3932 27.8491 55.9064
14.5169 27.6529 54.63
14.4139 28.0844 55.6056
13.5085 26.2481 53.9803
14.2044 27.055 53.5241
14.1977 28.2587 57.5472
14.6398 27.7188 54.6629
14.0351 28.3051 58.1052
14.7925 28.4146 55.7137
13.5573 26.8418 55.0637
14.1458 27.6069 55.4781
13.5898 27.4289 57.6736
14.5297 28.2642 56.3544
13.9497 28.2706 58.3955
14.0093 27.0813 55.0483
13.5443 27.1528 56.3426
13.7636 26.9834 55.3666
13.6612 27.2013 56.2365
13.9537 27.8008 57.091
14.191 28.4959 59.2194
13.927 27.5857 57.0785
13.8736 28.2998 58.2514
13.5041 26.9786 55.3676
13.0209 26.7915 57.3382
13.6282 27.4351 57.3259
13.391 26.6467 54.8728
13.3088 27.762 57.4808
13.2013 27.4804 58.7966
13.7983 28.1334 58.0179
12.9688 27.156 58.9235
13.4793 27.2927 57.222
12.7829 26.2073 56.766
13.3474 27.0872 55.6476
12.5086 26.4939 57.5339
13.3791 27.9525 59.2809
12.8488 26.756 57.8364
12.9552 26.7117 58.2565
13.1012 26.736 57.0495
12.9897 26.6936 55.8377
12.4936 26.7177 58.0481
12.3671 25.7925 55.9521
12.5434 26.388 56.2705
12.2349 25.9424 56.8539
12.2784 26.2801 58.491
12.9177 26.9072 57.2475
12.3615 26.1016 55.8449
12.0504 25.9957 56.329
12.2964 26.6028 58.6231
12.6918 27.0221 58.9292
12.0742 25.9706 58.3944
12.4228 26.4171 58.9755
12.4095 26.0272 57.4156
12.5041 26.6533 58.2325
12.3567 26.2759 57.0457
11.8143 25.8366 58.3462
11.8459 25.3435 56.317
11.9816 26.3174 59.0436
12.0797 25.8579 57.7283
12.2105 26.2045 57.4966
11.7952 25.7419 57.7898
11.9308 26.3812 60.2374
12.1502 25.8197 57.5464
11.7972 25.3297 57.0143
11.9188 26.4816 59.4029
11.6539 25.3014 57.1693
11.6209 25.6063 57.8193
11.4569 25.5412 59.4781
11.971 26.1489 59.531
11.5235 24.8352 57.7492
11.9457 26.5376 59.4935
11.5101 25.3312 59.2867
12.0092 26.3423 58.3909
11.0997 24.9362 58.9976
11.6226 25.5381 58.2371
11.428 25.8541 60.4334
11.6636 25.7222 59.3319
11.5317 25.6659 59.1405
11.3428 25.2643 57.9267
11.3948 26.1179 61.86
11.7995 26.3895 61.6099
11.6518 25.6574 59.028
11.6209 26.0328 60.2214
11.0984 25.2797 59.0779
11.2169 25.62 60.5738
11.5806 26.0091 60.1122
10.9285 24.9971 60.0491
11.4272 25.5162 58.5846
11.027 25.9138 61.9862
11.3378 25.6678 59.4619
10.822 25.3594 60.6684
10.7969 25.1389 60.222
10.5251 23.674 57.6881
11.0406 25.2107 59.4982
10.7504 24.599 58.6163
10.724 25.0219 60.8603
11.1261 25.9552 61.4703
11.0028 25.7606 62.6816
10.7208 24.0735 58.256
10.898 25.1039 59.0061
10.4362 24.2582 58.2546
10.6748 24.8208 59.2778
10.5967 25.0399 60.9985
10.9551 25.9074 62.1555
10.4052 24.4546 60.2951
10.7283 24.8038 60.9585
10.5595 24.2461 58.5769
10.5464 25.2776 61.5123
10.1176 23.9181 60.5174
10.6411 24.7554 58.8185
9.83198 23.7273 58.978
10.293 24.6027 60.9464
10.3174 24.1311 59.9318
