# pn-170911/RbIIR-41-USNO-1280-1959.psd
# Power spectrum* (dif=0,1,2) (really just |FT|^2)
# NOTE: only the first half! (symmetric)
# weeks: 1280-1959
# 11 clock-days, 0 excluded
# PSD: 1441
696.099 0.0494119 0.0147431
14367.4 0.29758 0.0123487
67659 1.55069 0.0104754
16238.4 0.751203 0.0121839
17147.9 0.984822 0.0143743
5911.43 0.5286 0.00941862
2000.26 0.266375 0.0121115
1558.07 0.239355 0.00922306
1449.55 0.425274 0.0113602
1944.11 0.592079 0.0125488
1119.99 0.502893 0.0103753
688.285 0.305439 0.0114721
561.201 0.778845 0.00939782
646.308 0.409816 0.0118095
849.283 0.504394 0.0132889
396.328 0.452801 0.0122258
404.617 0.514539 0.0141556
629.877 0.577923 0.0113867
579.929 0.695391 0.0103931
533.331 0.927797 0.0110561
565.77 1.0662 0.0139804
300.313 0.718271 0.0122585
164.65 0.56722 0.0130674
326.827 0.681802 0.0132168
292.293 0.856528 0.012052
276.889 0.844579 0.0114356
218.015 0.803355 0.0113777
328.452 0.958463 0.0212487
168.554 0.757652 0.0123704
251.353 1.01165 0.0176622
242.273 0.807721 0.0140841
177.689 0.490408 0.0140206
205.249 1.3211 0.0173777
353.526 1.47591 0.0155475
424.424 2.42967 0.0234161
168.758 0.782822 0.0145567
100.36 0.505002 0.0126645
255.055 1.45939 0.0256444
150.946 1.16238 0.0201766
239.484 1.51953 0.0174631
149.19 1.14547 0.0197313
200.344 1.35504 0.0308385
116.759 1.23865 0.0131745
173.306 1.23922 0.0271553
155.573 1.41363 0.0262045
180.421 1.95207 0.0267593
108.025 1.24483 0.0342288
303.044 3.13657 0.0529718
193.685 2.05174 0.0203507
140.368 1.27362 0.0239114
175.309 2.44092 0.0458191
183.41 2.41033 0.0455152
207.193 2.03625 0.0496268
182.409 2.27785 0.0460552
120.084 1.39309 0.0220068
251.808 3.32492 0.0680418
193.072 2.56956 0.0461462
239.697 3.65994 0.0692446
266.805 3.97771 0.0908847
254.727 3.41465 0.0810059
369.742 6.21339 0.102189
224.068 3.76582 0.0737874
102.539 1.92238 0.050608
150.152 3.04441 0.0648801
150.722 2.93884 0.0762899
170.336 3.28458 0.0735631
140.108 2.42998 0.0741639
227.036 4.30688 0.125414
189.361 4.41598 0.0836256
184.303 3.99699 0.091729
159.54 3.75302 0.118551
186.25 4.14111 0.103918
237.783 5.65419 0.136792
154.118 3.66793 0.104685
215.424 5.83317 0.155561
142.097 3.80833 0.120256
222.217 5.05197 0.158907
100.262 2.94395 0.0859062
70.2288 1.81049 0.0746414
188.488 5.06693 0.157071
135.742 3.74766 0.106177
147.351 4.58793 0.147557
143.341 5.81542 0.204399
148.869 5.29097 0.15519
226.706 6.82041 0.195803
121.484 4.24322 0.144068
152.654 5.62016 0.197073
160.719 5.25823 0.203309
156.387 5.81214 0.248856
231.738 9.46499 0.3791
173.463 5.89549 0.238237
189.56 6.09924 0.230924
128.073 5.23176 0.253836
139.82 5.33087 0.251102
117.951 4.91067 0.197543
134.08 5.0814 0.227362
185.499 8.53075 0.398702
130.951 5.2244 0.211045
153.734 6.23565 0.306087
128.024 5.39634 0.275709
78.1174 3.92866 0.226983
183.328 8.10685 0.402152
158.877 7.7532 0.380077
124.28 6.50933 0.312575
135.157 7.66967 0.366441
175.097 8.29305 0.359366
209.123 11.2246 0.580095
213.55 10.8951 0.624894
116.983 6.51333 0.389466
168.327 9.58589 0.56415
66.572 4.46878 0.270288
138.506 7.29089 0.439179
67.1907 3.8686 0.245635
94.2024 5.58993 0.374322
221.724 14.4133 0.849337
77.484 5.28449 0.383767
145.684 9.56267 0.617342
144.563 8.03466 0.522359
135.652 8.84669 0.588228
142.627 9.77729 0.676973
125.952 8.06175 0.623173
83.7161 6.49086 0.431838
122.844 9.55686 0.639833
106.507 6.73016 0.490492
158.368 10.5221 0.778058
67.02 4.89569 0.437785
111.381 7.61816 0.542216
241.939 18.6672 1.51631
155.287 10.4523 0.84254
114.507 7.95741 0.70026
155.531 12.0526 1.00581
91.2585 7.64958 0.686505
68.8315 5.97033 0.54841
113.85 8.98898 0.740579
175.666 14.0353 1.33305
112.371 8.74915 0.763458
136.077 11.501 0.935196
107.902 9.57434 0.950656
136.213 11.6106 1.04347
103.641 9.94757 0.884099
148.339 13.0307 1.13656
94.809 9.06369 0.843267
89.5267 8.63943 0.83407
50.2954 4.30058 0.389895
129.33 12.5574 1.37
125.166 12.0575 1.25205
164.825 15.1312 1.56647
146.579 15.5946 1.67311
72.0361 7.46168 0.866362
117.79 12.3562 1.35861
85.9116 9.69833 1.02013
84.0946 9.63667 0.996565
106.389 10.8266 1.20404
99.5383 10.3582 1.09997
53.0032 5.39494 0.661434
135.222 15.9831 1.80647
129.847 14.8243 1.83408
182.167 19.4793 2.16289
64.1388 8.27552 1.01054
140.047 17.3854 2.00784
75.8568 10.2765 1.24228
78.3248 8.61058 1.08729
104.129 14.8133 1.75327
166.697 19.3422 2.36425
106.411 13.7365 1.75487
100.667 12.9459 1.69709
76.9946 9.40895 1.25384
106.231 14.377 1.95405
92.4713 12.096 1.57909
83.1595 10.8141 1.49702
101.164 15.0366 2.02365
60.9831 8.97558 1.29121
92.5062 11.5158 1.59399
114.442 15.3497 2.14674
88.467 12.0672 1.7943
122.447 19.6426 2.78294
51.4088 7.55158 1.38322
135.267 19.5077 2.86211
107.437 15.5726 2.21578
76.8996 12.5421 1.99323
74.2996 11.1015 1.76007
115.447 17.5165 2.55052
96.5818 15.0984 2.1933
66.1488 10.7361 1.6596
84.5077 14.3396 2.36529
95.6427 15.3122 2.56624
94.3219 14.9268 2.17468
60.5262 10.1627 1.81933
81.9079 14.6572 2.58925
118.217 19.1896 3.12341
58.4465 9.54836 1.55365
114.063 20.1487 3.63683
107.727 17.4212 3.14644
132.327 21.2572 3.4111
101.809 17.7485 3.23393
93.1139 17.5854 3.23767
110.037 20.8304 4.01352
107.746 19.4214 3.51033
62.9449 9.64845 1.58298
68.7382 14.2769 2.80792
94.6648 16.3916 2.96766
68.017 13.3024 2.63456
57.4761 9.77845 1.77023
83.5343 15.902 2.98156
86.0314 17.2279 3.32468
81.2548 18.2012 3.85778
46.1142 9.31524 1.97937
56.0821 10.6 2.1505
81.6933 13.4104 2.54708
40.8505 9.72294 2.27803
114.945 23.4293 4.41337
52.2253 11.4998 2.5934
95.2145 20.44 4.54744
98.6874 19.1111 3.83165
80.01 15.3855 2.851
68.1535 14.9891 3.3886
40.493 7.8751 1.74192
94.2306 23.3151 5.76752
81.3037 17.507 3.68651
112.448 23.5332 4.90799
38.1258 10.4677 2.64433
110.94 23.0294 5.23085
93.5288 21.2379 4.56172
48.3081 11.0868 2.5123
57.5193 12.2067 2.45759
49.5775 10.3642 2.43116
38.1203 10.6797 2.63486
51.6529 12.7666 3.25341
75.6529 17.807 4.2506
67.2317 15.3061 3.70367
58.3388 15.7892 3.94392
37.6509 9.30289 2.68762
82.2241 21.9261 5.43563
100.792 24.5652 5.61969
81.5402 21.2795 5.41204
76.81 18.7113 4.93127
119.832 34.6003 8.95856
79.2903 23.3892 7.15593
89.5217 21.6278 5.69121
93.9104 26.3206 6.84818
26.9566 7.64461 2.39097
67.0294 17.5257 4.72628
75.1775 18.4055 4.79485
65.8643 16.0101 4.31264
47.9657 15.3482 4.59177
47.4599 12.8427 3.66224
80.7727 25.9417 7.95967
98.3363 24.4872 6.37196
64.8568 16.1122 4.43714
47.6275 15.8034 4.83053
63.3342 16.3494 4.31925
52.7757 14.8146 4.3853
63.9682 20.6093 6.28391
38.7224 9.40404 2.57722
44.7176 14.7906 4.47652
29.4145 11.7866 4.37224
103.183 28.5774 7.99998
68.7198 20.7429 6.13231
81.6849 24.6857 7.15392
38.5462 13.0682 4.31689
67.5673 20.3914 6.27214
91.1156 29.5816 8.77408
38.2382 11.4096 3.6802
64.7729 19.9586 5.94206
43.5866 15.3244 5.66276
55.6907 17.7096 5.33227
73.4319 24.0301 8.23592
64.0068 20.1395 6.56099
37.252 12.4979 4.72659
47.2004 16.3954 6.06613
66.5838 21.5536 7.24011
35.0671 11.4078 3.78699
50.3585 17.3029 6.30725
60.1082 21.3761 7.59468
36.3456 11.6257 4.58839
60.5783 18.1522 5.26179
31.2596 12.1233 4.51108
47.276 16.4742 5.72048
56.844 23.5748 9.61554
53.7392 17.4265 5.36393
30.7018 10.0333 3.95605
58.9697 22.623 7.53839
34.9109 13.1994 5.01148
49.2029 18.1255 6.60554
31.0187 11.8613 5.07145
98.3887 38.6635 14.0969
29.6516 13.2233 6.51779
76.8596 23.9568 7.30648
51.7123 22.9776 9.04157
50.0011 17.9295 6.39456
45.6712 16.6549 6.06504
39.0934 18.3505 8.48428
52.447 17.2682 5.67374
51.2068 23.1337 9.33364
36.3149 15.1715 6.59527
52.3237 20.3101 7.57407
46.1062 19.3105 7.97642
57.736 24.1512 10.1857
68.3853 24.3853 8.99053
35.3693 16.1756 7.25525
47.5124 22.0994 10.414
59.8071 21.6833 8.18624
53.551 19.4184 6.88379
57.5281 27.7831 12.8543
61.4876 23.4429 8.80136
45.2576 19.9348 9.461
37.7683 15.2587 6.5152
48.8539 18.6345 6.62828
32.2411 17.3976 8.13611
31.1689 12.6312 5.68187
21.7909 10.1007 4.81337
53.6957 25.9084 11.6644
40.5127 20.8889 10.3681
60.0465 24.2448 10.156
36.363 16.9689 8.32562
51.8916 21.468 9.60647
37.1407 15.8681 7.20957
33.6896 15.4082 6.71841
39.4675 17.1667 7.84793
43.5267 16.9167 7.79488
82.5256 33.8095 13.0424
50.9672 29.8711 16.6229
60.5448 22.9601 9.4546
57.9087 29.9788 15.3826
23.7283 10.9512 5.84905
39.1865 19.0788 8.79536
60.1625 28.923 13.8143
32.8391 13.3209 6.13755
54.0369 27.2426 13.4413
52.7147 27.2107 12.5902
33.747 17.3412 8.2745
42.6812 25.4992 14.2183
34.1628 19.6772 11.8908
71.0013 28.484 12.2711
47.7982 23.7413 11.9354
32.9834 16.9765 9.07057
28.5719 15.5692 7.93495
29.425 14.523 7.20284
29.8632 13.336 6.20213
46.7692 26.9365 14.5888
41.6556 17.9149 7.70779
27.295 16.3257 9.53663
39.076 21.2806 12.051
26.5398 13.775 7.9296
50.3015 25.9662 12.6681
42.3158 26.7369 16.3797
51.1679 24.3887 12.1173
40.0473 23.0319 13.4256
48.177 27.4567 15.2363
46.7193 24.9619 14.1683
41.9892 19.0823 8.92743
29.7031 19.8865 13.2517
47.9036 23.2961 11.567
47.5458 25.5589 13.3903
30.4281 14.7308 7.45282
19.5219 13.139 8.69131
44.8273 21.6647 10.8944
28.4172 17.9826 11.0257
43.1111 26.4658 15.5983
24.5216 14.4346 9.79491
41.6495 21.6124 11.5123
31.8417 18.8034 11.755
38.0824 22.8741 13.0031
22.8436 13.5885 8.77456
29.0961 15.7641 9.26623
38.0659 25.6634 16.2215
43.8532 22.3753 12.5977
35.0867 18.3604 10.2672
30.2002 19.7698 13.5598
38.4742 21.6835 12.3508
22.467 15.2598 10.5234
39.9634 22.4743 12.5559
24.612 16.6393 10.5632
37.5533 22.8211 14.5623
23.9651 12.9526 7.08562
39.6544 25.0174 15.6401
35.1592 22.716 14.9206
17.8513 11.1371 6.66269
17.3416 12.7905 8.2037
24.8674 20.5402 15.5898
42.1671 25.0425 15.9898
28.0153 17.9517 11.4653
19.0556 13.3478 10.5075
46.0268 31.1453 23.1818
50.0983 28.5243 15.8845
33.9849 20.3138 11.5953
22.5008 12.3873 7.55106
34.0152 23.9448 15.7715
45.9937 28.3229 17.6232
21.4173 12.8685 7.73986
23.2094 21.4252 17.1361
32.4436 19.4479 12.4465
26.1172 17.4383 12.2938
35.7709 22.0393 13.6095
39.1845 26.7978 17.6811
39.833 31.9739 23.8357
14.9296 9.99764 8.76061
40.1573 26.0388 16.7647
41.899 26.7964 17.2625
36.9714 29.4159 22.5411
27.2115 19.7647 15.1552
24.0547 17.7976 12.9012
27.2497 19.627 14.49
33.8099 25.5396 19.3769
25.0293 15.0942 10.4195
28.2186 22.8497 19.1327
37.9988 23.1105 15.3087
21.9592 13.6798 8.69224
20.5123 17.3166 14.1109
23.5144 14.3284 9.85667
29.8892 21.2025 16.2855
44.1213 33.1584 24.5904
21.5834 19.636 16.9823
26.561 21.8393 17.3863
17.5965 10.5178 8.56649
23.1552 17.7162 14.8465
22.4097 14.772 10.5241
32.5812 24.7305 16.3011
13.4965 10.1495 7.66208
14.7038 10.6144 7.26903
17.3103 16.4998 13.8372
21.4825 22.6061 21.6482
27.5209 19.3842 15.718
33.6334 27.6181 23.2752
20.0737 13.9408 11.8118
30.7205 23.0085 16.5603
34.2246 28.0092 21.9665
43.0669 33.2522 26.3422
28.733 21.4948 16.8362
26.7755 20.6439 17.4087
31.9609 22.5599 15.5316
31.2775 28.8829 23.6741
19.38 15.7554 14.9213
20.8883 14.9553 12.1223
29.3085 27.4857 24.9331
26.3556 19.2846 15.0628
28.0325 23.3824 17.9377
29.8351 27.6072 25.2138
24.0585 18.3466 14.1658
3.67805 4.22349 6.26902
28.0397 24.4991 22.6742
16.59 9.43848 5.46534
16.5494 14.5765 11.7036
23.1505 26.012 26.7635
30.8028 23.2538 18.4365
28.4499 24.1679 20.673
16.7467 12.5216 9.93906
21.4426 18.2575 15.9954
22.2141 18.5501 15.0503
19.3142 17.1101 13.6226
25.8682 25.4109 22.8015
13.7217 10.7382 9.51135
26.8278 26.3045 25.0944
31.8237 28.4805 22.5089
14.6416 15.4193 13.8895
15.0842 21.4487 26.495
28.7561 23.6988 21.0965
26.6778 25.3709 24.985
30.2181 23.0668 18.3215
19.7394 18.8453 19.3875
26.2286 21.9445 18.4349
30.0501 26.0185 20.2053
26.8237 31.4489 34.1175
25.2166 24.2556 26.7041
29.1641 25.327 27.5516
38.245 28.5054 19.7918
34.1577 32.6799 26.875
20.6153 28.4769 35.5237
40.1598 30.9243 24.3499
26.3884 24.1707 19.2934
19.1512 26.6955 34.6743
32.1674 21.7262 14.7115
19.1127 19.7537 19.3003
15.7463 14.3656 14.7974
25.2665 26.625 26.542
19.5194 21.4372 23.1981
9.64129 7.43459 10.1557
28.6844 24.5332 19.3897
15.7381 17.0326 19.0268
23.8259 19.2884 14.6014
22.5775 27.803 32.5151
31.2299 28.6376 26.4033
27.347 27.8904 28.0064
21.2322 21.182 22.9001
13.0941 9.37983 8.88451
20.0818 19.364 19.4822
24.9893 22.5473 20.6182
18.9824 20.1458 18.6495
19.4189 25.8795 28.9924
18.2057 18.3079 20.5871
18.7077 17.7963 19.093
24.0172 24.4328 28.22
28.9436 22.0185 14.6336
33.0305 38.236 39.393
15.8816 16.8447 18.1424
13.0722 13.7595 14.0106
8.04506 12.2302 17.5683
11.2723 11.9923 16.5424
13.4018 10.5217 12.2083
26.7856 28.8886 28.4115
21.4532 21.9717 25.0534
21.6051 16.5198 11.906
15.3602 18.4148 20.27
14.6147 13.5974 13.4356
15.7976 19.5153 22.7621
21.8507 24.8603 28.6131
17.5468 16.8238 16.7925
24.5317 29.1023 31.026
13.9548 12.6063 14.1886
16.71 15.2935 13.4061
14.6604 19.1996 25.7459
21.4763 22.4773 22.54
15.7357 21.0588 26.8424
16.9571 17.7092 20.6149
20.8991 24.7917 30.3172
22.9288 21.5685 18.4248
14.2049 22.761 30.6897
19.4054 19.7816 20.6424
16.6799 19.3637 23.6701
11.7133 11.4963 13.6116
15.4988 17.6025 21.1842
22.6571 25.3566 28.6793
32.0716 42.5033 47.7047
17.5653 19.2823 25.16
20.0152 23.4379 29.5695
25.9704 28.1269 27.2442
17.7419 22.8554 28.8697
15.894 17.1866 22.107
19.6128 21.9068 26.4299
21.8635 24.1756 25.8662
7.76354 10.7318 17.8372
19.1593 20.1434 22.4026
19.0069 23.2508 26.8921
8.3213 11.4799 20.5694
24.6392 25.3387 23.1236
17.4908 20.27 19.424
11.8288 17.6572 23.783
14.851 21.5783 29.3806
18.4878 22.6343 27.2075
9.45342 16.383 28.7863
27.6516 34.2173 44.0614
23.8484 27.159 33.0558
11.4416 9.73482 11.075
17.7301 22.4263 26.8799
8.22528 13.0082 23.0809
17.3429 17.6267 18.773
13.0793 17.2036 22.4498
13.6323 15.7578 17.7152
11.8848 18.7656 28.479
12.5065 15.7035 24.9617
17.2141 19.49 25.4847
17.2626 18.7155 23.8769
15.777 16.9784 22.1045
22.1649 26.3253 26.7864
14.3806 17.4648 20.3225
14.6327 18.6993 21.3944
12.8953 15.3683 18.4867
22.1044 31.8194 36.2248
15.1728 22.6366 30.6299
15.2971 20.7352 28.6374
9.78694 10.3077 13.9936
11.3829 13.3178 17.8124
25.7519 35.7689 41.5265
23.0029 36.0351 45.8221
12.3585 15.7436 23.9889
20.2285 26.6787 29.4128
10.8585 14.7108 19.6398
10.661 18.9537 28.8112
16.1153 22.1004 31.0822
8.9731 10.3608 15.7207
13.6512 21.4286 28.3088
11.7872 15.9303 21.804
12.2223 19.5799 32.0191
14.1953 16.8294 24.5215
14.5939 15.1728 19.2094
25.6861 39.2309 50.9521
13.5762 18.1602 27.4781
9.70258 11.6339 18.9595
12.5927 13.5245 16.4874
14.1846 21.0702 28.7154
8.76985 12.3885 20.0557
12.5382 17.376 23.9559
14.7789 20.291 31.4288
12.3342 14.6181 18.4449
10.4092 12.5087 12.4217
9.80876 17.5769 24.2843
8.2816 11.6174 19.3372
14.792 19.63 28.0419
8.87022 10.9822 17.1444
14.8942 22.9914 33.3527
15.9877 22.3624 31.2068
18.7729 26.0215 34.3613
14.8053 22.0841 30.8204
10.1745 13.1788 19.9712
8.25828 11.1077 17.3188
8.98559 11.8797 17.3306
12.4745 18.8197 26.9202
9.35 13.8378 22.7666
11.5169 13.362 15.8771
11.8209 19.8042 31.7003
18.2917 32.3256 54.0921
14.3635 15.1459 18.1249
9.81519 14.1407 20.9801
12.2255 17.8051 21.1833
8.36624 12.997 21.3324
11.7762 21.9332 39.7709
17.547 22.3647 31.455
17.3722 26.7225 35.2188
9.65192 14.6373 23.0452
14.0042 20.754 30.3723
10.8586 16.6931 32.561
19.8289 29.971 38.5479
12.6508 23.8553 40.855
14.6929 17.7726 23.7404
12.2527 20.7574 34.2342
15.0143 24.5524 34.5689
13.718 21.0647 30.5161
11.644 18.6983 33.5234
12.6028 16.8532 21.5271
4.86404 8.58472 18.3608
12.0633 18.2032 26.1905
18.3986 30.38 45.4569
11.9888 17.6387 25.5654
5.50275 9.19563 18.7742
8.13599 15.7545 34.0726
15.9518 21.37 34.6592
28.665 48.9703 66.9092
12.8761 20.7881 39.851
13.465 16.4427 21.6135
8.94243 12.5443 20.0785
9.39553 20.6711 44.0004
17.5301 23.4087 32.0471
13.0648 18.8702 24.0544
8.52877 18.2117 30.7238
6.96935 12.9714 27.9234
12.7735 26.147 52.8095
17.3588 23.8735 38.3291
11.5436 13.6567 22.8485
18.4321 22.8226 23.7011
15.9024 31.347 46.2375
8.84003 18.8834 40.1666
9.97804 12.8377 22.5236
11.1148 19.3218 30.6104
13.2922 24.2237 39.3744
8.85703 11.1307 14.1871
6.23982 15.1809 31.8766
7.95456 9.54803 14.9881
9.6591 16.6772 29.0771
10.4326 16.9704 31.0652
12.0874 17.1928 22.4353
10.1883 17.6097 24.5339
10.0289 25.1103 50.7528
10.9058 15.0606 33.2347
16.7032 25.1897 32.0017
7.35584 12.6623 25.0764
13.1184 22.9499 37.7999
10.3292 12.1457 16.0734
10.9971 20.8758 36.0303
8.95567 14.8151 30.4537
21.17 37.3061 59.0401
9.1985 16.4553 30.1909
6.65965 12.3574 26.1984
6.03075 9.71291 24.8808
12.5201 16.4527 22.1233
10.3415 19.3401 33.0765
11.8758 21.785 38.9833
9.72275 12.3493 20.0198
7.73419 11.0854 15.8736
10.6983 18.294 28.0256
13.1571 26.2865 40.7536
7.74593 17.837 36.057
12.2234 25.5463 55.3079
16.7854 29.3138 46.4516
11.5279 20.6542 35.2747
8.48537 15.7362 28.1475
4.38793 11.5976 38.7403
14.339 19.0745 22.866
10.0284 23.1189 41.6149
8.06886 12.1615 23.6712
11.3354 20.1768 31.6897
4.85697 9.21359 19.9112
4.51887 7.41875 17.4308
9.87077 21.6356 41.9764
11.5948 21.5076 40.8828
10.4355 17.0724 32.2477
8.27548 14.3713 26.3219
7.23969 13.5598 24.5662
6.36932 10.7676 24.9765
8.50056 14.0352 27.7704
13.3804 23.5968 37.2824
12.1811 27.2556 50.2619
9.19675 19.2286 41.4691
12.2274 25.3017 46.6068
8.14445 15.5054 33.2782
9.69779 16.2538 37.0751
12.2608 18.3705 24.0124
5.59026 9.90929 14.6461
6.20455 13.4272 26.2743
10.0572 17.4448 27.0224
7.13521 15.0209 34.3668
11.0417 19.7662 28.8662
7.38381 13.9131 24.6379
5.15218 11.165 23.2369
5.62369 12.9087 34.0729
13.1181 22.189 29.7108
3.63908 10.5051 33.246
9.83064 14.8212 24.0015
7.79855 15.7124 23.8349
3.44402 8.51498 27.1525
11.1076 20.1178 36.7222
8.25073 15.1453 28.5754
4.93957 10.1193 26.2895
7.823 17.5364 45.606
12.4683 17.6095 23.5012
6.13308 11.44 18.3622
7.12949 12.0373 21.7664
8.34196 20.5691 43.4027
7.43185 11.9922 20.3861
4.71765 10.9492 26.4328
7.83005 17.193 33.9501
5.03175 7.72104 17.9892
8.22747 15.204 26.9043
5.24399 10.8624 27.3601
6.79561 13.7663 31.5151
10.3985 17.4262 26.2164
7.15294 13.7176 20.0137
6.61384 20.0492 40.6647
6.02344 13.1755 33.6274
9.17954 17.4374 37.1419
9.52442 17.9932 36.1433
10.4436 19.931 33.1492
6.26203 11.7774 21.2403
7.49882 19.5261 40.3565
8.33149 15.8004 28.4048
5.71579 12.5333 27.6246
7.55328 18.3452 44.8199
10.4567 15.4952 25.0284
8.16127 19.3058 36.303
4.75681 10.3095 24.2064
7.40805 18.7676 42.3883
6.77667 13.8085 29.797
7.66232 18.7395 46.3173
7.82782 13.811 32.0567
11.7856 24.4999 47.9479
7.30802 12.2591 22.9428
4.08779 9.1817 30.1245
9.55575 18.1882 32.6142
5.77202 11.4155 25.4969
9.46085 17.4981 34.8753
8.69958 20.6422 40.3286
6.06632 11.9074 28.7877
5.90433 10.8623 28.2662
9.91273 23.833 52.0615
11.5265 20.6241 37.7305
6.03422 12.8791 33.5791
9.15854 20.531 42.2235
8.33831 16.0585 29.3521
7.56724 18.7879 48.138
10.821 18.9134 32.5736
8.12044 23.5256 49.7396
4.60215 8.292 32.3015
10.1943 20.9279 44.121
8.35352 15.4674 33.2305
9.70796 20.8132 38.9232
8.06735 15.8804 28.1577
7.7812 19.0463 35.345
7.32497 21.3072 47.8766
5.92662 12.1102 32.9295
9.8834 24.2188 56.2681
9.67376 16.4208 25.988
3.86274 10.9005 30.3521
6.88348 14.8672 30.1382
5.21889 10.7365 28.7704
4.2134 12.1123 40.6633
10.0319 16.1089 22.5582
4.07368 8.6901 19.6121
4.61879 10.7261 26.5642
6.27851 12.8634 26.5487
8.44304 22.2063 49.9287
6.58233 10.7759 22.331
5.78361 16.1254 36.804
4.84871 9.67615 31.6641
10.4198 18.8103 33.7117
7.22711 14.9206 29.6881
5.20164 13.9722 40.5194
11.0289 24.4244 42.2811
4.95571 10.8105 28.7615
4.67276 9.28238 18.4826
3.99083 10.1608 25.4662
4.24137 10.9932 28.1286
5.55384 11.941 23.1928
3.76473 10.3202 27.0221
4.43676 10.1841 26.9582
6.09325 13.416 29.0064
4.11555 6.96124 15.2631
4.32518 15.5284 45.0834
8.97795 17.1548 31.9311
4.82583 11.4217 28.3316
5.0957 10.9275 21.1182
5.20936 17.1283 45.0714
7.57478 15.7848 34.7195
5.88586 14.0921 44.8959
9.08142 18.7709 34.8776
8.5954 22.8732 43.5368
4.69949 13.4221 37.4809
5.09537 11.7946 35.6961
7.64516 15.1797 32.7174
6.8299 15.3577 29.6107
4.5483 13.2323 29.1154
4.28264 12.0228 38.6603
6.47324 10.175 23.752
5.19096 11.3897 29.8696
7.27848 17.7908 32.3297
5.91715 18.9461 49.3769
6.09878 11.8339 27.5512
4.2171 6.80144 23.1125
8.48874 22.6284 40.7592
3.71083 9.30196 21.0699
3.79989 10.9667 30.281
5.2433 11.6423 26.4714
4.70089 14.9658 41.7137
4.46719 7.64347 23.3915
5.69256 10.6146 21.3055
3.9463 9.45159 23.0096
6.44853 24.7688 67.5582
