# pn-170911/RbIIA-33-RbIIR-1280-1959.psd
# Power spectrum* (dif=0,1,2) (really just |FT|^2)
# NOTE: only the first half! (symmetric)
# weeks: 1280-1959
# 127 clock-days, 49 excluded
# PSD: 1441
14731.6 0.306109 0.0230178
1.27532e+06 31.0536 0.0107299
4.01788e+06 63.4654 0.0114593
973129 28.6675 0.0108839
725555 62.5491 0.0155912
575273 71.6574 0.017335
354394 34.786 0.0166827
234529 31.1766 0.0191546
91706.3 12.8478 0.0156202
51503.5 6.78805 0.0136754
37218.5 10.0501 0.0161502
30762.5 7.11912 0.0152451
26536.9 5.80922 0.0138706
34488.6 15.24 0.0189829
20498.8 9.2376 0.0177102
21530 7.68784 0.0171837
14128.1 5.22834 0.0172156
12361.2 6.07658 0.0182677
11850.8 6.23146 0.0196063
8215.47 6.18477 0.0223703
7408.77 5.26614 0.0199519
6346.46 5.46095 0.0216599
6308.74 4.96096 0.0214399
5863.62 6.25292 0.0253938
6025.92 5.39669 0.0270464
6035.86 5.00801 0.0257345
4967.1 4.67694 0.0251818
4432 4.89061 0.0284075
3679.57 5.3532 0.0313505
3542.78 5.04829 0.0300432
4683.16 6.89807 0.0393969
2805.99 3.53277 0.0257268
3241.2 4.51494 0.0320758
2981.89 5.08638 0.036444
2913.95 4.77433 0.0334883
2612.28 4.80426 0.0360378
2471 4.3934 0.0351729
2742.79 4.86338 0.0464231
2414.54 4.91758 0.0428287
2794.27 5.0971 0.0457727
1847.83 5.18052 0.048409
2037.59 4.69614 0.0477857
2273.7 5.65259 0.0629418
1662.48 5.036 0.0500595
1572.3 5.91136 0.0658601
1389.52 5.29183 0.0624898
1533.66 5.81379 0.0622389
1668.07 5.76395 0.0726643
1640.6 5.04842 0.0658064
1430.03 5.55263 0.0747813
1451.29 5.2409 0.0721474
1368.2 4.91485 0.0687216
1345.55 5.37999 0.0829979
1276.8 5.59319 0.0876152
1113.45 5.63478 0.0889328
1067.26 5.24615 0.0803749
1035.54 5.14566 0.0909692
994.628 5.07167 0.0984529
1066.52 5.03817 0.0889568
895.047 5.05971 0.0947571
813.243 5.65756 0.109637
842.838 5.67103 0.109462
874.225 5.21785 0.0993097
939.276 6.2081 0.123951
1052.13 6.07977 0.135874
998.933 6.32667 0.131511
869.034 5.53713 0.126194
698.287 6.21336 0.144948
818.741 6.0851 0.143548
674.046 5.29083 0.129543
655.947 5.61697 0.148694
754.203 5.92145 0.150463
733.336 5.74774 0.152241
657.983 6.81394 0.180476
729.388 6.21854 0.169156
715.665 6.81913 0.18704
583.995 5.77501 0.173249
586.501 6.89237 0.212323
611.906 6.87223 0.207191
583.729 6.50205 0.195836
598.619 6.65612 0.213573
681.044 7.43873 0.252463
617.206 7.35425 0.23685
577.636 6.93654 0.237761
517.363 7.19353 0.257934
493.658 7.09679 0.251239
437.095 6.55598 0.246907
457.575 7.29074 0.267532
524.274 6.50275 0.253116
567.68 7.34692 0.286755
567.655 8.38232 0.329295
454.157 7.41234 0.294358
425.795 7.5502 0.320665
438.506 7.78404 0.328488
452.263 7.36554 0.313415
426.191 8.71094 0.384583
430.546 8.79804 0.390687
463.789 7.22941 0.33071
393.347 7.30436 0.344014
493.708 9.75237 0.468852
467.792 9.51922 0.451025
336.994 7.64739 0.385762
388.137 8.91369 0.461386
381.989 8.56437 0.443128
440.276 9.28017 0.475511
400.189 9.28115 0.49608
393.279 7.702 0.408661
383.467 8.42177 0.477492
361.555 8.31248 0.481932
337.962 9.1488 0.52027
322.982 8.58931 0.499416
325.821 8.86583 0.533419
360.52 10.7476 0.667239
328.883 8.15244 0.496375
354.813 8.55206 0.555247
381.33 10.5239 0.666472
383.915 9.52919 0.608856
335.422 10.1132 0.67217
304.492 10.0474 0.65563
293.272 9.78032 0.645261
295.495 9.78236 0.670498
282.894 8.10397 0.591619
295.223 9.21705 0.666821
333.32 10.5248 0.771966
289.376 10.9463 0.817534
279.73 11.2811 0.8539
311.619 12.4244 0.924113
266.373 10.187 0.801657
299.312 11.0936 0.851172
329.6 11.2985 0.900925
272.669 9.94792 0.830368
309.222 10.5938 0.875512
279.845 10.2418 0.85946
299.981 13.5396 1.15224
262.089 10.8186 0.91385
222.929 10.5173 0.903815
276.951 10.8833 0.935219
248.798 10.533 0.918239
285.927 12.5999 1.185
287.749 11.7837 1.08427
288.056 10.8841 1.02611
253.559 11.2076 1.06304
259.733 12.4784 1.19417
259.609 11.7565 1.12654
243.281 13.6234 1.34432
215.659 11.9195 1.20497
235.562 12.221 1.23874
242.566 12.6692 1.28653
244.43 13.2765 1.36787
228.731 12.0387 1.25686
233.943 13.7675 1.493
191.38 13.0912 1.45216
206.552 12.0735 1.32502
206.692 13.9104 1.5658
239.636 14.3608 1.59552
256.686 15.7888 1.8422
229.881 12.9322 1.49438
255.945 15.9093 1.86162
222.301 12.2402 1.4256
195.777 13.3275 1.55122
188.685 13.7948 1.69953
178.115 13.4527 1.67332
195.314 13.2932 1.65044
225.845 13.5031 1.68873
218.14 13.7216 1.76069
180.324 12.4903 1.63701
214.048 14.9876 1.94593
219.096 16.6276 2.17515
162.938 12.9385 1.69538
159.257 12.5152 1.74187
167.277 13.3594 1.78996
191.306 12.5694 1.72757
187.726 14.2363 2.0099
190.346 13.1308 1.81811
199.661 12.8349 1.84999
187.74 17.1507 2.53637
154.35 14.6035 2.13271
168.493 14.7814 2.22602
191.769 14.6151 2.20172
174.599 13.5279 2.08489
192.361 13.4279 2.04213
200.372 15.9338 2.42407
188.969 14.2866 2.23359
149.685 14.7376 2.36761
149.866 14.4902 2.28217
155.493 14.3318 2.32351
160.09 14.9413 2.40953
170.787 15.5399 2.52851
201.403 15.9016 2.67775
155.813 14.9096 2.5592
170.3 14.3001 2.37155
172.832 16.7988 2.92241
150.142 16.1639 2.88263
146.22 15.4858 2.69395
147.432 16.0465 2.81216
155.404 17.4855 3.07849
163.626 18.4566 3.3885
149.365 15.7562 2.82589
168.743 16.2873 3.02644
161.095 16.6006 3.11744
138.683 15.9572 2.8935
137.23 15.475 2.96686
152.105 16.6095 3.14804
120.702 14.4586 2.84942
143.506 17.235 3.32686
149.59 15.3176 3.05289
170.331 15.8906 3.19498
145.458 16.6535 3.35143
137.013 16.3963 3.30159
136.804 17.8183 3.64798
125.886 15.5267 3.27597
129.662 17.5097 3.65788
146.008 16.1544 3.45206
164.678 18.5942 3.98215
135.605 18.7862 4.03903
163.082 18.6693 4.07049
122.466 16.0364 3.44817
132.971 16.4635 3.70805
113.503 18.0434 3.93711
126.752 17.8281 4.02472
109.264 15.3396 3.50718
143.654 18.083 4.11252
144.728 19.3245 4.4815
142.342 19.6433 4.52419
134.589 19.4763 4.66208
138.713 18.8519 4.48474
126.612 20.1623 4.78412
129.802 19.1067 4.59858
111.254 18.3332 4.47018
118.921 16.2771 3.92989
131.457 16.689 4.23482
132.038 16.4073 4.00463
135.901 21.8943 5.32398
121.608 16.9793 4.49039
98.6206 17.5698 4.60382
115.873 18.833 4.76928
109.352 16.5452 4.36039
137.609 22.0628 5.67215
102.424 16.5593 4.4079
135.75 21.3001 5.60737
125.894 21.0405 5.70655
119.73 18.3759 5.00434
111.034 18.1655 4.92446
107.892 19.5131 5.32856
89.2052 17.6173 4.68258
94.9667 16.3311 4.66069
114.886 18.2191 5.19223
124.335 19.7608 5.63702
120.637 20.0743 5.80142
106.907 20.6763 6.24328
126.174 22.8275 6.49569
99.1751 20.5976 5.96616
109.113 22.852 7.10205
113.003 20.1089 5.81362
84.1359 17.3671 5.21484
118.031 20.5806 6.30758
139.484 22.6629 6.81631
117.192 23.4059 7.3219
108.616 20.4336 6.29749
93.1586 22.996 7.02791
91.3425 20.7012 6.4827
84.7675 18.7259 6.12351
88.0533 18.3716 5.82047
124.733 21.3219 6.78632
105.221 19.1294 6.22436
108.399 21.5231 6.78749
114.057 22.4156 7.40965
88.2707 20.0365 6.74267
82.0056 18.7002 6.27563
85.7374 17.5422 5.85601
94.5371 17.0213 5.44592
105.546 21.2519 7.08444
103.847 19.9945 7.09982
100.475 18.0965 6.07435
101.977 21.6904 7.38772
70.3103 16.5588 6.0323
84.1211 19.0704 6.77164
91.6938 21.1286 7.47832
89.2885 20.261 7.43077
105.146 21.5951 7.68061
125.932 23.5139 8.68206
119.982 21.557 7.78412
94.6191 18.7264 6.91223
81.9723 19.3562 7.06207
81.0559 22.5387 8.5168
87.2233 22.0507 8.55151
82.5317 22.1649 8.25632
82.6428 20.5668 7.68321
100.858 21.9804 8.4506
105.595 22.7977 8.5519
95.1243 20.8079 7.83592
81.7062 21.4559 8.40777
84.2064 22.3109 8.91426
85.6989 21.3299 8.3518
76.7078 22.6613 8.843
83.9998 21.8483 9.12729
82.8244 20.8346 8.49197
96.2909 20.3918 8.38184
84.8065 22.8496 9.29274
91.0054 20.1702 8.24634
89.759 24.3172 10.0623
80.7398 24.6157 10.0016
79.6195 22.1776 9.24863
84.3749 21.3463 9.18299
84.4934 20.3369 8.69365
85.2063 19.5274 8.57664
83.4518 19.3872 8.21639
84.801 22.9078 10.0078
82.0453 21.5051 9.29127
62.9772 20.6932 9.71622
75.7663 22.2988 9.39196
67.5656 18.4513 8.38125
80.5137 19.8202 8.46469
85.3117 21.1311 9.26467
90.3491 21.1132 9.82286
76.527 20.171 9.1652
70.626 21.1989 9.77067
69.9474 20.5897 9.30285
66.233 21.5082 10.2384
72.1967 25.1289 11.6128
79.412 21.8637 10.1935
76.023 21.8389 10.5193
76.0829 20.0247 9.79898
85.8438 23.3305 11.3364
75.0532 19.5109 9.55544
79.2028 23.8621 11.1528
64.7181 23.1378 10.7358
70.3798 21.7964 11.1818
86.6839 26.9402 12.8905
75.0631 25.6306 12.9873
84.0606 23.6146 11.4341
72.5459 19.1308 10.0033
74.6253 23.2602 11.8504
74.7247 25.978 13.2326
55.1864 21.676 11.1363
63.8716 21.9786 11.0421
67.6099 22.991 11.8279
73.5921 20.7226 10.5894
79.0052 22.553 10.9784
69.7098 21.6945 11.565
74.6091 21.9905 11.7871
65.5562 23.3831 12.3341
55.1675 20.7883 11.0233
61.042 23.2168 12.5242
52.7677 17.5589 9.73802
70.8103 23.2056 12.1124
76.5468 27.3214 14.2973
60.0581 18.0376 10.3787
63.861 20.8231 11.4307
59.3573 20.6917 11.438
55.1788 21.3849 12.2365
49.7855 17.5732 9.87137
58.9825 22.7926 12.7698
65.1259 23.7881 13.1836
71.8334 23.7208 13.3455
71.6471 20.1293 11.6872
69.48 19.3916 11.4834
57.0336 20.2738 12.06
52.1271 17.7406 10.6032
61.4228 23.3758 13.1476
64.1735 24.8763 14.0426
48.7011 19.1129 11.1013
55.7361 21.9098 13.8009
69.9483 21.577 12.5023
73.5878 27.9623 16.2796
55.2174 20.0251 12.3476
51.0797 22.4973 13.5033
50.272 22.1556 13.6125
52.7092 21.3645 13.1873
54.3522 22.1641 13.4715
61.1674 22.6834 14.1841
71.865 25.8751 16.0236
68.3962 22.4776 13.9759
73.3828 25.6717 15.8463
53.1766 21.6459 13.2843
50.4473 22.4659 14.1087
47.2656 23.5928 15.903
55.7414 21.5339 13.8725
49.4449 22.3529 14.3893
61.287 23.9419 14.9865
64.9352 23.4414 15.1847
54.1671 20.0853 13.4578
52.3094 21.038 14.0946
53.6687 22.8201 14.576
44.3215 21.9558 14.7745
48.7905 22.1803 14.4957
47.2352 20.0087 13.3577
63.0418 24.5003 16.4035
57.3198 22.7837 16.0984
57.3739 21.1792 13.8361
56.4229 23.5599 15.6996
52.8791 23.0582 16.4076
51.3776 24.1004 16.7504
51.0303 25.6513 17.9397
47.3792 20.8987 15.1348
57.1201 24.3742 17.0281
54.8141 21.9074 15.1316
59.3341 21.1042 14.0846
59.1424 23.9992 16.9543
48.8201 20.9088 14.8628
42.1673 21.8301 16.0886
41.2432 21.028 14.7811
43.559 21.7801 16.333
58.4073 24.0651 17.0561
55.3134 24.0399 18.0913
52.2471 23.451 17.9357
63.9648 23.5375 16.0683
56.3156 24.9011 17.9362
41.6731 22.8822 17.7343
43.77 24.3043 16.9254
39.6332 20.7347 15.9026
38.649 18.6107 14.3532
45.1965 22.8347 18.07
56.4925 26.3466 19.7038
51.8582 21.1364 15.5382
48.4902 19.872 15.8684
43.1047 24.3295 18.6678
43.1238 22.7136 16.8114
33.5102 20.2819 16.2764
38.2445 18.8662 15.5072
49.3602 24.7054 19.3406
51.9765 26.8772 19.8684
46.2789 20.0656 16.2794
48.7783 20.4129 16.2904
42.6185 21.4019 16.9889
41.1002 24.2688 19.5594
43.2019 22.3882 18.2077
46.8289 24.4583 19.6176
39.8574 17.2095 14.0977
54.8667 24.0863 18.9602
56.5133 22.9456 19.0555
50.7958 20.738 17.0995
42.3365 18.5629 15.6493
39.8947 22.1165 19.2852
38.4387 20.6551 16.4904
36.7387 19.6926 16.8261
42.108 22.3399 17.5241
43.7566 23.1117 19.8913
44.5485 21.6709 18.5785
49.3269 22.7723 19.9556
38.0271 20.4077 17.0891
35.7769 20.0566 16.492
38.38 25.5254 22.3362
37.8574 20.4056 17.6777
35.6786 18.9843 17.1375
43.5749 20.0091 15.862
45.5938 22.7649 20.3651
47.3247 22.6167 18.6433
42.4737 20.3064 18.4428
39.618 22.1547 20.0628
35.3639 22.4449 20.6792
34.6753 21.1 17.4962
38.8437 21.998 19.3536
38.638 22.2629 20.0273
39.8321 19.0553 17.7333
41.8485 19.5835 18.1979
38.8738 21.1243 19.6188
37.0082 20.8109 19.9932
39.9459 23.6152 19.9145
33.504 22.4957 20.2426
31.9633 23.6132 22.6485
40.4234 26.7989 24.5166
38.8964 20.9859 20.3461
46.4411 25.2369 23.177
39.4304 20.9562 18.4331
34.6069 20.4277 19.4173
39.693 23.7498 22.6645
29.8163 20.1274 19.6207
38.5688 22.9341 22.3478
35.158 23.4025 23.2736
37.9383 21.1142 20.8617
39.0026 18.5907 18.5942
45.3121 23.6321 21.8075
35.5635 19.0649 19.0816
35.9089 22.5477 21.3172
30.9728 20.5324 20.4747
31.7337 24.1548 23.9676
38.6448 23.53 22.8735
36.8683 22.2651 22.2712
40.0974 23.4821 21.2136
34.6601 23.0627 25.0082
39.5328 21.6425 22.2821
36.3563 18.1797 17.6725
31.0125 20.2715 20.3814
28.902 21.0283 22.2362
35.3001 24.774 25.7083
37.62 24.9013 25.3286
34.2115 20.0611 20.7604
40.5667 22.9308 24.1581
33.5167 19.6806 21.69
37.1454 21.7104 22.127
34.9959 21.3091 22.418
31.1793 25.2577 26.4166
28.1243 19.1457 21.1378
36.2892 19.9528 20.9383
41.7733 24.9258 25.1075
36.9041 20.3971 21.967
36.1323 20.3106 21.5442
35.5758 21.0742 22.0047
34.9794 23.4738 24.6341
27.3518 18.3945 20.9195
36.2721 27.415 28.8477
29.5157 23.3404 25.3611
31.8403 20.3783 23.3082
37.8399 22.21 23.3508
38.9426 23.8484 26.7498
38.1434 22.9225 23.9015
31.0031 23.851 24.5929
29.0114 23.0371 27.1092
27.7069 22.6199 24.3394
26.6422 20.7335 23.0073
30.4389 23.2849 26.3556
31.8923 19.3798 21.685
41.5266 27.2849 29.8846
31.9399 21.7799 25.26
32.3672 25.2111 27.6147
31.3467 21.0256 24.5466
30.2052 22.5925 25.5734
30.0009 22.8274 27.8563
34.9548 22.9023 25.6636
34.2781 22.3587 25.3707
38.763 22.5603 25.4507
37.3635 18.5864 22.0249
37.7476 22.2867 23.9653
30.449 22.383 28.619
27.5482 22.7169 26.7079
24.1715 21.1042 25.0124
27.2064 21.014 23.7953
35.9546 27.3301 32.3651
28.4564 20.7743 24.9647
36.8535 29.8408 37.4818
33.5889 27.0109 32.9681
29.0458 20.5722 24.1003
27.5747 25.8954 29.567
22.0787 18.8302 25.0889
28.908 25.2173 29.7617
30.9431 24.961 29.6641
29.2173 23.865 27.1726
26.6867 20.652 27.6066
32.5873 25.3711 30.5049
27.754 21.5849 27.5247
32.3143 27.8504 35.6315
28.0359 23.989 28.9856
29.6289 23.5142 28.9808
29.1923 26.056 31.6708
30.6225 25.9471 34.6814
34.3647 20.8451 25.2151
29.6956 23.0426 27.2113
31.5988 25.2258 33.13
29.2252 20.4209 27.1177
29.1633 28.8368 36.9152
28.4032 24.9425 29.5439
28.4389 26.5163 34.0574
27.0408 22.9666 31.3211
30.184 26.2602 34.0352
29.5264 20.7717 25.1573
28.1335 20.881 29.7955
29.9267 22.6807 29.2552
29.8148 27.5781 34.8925
28.0693 25.9395 33.2575
25.3076 22.6795 29.7823
26.5693 28.0133 37.5262
27.7253 21.378 29.6435
34.5191 31.2957 41.1738
31.8958 23.4195 29.3161
31.8246 32.2023 45.1134
29.9369 28.3654 37.4846
25.4372 23.8102 34.5403
24.802 24.9565 33.2571
28.9053 24.8377 33.3471
31.35 22.9657 28.2565
26.7785 22.0334 31.1345
30.1565 21.6295 30.0583
27.823 20.7787 27.282
25.9552 25.2215 35.92
23.9718 21.9069 30.4885
26.4047 30.7805 42.7412
24.2385 19.2929 27.1103
31.9026 26.6738 37.2705
26.8657 23.3928 32.7208
27.9144 24.1158 34.4791
31.1268 24.82 29.7308
19.6435 18.3936 28.608
27.4591 27.2276 35.6236
21.9668 22.4294 32.7785
27.2346 27.3584 37.8597
20.9296 20.0206 32.0746
30.2602 23.4307 31.6191
26.676 23.6492 33.9902
28.283 23.7474 36.4436
25.8462 22.6388 34.4071
20.2135 22.0291 32.3947
23.6743 26.1342 34.7955
22.7159 22.754 36.1168
25.902 25.0422 33.0107
24.5736 20.4827 30.2045
31.404 28.7957 42.4791
28.6212 21.2022 31.7896
27.7203 24.5325 37.2941
23.9964 24.2739 32.0486
20.6058 24.466 37.9113
22.2287 18.2977 27.6152
23.0235 21.2631 29.6991
21.3139 20.9208 33.7096
24.6638 18.8188 31.1709
25.8956 20.0869 27.7825
25.5032 21.206 31.4601
19.3791 18.2431 26.7635
18.9672 19.7961 28.7664
18.9643 19.3197 30.743
21.815 20.0939 27.2481
21.9121 22.8188 40.3857
25.665 21.8911 33.0738
22.5655 20.6146 31.4737
23.8101 20.9976 30.7902
20.3559 17.8674 28.1655
17.9365 20.3162 33.759
19.3195 20.3252 31.0747
23.5598 21.9772 31.0254
22.3473 22.4363 34.4352
21.6391 18.4185 30.4167
25.0403 23.0044 39.2385
32.7726 29.4028 44.7533
26.5724 27.1816 42.4593
24.2218 20.5736 32.3975
19.8376 21.9496 32.5522
23.1099 27.7044 41.818
22.9799 26.9395 45.4599
25.5976 26.7487 44.1325
28.4392 28.9165 47.7722
26.3051 27.2413 43.0321
26.8699 25.5971 39.4292
19.9912 25.9765 45.0387
19.5561 23.2527 38.655
23.5158 27.2197 42.8173
22.8371 25.3451 40.7546
23.4506 23.4736 36.7006
23.0582 22.6962 38.5056
22.4131 19.193 33.0137
25.3848 22.3167 36.303
22.1282 19.4691 31.4149
15.8842 16.5341 28.9167
18.4202 22.2858 34.8363
15.5893 16.1319 26.0244
18.6939 20.1138 34.9226
19.0463 18.0844 30.9889
23.8855 20.983 36.2534
22.1779 19.4239 31.6409
18.4617 16.5172 29.016
18.2457 19.7563 34.2357
18.7812 17.9436 30.0833
16.687 18.48 34.6176
19.8882 20.0234 37.3852
23.4355 26.5205 43.7352
25.1765 26.5789 43.381
20.5165 21.4405 39.532
22.4381 25.1868 40.9458
20.7716 25.2797 45.6989
19.2185 25.0583 42.9068
22.6104 27.4653 47.7057
19.1741 22.4597 35.087
20.6499 21.8996 39.6147
25.0208 24.1172 42.0543
24.9648 23.5729 37.5884
17.6005 17.357 31.8234
19.5441 22.6281 39.5829
16.9504 20.0396 35.7646
18.8385 20.1944 31.798
16.927 22.1618 39.5698
18.4548 22.6928 40.7319
20.3736 19.3383 37.0551
19.7978 17.8565 31.6223
19.6754 19.7952 35.3426
19.8192 21.1581 34.0196
15.9026 20.8504 38.5028
15.9624 20.3622 39.5579
18.5188 20.495 34.4594
15.3715 18.0066 32.749
16.8308 19.7896 37.8661
18.2963 19.3677 38.136
20.6017 19.9286 32.3176
16.9323 20.7837 38.8188
18.6354 23.3798 40.4478
15.5755 19.4847 35.7973
14.7212 17.8466 33.6364
16.6731 17.4002 30.9911
17.2773 16.6504 33.2193
22.8648 19.4411 35.1941
18.7158 18.0162 33.7404
17.8202 20.341 37.8513
16.3968 17.1346 32.8129
17.7892 21.792 44.7609
19.2705 25.4836 49.7534
19.1754 24.6304 48.702
20.5042 22.0238 36.1648
16.8116 19.2701 36.885
20.2001 24.2003 49.807
19.5015 24.5067 48.1675
21.0204 24.5321 46.0871
17.695 22.7482 41.2036
15.8992 20.719 41.6032
17.9921 24.3368 43.3306
17.661 23.2965 46.5631
21.0887 26.4425 49.7383
21.8726 28.1456 50.339
20.8887 26.7377 53.8047
21.318 28.2749 51.5711
17.8118 22.8772 46.6767
17.1661 23.4899 45.7048
20.3717 26.2572 48.4201
19.738 25.2387 49.0131
18.4852 24.2654 47.2563
20.4141 23.2334 48.073
19.9138 24.0779 45.4957
19.4915 24.3553 49.1525
21.9986 27.4831 50.0862
14.5903 18.5253 39.588
16.3113 23.1683 45.6181
16.8678 22.7072 47.3695
20.0798 23.6865 44.9644
21.6735 25.845 48.1116
18.6186 25.3919 51.5269
19.8918 25.8864 53.315
19.5135 25.4132 48.4084
16.8432 24.0992 52.2962
17.9349 27.1022 51.3979
16.2662 23.596 48.8078
15.2129 22.5889 46.7924
18.2486 23.5275 48.4316
16.56 19.2791 37.9242
14.8235 19.6534 38.3026
14.9562 21.0748 45.1995
16.2503 25.508 59.4035
17.9615 23.791 47.5927
16.1618 20.8095 43.9082
16.1957 23.8734 49.8813
19.1529 23.8742 47.726
19.1242 23.0544 50.0973
20.1115 23.3171 48.0835
18.9247 25.1871 50.5998
16.978 23.8948 52.3109
17.1572 22.3683 46.2742
13.5817 17.8018 36.6897
13.5312 19.5829 45.2557
14.8246 19.1033 41.0279
16.6255 24.4868 53.4057
18.6944 23.6952 50.6328
17.6605 27.1298 54.1709
16.8419 24.972 55.1558
16.5112 22.1444 48.5063
14.8979 21.0912 44.1573
15.3594 20.3001 42.2542
16.5694 23.0452 48.9828
16.9677 22.8681 47.1408
16.1278 24.5258 57.3619
19.7899 24.8663 51.4601
14.5157 22.3696 43.5602
13.9812 23.5166 51.5398
15.4586 23.3799 47.0649
12.6846 18.5884 42.7416
15.0422 24.6366 56.8727
17.7354 21.4668 42.1737
16.9118 24.5881 50.6755
13.3267 20.9423 45.6846
13.9367 18.0056 38.1263
13.4602 16.8008 46.8929
17.3542 22.2722 44.7737
13.3712 20.3334 46.104
15.8629 19.9015 39.0255
13.5724 19.098 39.7945
13.9264 18.0961 42.278
14.1639 18.5345 37.9669
11.9117 16.3798 42.3448
13.07 16.1175 38.2321
13.4642 16.5332 35.5776
11.4241 17.8839 38.8121
11.0719 16.6988 41.7799
14.22 15.8532 33.1013
15.257 20.7538 45.0073
14.8663 18.3105 39.8347
14.1594 16.8521 35.3625
12.2332 18.4839 40.7252
12.1801 16.287 39.0172
12.2051 19.503 45.0894
11.0206 15.1066 35.4988
14.4219 18.2447 41.3402
12.4017 15.8717 36.3809
13.0985 16.8045 36.2727
14.276 19.0805 46.0191
14.8065 17.9734 43.1104
12.4655 17.9742 42.0018
11.24 17.9002 39.4613
10.4226 16.3939 37.7994
10.8267 14.7677 33.222
11.9763 17.4388 42.7276
12.4887 16.9522 39.9616
14.4055 17.3989 41.1439
12.5253 17.6814 42.4058
12.4129 18.8889 43.1468
12.1133 17.6701 38.6684
10.8832 15.9447 36.8749
12.5438 16.8055 41.3269
12.3756 18.1148 41.4847
11.0185 16.1626 41.0156
13.2801 18.1468 43.825
14.1515 16.2986 40.0744
12.1167 15.3108 38.0832
12.3979 17.498 38.4649
11.0249 17.3783 44.0185
11.6065 18.2538 42.3574
12.8072 16.6474 42.9701
15.1697 20.6236 41.6223
12.4515 16.9842 41.166
13.3062 16.3516 39.6208
12.8761 15.3634 38.0831
11.1357 17.8102 41.6202
11.4492 16.6344 37.9119
10.0316 15.6544 39.1069
11.4999 19.3273 44.7989
11.0241 13.6348 36.1122
12.1299 15.4031 38.5155
13.8192 16.8425 39.7826
11.5628 16.7382 43.9661
10.8985 20.0686 46.7135
13.0919 18.2514 47.1616
9.90751 16.9891 39.2692
10.7135 15.751 40.1622
12.3817 16.93 41.9608
