# pn-170911/RbIIR-61-PTBB-1280-1959.psd
# Power spectrum* (dif=0,1,2) (really just |FT|^2)
# NOTE: only the first half! (symmetric)
# weeks: 1280-1959
# 8 clock-days, 0 excluded
# PSD: 1441
775.261 0.0526218 0.0189431
41422.1 0.653232 0.00257562
96463.9 1.48889 0.00231944
41553.7 1.37009 0.00239491
43054.3 3.34258 0.00252339
6818.39 0.907434 0.00242026
13263.4 1.56755 0.00282081
6917.28 1.62524 0.00317185
4412.74 1.16026 0.00317285
2149.94 0.738911 0.00303825
1754.92 0.637457 0.0038414
1395.92 0.763454 0.00345036
1502.45 0.652937 0.00333741
284.113 0.455052 0.00255919
1904.36 2.49391 0.00580984
1841.53 1.4574 0.00383443
2031.18 2.9527 0.00757643
1253.53 1.81684 0.00481186
913.94 1.45096 0.00324412
360.335 0.552047 0.00331467
778.259 1.35541 0.00151409
595.539 1.10082 0.00652268
651.651 1.30121 0.00493355
418.798 1.55078 0.00684606
444.86 1.19854 0.00566335
395.873 0.91115 0.00355749
736.678 2.2969 0.010037
351.432 1.38409 0.00599385
369.045 1.48212 0.00625447
467.097 2.01004 0.0123766
412.788 1.83064 0.00898783
345.733 1.24206 0.0061647
441.961 2.11472 0.013298
663.234 2.43927 0.014672
633.901 2.53743 0.0169024
415.81 2.68344 0.0256071
203.013 1.18938 0.0109321
357.602 2.5493 0.0204369
193.859 0.953015 0.00805162
180.885 1.48118 0.0163844
466.203 3.62838 0.0327041
227.795 1.46527 0.0113301
368.245 2.56778 0.019301
215.78 1.63473 0.0170665
257.699 1.86749 0.0237763
330.518 2.38346 0.0317231
213.127 2.77921 0.027312
182.575 1.75036 0.0221442
117.545 1.36442 0.0202283
311.049 3.3376 0.0368408
134.693 1.99413 0.0279395
232.981 3.06927 0.0397391
209.963 2.73111 0.0433251
121.034 1.92044 0.0230121
240.362 3.4171 0.0545761
163.706 2.95902 0.0501877
91.8813 1.57115 0.032894
163.279 2.33073 0.0390805
362.202 5.63427 0.101774
268.228 4.12464 0.0761698
153.325 2.37616 0.0386532
153.785 3.30744 0.0696217
180.986 2.35379 0.0446135
88.7871 1.54016 0.0285586
259.669 4.56412 0.0958875
186.596 3.22142 0.0751064
149.251 3.3857 0.069458
195.614 3.27581 0.0759781
126.187 2.67689 0.0607515
174.643 3.90494 0.097992
183.881 4.14842 0.0934767
250.107 5.1055 0.115301
166.881 4.38649 0.118316
163.514 3.80087 0.0928385
114.718 3.58303 0.0922904
135.93 3.93153 0.106892
56.2378 1.68119 0.0640503
128.681 2.9096 0.0950334
155.409 4.61376 0.139696
188.427 5.22039 0.147562
165.758 4.68918 0.155709
149.872 4.55493 0.131755
185.785 5.21469 0.168324
137.444 4.33846 0.14887
235.8 7.51993 0.258336
221.304 7.06549 0.245898
154.85 4.24626 0.147482
69.6682 2.72732 0.112698
193.347 6.29842 0.251208
139.495 5.01203 0.185045
222.087 8.27024 0.303875
76.0291 3.0346 0.132308
112.789 5.38336 0.216235
164.803 6.50888 0.268353
113.193 5.07374 0.209659
142.439 5.91869 0.263036
164.482 7.53752 0.323481
172.998 8.19557 0.375341
220.83 9.93469 0.446588
207.178 7.71965 0.335769
176.579 8.0801 0.358871
90.7009 4.69625 0.230531
154.56 6.87373 0.328018
193.609 9.29992 0.503718
109.436 6.58593 0.336061
176.378 8.35204 0.485999
115.256 6.15113 0.347858
198.012 11.1618 0.550231
112.204 6.42791 0.368818
105.558 6.75268 0.385258
104.73 4.91074 0.245939
112.609 6.63985 0.409339
36.5426 2.85556 0.177363
98.6118 5.41912 0.329419
205.549 13.5024 0.838586
85.1673 4.9039 0.305465
92.5581 5.56113 0.348577
253.999 16.927 1.08795
81.5979 4.90206 0.338212
164.951 10.9525 0.735076
107.497 7.73321 0.560056
250.195 16.7799 1.21594
84.5403 5.5277 0.378041
156.979 11.1454 0.837287
115.581 8.69494 0.686295
185.507 14.7589 1.11534
158.747 13.8387 1.11502
101.722 5.77057 0.420315
78.7418 6.9403 0.597007
94.5706 7.7677 0.685566
116.77 10.0419 0.852808
218.535 14.8728 1.11752
86.1168 7.5758 0.733718
123.651 9.42168 0.78078
89.6196 7.33349 0.615712
100.065 9.32081 0.858
171.271 12.9873 1.06799
114.922 9.00634 0.750105
152.561 12.8371 1.22272
158.128 12.7604 1.14159
88.9714 7.68228 0.7676
40.363 3.9903 0.379396
217.775 20.887 1.9375
135.501 13.4298 1.2849
65.153 6.60374 0.631557
125.109 12.1885 1.30982
161.102 16.635 1.54056
92.1586 11.1936 1.15518
150.787 16.5574 1.82198
103.177 10.0307 1.04757
130.186 14.8173 1.55481
49.8917 6.16315 0.702736
174.992 20.2746 2.32957
84.1378 8.52615 0.860639
224.704 25.2607 2.86571
33.0849 3.69057 0.470622
101.239 10.0296 1.15541
76.9369 7.78466 0.936269
111.998 12.6707 1.46667
78.3771 9.24396 1.2678
116.358 12.6675 1.37263
117.547 14.8065 1.79133
70.811 6.90497 0.795468
78.0125 10.1737 1.27653
58.181 7.58627 1.04337
86.0357 11.3685 1.47533
141.157 16.9818 2.10906
47.1064 6.34113 0.885048
143.525 19.0045 2.53403
42.7986 5.39393 0.745494
50.1847 7.9115 1.2899
59.9974 7.27588 0.958901
102.428 13.6023 1.86926
101.762 15.4444 2.23046
72.3641 9.31003 1.32908
78.347 11.8857 1.75343
83.7976 13.5218 2.00805
97.534 14.3204 2.10724
82.9453 12.5341 1.81787
75.5202 10.4816 1.61245
54.491 7.11942 0.971193
73.9039 12.8451 2.21452
95.622 12.9588 1.80003
78.3503 12.4305 2.00218
45.6991 7.46029 1.29327
51.7461 8.06022 1.26412
48.461 6.07105 0.975333
100.07 15.5338 2.41963
139.552 22.1465 3.80395
80.227 13.3829 2.1878
77.1359 11.4909 1.83738
89.422 13.7337 2.34618
48.1313 8.3868 1.67141
132.947 22.5217 3.72078
66.3607 12.3807 2.59635
85.3602 12.7855 1.921
34.7073 6.05743 1.12303
25.9089 5.51208 1.12297
62.9817 10.9529 1.907
110.342 19.3615 3.60987
84.6408 17.5503 3.89952
79.3701 13.0882 2.28884
72.2143 14.7228 2.97551
75.8443 12.7876 2.1072
59.2811 12.4992 2.70293
52.8396 9.41093 1.84407
63.8512 12.0678 2.38594
47.5348 9.0126 1.73289
129.425 26.2324 5.11636
93.1909 17.1555 3.42346
78.7269 17.7451 3.62334
58.1586 11.2893 2.42519
27.134 5.00425 1.00876
27.3432 6.44206 1.39765
83.6694 16.6985 3.72387
101.629 21.411 4.51787
59.9818 14.9775 3.41232
98.1316 20.5352 4.41175
67.1748 13.8984 3.23442
106.618 23.8584 5.33401
60.7074 17.2497 4.55499
85.4555 18.9405 4.41233
83.3858 16.579 3.5878
121.276 26.7231 5.78744
49.0444 11.1016 2.56913
42.3242 10.2493 2.28082
39.828 9.81197 2.51572
46.4881 11.1146 2.87695
108.375 25.8562 6.07198
57.4898 11.6569 2.25043
57.591 14.7541 3.65797
42.6424 9.88944 2.41178
44.4731 11.2354 3.10454
68.1161 18.2593 4.50054
33.6746 7.99775 2.04423
66.8385 15.9817 3.85568
54.685 14.557 3.81026
76.5174 19.5092 4.83978
47.2448 14.7791 4.33059
65.8662 15.564 4.02798
43.3311 12.0646 3.17373
74.7992 22.2727 5.82901
35.6953 9.81296 2.71212
57.4551 16.261 4.35464
84.6954 21.8343 5.56848
40.5351 11.7732 3.39753
60.0064 17.3828 4.85474
49.8216 15.0195 4.47441
41.8821 11.7145 3.38325
23.5329 7.74261 2.62759
66.2519 21.0298 6.29239
89.1412 21.6174 5.53398
51.4527 14.251 4.4083
41.6173 12.759 3.93517
66.5674 19.6366 5.83291
33.0895 11.0083 3.78617
56.9512 15.4479 4.56091
36.7258 11.8216 3.85615
66.9176 18.1248 4.57813
77.3303 27.1569 8.91816
61.7649 19.2195 5.93122
37.707 8.74884 2.25892
62.9395 21.2785 7.46802
43.2554 12.6352 3.73594
18.1143 7.0987 2.95955
40.5201 11.7962 3.38467
40.2705 12.4998 3.84463
53.6488 16.8188 5.45055
44.0296 15.8442 5.54562
37.8664 13.222 4.39971
38.2346 13.8383 4.86299
67.8293 22.1853 7.72612
94.2515 33.3146 12.0588
67.3471 20.3791 6.58316
62.9995 19.9195 6.50488
53.4332 18.1485 6.26016
64.9537 22.4944 6.92303
24.6919 8.36724 3.20075
47.4292 15.5323 5.48485
53.0591 18.8901 6.77184
22.0596 8.17763 3.23694
68.0501 28.8169 11.651
49.4788 17.2482 6.50332
58.1412 17.9243 5.60775
66.7112 23.0172 7.67633
33.8745 11.1988 3.98517
39.675 16.0416 6.40644
56.7692 21.2446 8.09449
120.976 47.3952 18.6113
31.1244 11.4671 4.99263
36.4888 12.7737 4.40967
36.1175 15.1251 5.5318
69.2318 27.4887 10.4845
35.6955 14.2618 5.84192
25.6665 13.0387 6.13964
45.2249 16.1857 5.75737
74.9082 31.5958 13.539
49.8689 18.9541 7.10979
29.2387 14.8092 7.48768
37.6138 13.4468 4.66929
23.8092 12.2295 5.40462
33.9391 16.3151 8.01994
70.3096 28.1146 11.6874
45.0191 16.3058 6.65953
33.7215 12.1826 4.55347
53.3553 22.8812 10.0441
30.6452 10.0336 3.37238
28.7147 12.9242 5.54793
63.4987 27.2636 11.3959
54.8304 24.397 10.8353
61.7649 30.561 15.6529
58.0705 22.1196 8.71488
39.9663 19.0098 9.35055
25.6053 10.3899 4.22058
38.9064 15.8074 7.00204
44.8203 22.112 10.9828
45.9981 18.7893 7.02952
32.7619 18.0026 8.90685
31.8319 12.9507 5.58806
41.2741 21.1684 10.2363
30.6726 12.4835 5.12416
62.5684 31.1583 14.966
35.9374 16.2573 7.49809
17.5586 9.42962 5.12775
30.6249 12.8926 5.86812
44.3954 23.3872 11.9009
45.9442 24.0297 12.331
47.9591 24.2543 12.4946
49.3405 23.7389 11.116
36.1424 16.7881 7.35619
42.4977 20.9773 9.98295
31.7805 16.6858 8.63744
21.4419 8.91646 3.97677
24.9334 13.1002 7.25794
35.9024 17.6319 8.43802
35.8426 17.7936 8.23617
36.7976 24.5863 14.6539
30.5136 12.1416 4.71108
17.5642 10.2261 5.41198
21.3994 12.8028 7.41586
23.2358 9.68861 4.52932
24.5488 13.7152 7.99103
48.6731 27.5285 14.3485
29.0776 15.5564 8.85227
26.3081 10.89 4.41786
41.6803 22.5086 10.8039
25.0261 16.6212 9.91843
41.5071 24.429 14.2327
25.3189 14.6334 9.97293
40.3198 17.1469 7.87645
24.5388 14.4352 9.2104
39.4917 24.1722 15.2625
49.4786 20.7115 8.43286
19.3768 13.2251 9.12953
41.0932 21.6843 11.3306
27.9339 16.4292 8.72038
27.6187 18.9515 11.6547
20.7126 11.6852 6.76345
43.7941 23.7524 12.5829
25.7598 16.7294 10.6185
49.7517 27.3736 14.7241
45.9488 30.0096 19.3482
31.1014 17.4644 9.9956
21.3935 10.8743 6.31353
22.6576 13.4613 7.95643
18.749 14.9468 11.9656
35.9331 19.9479 11.9556
44.9611 23.3435 11.4085
26.592 17.9455 12.4004
32.3344 16.8633 8.71244
29.4967 21.8159 17.5427
229.204 147.019 88.2104
50.6975 25.6119 14.1211
21.4274 13.4202 8.94256
27.1545 20.1586 16.2543
26.8196 13.442 7.04897
47.0941 30.1925 17.5281
29.8071 19.7403 13.9828
31.8989 18.4812 10.9096
29.2137 16.6613 8.33219
23.7138 19.5758 15.3718
23.7925 14.7814 9.62401
33.9133 22.5366 14.8243
34.618 21.6274 13.5828
24.9353 17.7669 12.7193
17.2038 10.854 8.00186
23.8561 13.54 7.63248
25.5245 17.3591 11.958
32.1396 22.0087 15.7946
43.1015 26.7367 15.8059
15.8601 13.1916 9.86683
13.6925 8.39681 5.83193
15.3007 11.0301 8.52468
27.9352 18.9578 13.1128
45.3756 31.0962 20.9897
15.7628 8.24227 5.9135
35.887 23.2766 15.4517
32.9644 21.6418 14.3416
22.8059 17.8298 14.4248
28.1513 19.0612 12.1401
34.9543 24.1871 16.1174
19.3503 10.5126 6.4709
20.8075 15.6545 11.3326
24.0907 15.3134 9.54233
26.3153 18.7441 11.8805
16.2632 13.3896 10.7301
23.2139 15.1802 9.3526
29.3016 27.1614 21.5168
23.3945 18.0458 14.5953
17.714 16.9356 16.1311
19.6429 13.58 9.09784
20.832 18.9578 15.895
29.8997 23.446 18.5177
17.1655 12.0573 9.84261
23.1995 19.4503 17.0674
27.178 16.1603 10.1853
17.6274 11.0324 7.01509
21.1033 14.8281 10.144
29.1948 22.7531 16.9882
28.8109 23.6571 18.743
9.67781 9.35009 9.75703
17.3815 13.4777 12.2458
29.1118 20.9557 14.6548
25.9825 18.0825 12.319
18.109 16.8767 14.4776
14.9657 8.82515 5.7114
22.0137 19.7364 16.8893
27.8959 22.9666 19.9784
33.8371 24.6822 16.9239
11.0873 12.3466 13.4944
10.9492 7.99028 7.48674
24.0302 17.7676 12.597
35.8799 32.4003 27.2597
23.5006 17.1375 12.5507
8.32056 7.01293 5.75164
10.8548 12.0788 13.9025
35.7188 24.1501 16.364
25.4957 22.8556 18.4406
8.90831 9.85731 9.95534
16.0016 18.9953 23.0121
37.0985 28.8143 25.4306
39.366 23.819 14.0813
16.2384 10.6586 5.96295
23.7509 22.7904 16.9129
15.1236 15.5343 15.4114
25.7092 23.0998 20.5408
20.314 19.3335 18.5642
19.7217 14.1991 11.9103
22.5269 19.5281 16.9074
22.6157 22.0904 21.1072
19.1373 14.0039 11.18
15.7438 13.44 11.4138
17.5524 17.1932 17.57
25.3341 21.3756 18.0099
20.7235 17.6182 13.2538
18.9067 21.5069 22.008
16.5611 12.4999 9.85216
25.0747 22.484 18.152
20.4265 25.9899 28.6528
29.4274 27.1319 26.5041
22.0112 18.6407 15.6949
12.2948 12.7352 15.4377
20.6313 17.2496 14.7514
19.5036 17.0968 14.8221
9.51301 8.66651 8.70372
15.5433 14.0446 12.7686
23.8696 25.3509 26.1888
16.0322 12.7294 11.3317
12.0787 10.9037 11.0457
18.2382 16.6057 16.8494
13.8569 11.3635 10.5956
28.5044 34.3045 37.4979
29.9974 21.3565 14.3673
17.8655 21.7635 23.8973
16.8597 17.7288 20.3557
29.0712 27.7171 23.6997
18.575 17.4692 17.4619
19.1469 20.756 21.5059
20.6174 16.8233 13.2807
10.3316 10.2581 9.5788
18.3215 21.1915 19.0161
11.8213 17.3914 22.3883
19.1599 18.606 20.3881
14.1962 11.0868 11.9288
17.3552 13.7819 11.2282
18.3493 21.3349 23.7558
19.4319 13.716 9.43034
12.7397 16.9541 20.4105
22.9547 20.7293 17.7001
10.7013 8.45194 7.56951
25.984 27.7778 25.3697
12.4876 16.9646 20.8377
16.1239 23.001 33.0709
24.5557 19.8072 17.7339
10.8326 8.17315 7.80749
22.6464 24.3588 24.0178
13.9348 15.2998 17.2172
20.8605 20.8204 19.6557
9.46953 10.0491 11.3963
17.4058 16.7725 15.8207
13.9127 16.6764 18.5535
11.6708 15.9363 22.6679
18.9367 18.523 18.3985
17.0175 20.0646 25.5755
30.3065 28.8015 25.9039
11.9188 11.2603 12.4344
20.5142 23.2525 25.0016
13.0672 12.5237 12.7428
6.47059 8.87548 14.9102
19.3678 19.579 18.9806
13.0511 14.9582 15.7853
5.60883 5.90518 8.69887
23.8829 27.5462 29.09
14.7652 14.2421 14.7311
16.066 21.2601 23.6734
20.0183 23.7992 27.8003
16.4825 18.4283 21.6166
13.85 15.1938 17.5241
8.38427 8.14102 9.34955
7.80787 9.99707 15.5775
19.6829 17.2273 15.553
21.8874 28.5101 32.6728
13.118 13.9192 18.1668
15.9372 17.3079 19.0349
12.0732 13.8444 15.7668
10.9186 12.6923 16.6458
26.8206 33.6797 38.6691
18.4727 16.1435 12.985
13.8721 16.88 16.7876
17.3757 26.6579 34.005
16.4324 21.5223 25.4809
8.35581 15.4376 26.6596
7.06101 7.50315 13.0406
8.91687 7.9328 12.2515
19.9909 23.2783 23.7775
13.2742 17.6621 23.732
15.975 15.9942 17.34
7.92166 12.5164 21.2287
16.5482 16.5427 17.9445
12.4124 13.2746 15.8707
14.5623 14.6964 16.9158
26.9997 29.6951 25.5819
6.36727 9.46159 11.7115
7.09082 10.0331 11.4359
13.5174 23.1499 32.1823
12.6076 16.3631 24.972
12.016 11.0581 11.0414
6.73408 8.80127 13.5084
12.3521 16.3537 22.2431
17.0696 23.618 29.4082
9.84876 12.8524 22.1858
13.5637 11.9746 12.9215
16.5537 16.5925 13.7939
8.7222 12.2765 13.7528
10.3615 15.9976 22.3457
10.2058 14.2275 20.9188
17.9772 22.8197 25.1548
7.95213 14.3031 25.5206
18.7108 21.2771 23.1799
11.4334 15.1334 19.3277
5.68743 5.02642 6.64834
15.556 24.2995 33.5402
16.2318 16.9959 16.433
7.17749 12.2971 20.2523
12.0115 14.2737 16.3122
7.1195 9.34239 11.0409
5.16482 6.96046 9.39215
6.17667 12.9198 23.4661
14.6076 13.4033 12.7326
12.7617 19.3079 25.3419
9.5431 15.5003 25.0193
14.3753 15.1552 15.5511
8.53424 13.3313 17.3036
6.8266 12.7259 20.6789
13.4733 21.6293 32.8227
10.6003 14.5179 22.3504
10.1676 12.3989 17.7905
7.52542 7.37749 10.9042
12.3968 15.5069 20.486
9.9586 14.1925 19.2661
5.49874 6.18201 11.9222
17.7579 24.6861 26.6834
10.131 15.6542 23.0243
9.70345 11.9718 13.866
7.63314 14.7321 22.3852
6.01643 7.94108 13.2756
10.881 22.4415 40.208
11.0593 8.75257 11.7906
15.5845 18.9252 20.3411
8.51359 12.1462 19.4174
12.0723 14.205 13.0449
8.86175 17.9789 26.6706
8.74127 14.0631 20.1367
11.7581 24.7765 43.2877
19.9355 29.1848 44.5287
11.9347 11.3915 12.9035
10.0848 14.5325 20.2488
13.8883 22.1271 29.5433
10.452 22.0919 42.0975
14.5068 17.5785 26.7389
6.97241 6.37964 11.7758
11.2247 11.7588 14.7351
8.63203 12.3565 21.6848
16.8632 23.816 29.1877
12.7236 16.6254 20.8799
9.37071 15.6739 22.5597
4.96215 6.51714 10.2997
10.4164 20.0947 31.6725
7.92653 11.7458 21.6507
10.593 16.4227 28.0642
8.13015 8.69926 11.7833
8.17927 10.0776 11.6372
7.23239 13.9303 20.2774
9.62234 17.2739 28.5826
14.2746 23.9657 36.8534
7.49352 15.0833 33.0647
9.76399 8.89883 18.3583
20.3127 27.8572 34.6438
10.3344 16.0161 24.5536
6.93992 7.80636 13.0876
10.2268 14.1935 22.2406
12.7206 16.8297 19.7929
12.0133 18.4378 21.8792
13.789 27.804 41.3387
5.64474 11.2557 28.1508
18.0202 27.1127 39.3203
8.19099 10.7097 11.9468
6.33742 17.1073 36.9122
10.0938 11.5012 17.0402
5.86857 12.3771 23.869
5.77118 9.85882 24.8401
16.8721 21.8225 24.3147
7.93617 15.0979 26.1165
5.38704 6.38818 12.7452
7.11121 10.7933 14.5801
5.24418 8.10565 11.9978
6.44592 8.89339 14.3573
11.7375 21.6021 31.936
8.66121 16.9048 31.084
8.89951 13.6338 20.5377
9.21122 20.8489 43.7802
14.6547 19.1081 25.7515
9.72031 19.0942 38.3597
14.0083 20.5102 33.7201
9.31845 10.7057 12.3439
6.97588 10.5733 13.6968
6.38259 9.83703 12.8063
8.80281 23.9511 49.0437
11.8428 12.5135 13.2414
6.98082 14.3862 21.9058
4.55072 11.5987 27.7611
9.16915 16.0979 36.79
12.7668 13.1797 10.6279
6.76292 12.9946 18.8086
4.42813 8.98779 18.2246
6.76873 11.1458 15.2297
6.17053 13.912 26.1095
4.69284 7.14474 11.723
3.70667 10.6319 28.3368
14.8049 28.7736 54.155
10.1359 9.07555 12.163
6.81044 12.9335 25.1738
9.34728 13.4019 18.7045
8.22678 16.0791 28.1403
8.21572 11.6019 17.4785
5.47042 8.59692 14.6624
7.90549 14.5519 25.4215
9.45238 18.1757 35.3717
10.4611 14.0563 17.2325
8.65264 20.9477 34.0972
3.85477 11.5625 35.2204
11.2471 17.9143 38.2578
10.8289 11.1265 13.463
13.4914 26.0538 38.7458
5.09436 8.31366 16.9817
5.57543 9.43786 15.1249
9.573 20.0624 35.4272
8.02512 15.281 25.241
4.4486 5.99138 9.29433
4.59081 12.2687 25.7375
6.52748 10.8804 21.6891
7.6073 12.9559 22.4242
5.11393 7.48624 13.6788
7.08126 12.7627 20.9652
4.65939 9.24104 19.0147
9.48676 17.22 25.7303
7.55204 12.9029 14.9997
2.32568 9.28342 22.9016
7.0471 12.6841 22.4203
4.80129 10.5272 21.9198
4.47396 10.0654 25.4003
7.09443 12.8456 25.0653
6.61965 10.4243 18.3812
3.28731 3.92663 9.92004
6.73109 13.2813 24.5756
6.36147 11.4643 22.1142
4.28829 5.6079 9.05045
3.22101 5.68388 14.9803
8.30445 16.7277 29.0974
7.61859 12.4927 21.2671
8.18119 16.1287 22.7176
8.02518 28.4814 74.392
15.9922 20.8834 26.0955
4.69291 8.22878 15.9288
5.83835 15.493 28.713
3.46392 6.32151 16.6753
4.46967 10.0394 24.9681
8.01305 14.0516 25.8639
5.59978 9.55311 17.7559
7.57955 15.6955 27.7055
3.66372 9.83055 29.6298
8.7015 13.7468 25.8912
7.90399 15.1552 27.981
8.33782 17.8507 39.6935
7.4819 9.63974 12.5176
2.85404 5.68462 11.3116
3.26537 6.95997 14.0163
3.01723 7.21564 20.844
6.38123 10.4153 23.0977
7.45978 12.2243 23.4285
8.28493 16.4067 25.5028
5.52843 11.0673 25.3177
8.29724 16.6695 25.4033
4.10166 12.4018 37.4363
12.02 19.3942 27.9603
4.19808 9.5995 25.0646
5.57508 9.8903 20.6798
7.8106 14.8913 22.2484
2.92202 8.01728 24.7796
7.83444 14.5735 25.0546
4.83483 10.3317 26.0876
6.75989 9.54202 16.9719
5.31309 9.96021 18.5975
4.49075 9.90421 25.8522
9.85766 20.6053 37.2154
5.84181 9.67848 19.7623
4.93893 8.85796 14.2649
3.37497 9.90556 26.3825
6.4602 9.39084 13.7324
8.01261 21.6039 37.7769
8.83221 42.8222 151.087
37.6926 53.2208 65.3997
9.60542 17.791 26.4353
3.19175 10.3874 28.5816
4.58731 8.24871 20.9258
3.61726 7.22281 20.0305
5.65553 10.3755 24.8231
5.93269 10.7239 20.6801
6.54769 17.8349 47.9075
7.57913 7.57391 14.7922
9.90118 21.403 32.907
4.27217 10.1585 23.5541
7.17173 18.7285 42.1627
7.26893 10.3885 24.4352
10.7135 20.5241 24.7678
4.69513 18.3393 48.9537
7.44053 11.8607 17.48
4.17987 13.2143 33.0239
5.5163 10.5093 23.7935
4.35543 8.55033 18.1891
4.21006 10.7795 21.0842
4.74286 13.7641 33.8784
6.62859 13.1364 27.3803
2.74528 3.62898 12.4358
4.55202 10.1853 29.8463
9.0854 13.4796 15.3166
4.23985 11.7307 21.2399
3.42677 15.6214 47.982
7.22971 13.0923 30.9471
6.11868 12.0348 33.2003
8.95524 18.8433 40.741
10.7234 23.5911 43.0428
4.13487 8.91761 20.1506
2.10774 6.57495 33.6417
9.42188 14.4642 23.0523
5.93275 13.2258 25.2836
6.01247 14.324 32.9048
5.68707 11.8033 24.3105
2.9145 6.04437 22.5157
7.4412 15.7442 31.0679
5.04033 9.54057 24.7258
6.26205 11.2005 19.0535
2.84458 6.36505 19.288
5.37219 11.6114 27.1148
6.73306 13.759 23.6747
5.51343 12.5398 27.0152
4.21452 9.82906 24.4916
3.865 9.20007 28.9184
6.63387 10.5114 24.6159
8.49191 17.1461 29.4498
4.8601 11.0965 29.3542
9.33302 21.1459 39.5962
4.83493 9.13025 20.7595
4.6178 11.0702 22.5409
4.1907 10.2479 24.924
5.88419 14.7101 35.2414
5.28073 9.55062 19.7236
7.09591 17.8797 35.0953
9.35902 31.0491 75.9928
7.56342 9.94001 18.141
5.73075 16.1632 34.4641
3.3066 9.14217 26.3878
3.83317 8.64836 22.4726
4.19504 8.65816 16.8743
5.31002 18.6562 45.2284
5.72975 13.831 37.7999
5.07022 8.94599 21.0647
3.72144 7.59995 17.8411
3.42921 8.26244 26.7134
5.80714 12.2901 23.3098
2.82393 8.25926 33.8664
9.02047 16.0242 21.108
4.04431 12.2128 19.6571
2.32322 8.56938 22.3415
2.44239 5.58727 15.6025
3.65502 11.6773 35.7206
6.40649 12.402 24.2876
3.52506 7.74732 19.1444
3.41587 7.27895 16.855
3.3243 8.19083 17.9157
2.37494 5.0169 13.2588
3.75025 13.1262 34.1625
3.70913 6.36042 19.1885
4.21726 7.56649 16.0129
5.4089 15.3711 29.3438
