# pn-170911/RbIIR-44-TWTF-1280-1959.psd
# Power spectrum* (dif=0,1,2) (really just |FT|^2)
# NOTE: only the first half! (symmetric)
# weeks: 1280-1959
# 10 clock-days, 0 excluded
# PSD: 1441
938.198 0.0928767 0.0205916
115658 3.86541 0.00558281
122536 2.17436 0.00594747
53980.6 1.46226 0.00582177
56265.3 2.03193 0.0059956
27669.9 1.04103 0.00593397
12088.2 0.56504 0.00544916
9084.42 0.574417 0.00539903
8010.86 0.736801 0.00603825
6492.31 0.925624 0.00696529
7574.64 1.14683 0.00716366
4321.29 1.23997 0.00757843
2464.09 0.350683 0.00524444
3478.34 0.706915 0.00581876
1977.07 0.824888 0.00478217
2431.69 0.735438 0.00808797
2271.84 1.15313 0.00782793
1690.13 0.988222 0.00563212
1476.16 1.19499 0.00839347
1449.55 0.89098 0.00775309
1562.72 1.36528 0.0067805
1249.22 0.577348 0.00607004
1313.04 1.35015 0.0100867
1202.74 1.44183 0.00722147
934.674 0.641833 0.00762345
1061.11 1.18568 0.0125279
618.249 1.20434 0.00910342
911.455 1.40466 0.00917318
866.73 2.24365 0.0132088
869.25 2.13069 0.0114864
764.731 1.42676 0.00968726
555.215 1.89088 0.0187089
429.099 1.73055 0.016943
825.77 3.65589 0.0237127
850.435 2.99451 0.0217636
361.814 1.41429 0.0175003
446.098 2.04127 0.0183888
460.018 2.44986 0.026336
426.597 1.73801 0.0195432
660.979 2.79321 0.0203574
469.55 3.09546 0.0281033
412.157 2.88619 0.0328967
445.138 2.0758 0.031185
355.615 2.96018 0.0318939
1226.89 7.07688 0.0737184
238.646 1.85465 0.0254435
386.425 2.82918 0.0363676
308.074 3.22035 0.0353372
868.027 7.03266 0.0906865
619.65 4.70101 0.0626111
566.133 5.99285 0.0845725
456.355 3.26324 0.0490442
681.579 5.04104 0.0753236
423.094 4.88142 0.0843051
682.3 7.84766 0.119585
659.377 6.04247 0.101066
374.139 4.49995 0.0772065
352.113 2.97956 0.0485892
316.44 3.54349 0.0710691
346.587 6.52506 0.107251
419.605 5.22465 0.0860276
308.539 3.36185 0.0631648
467.143 6.52651 0.143885
435.402 5.76384 0.123958
248.516 2.74441 0.0443481
408.368 4.90351 0.0977412
336.746 4.78097 0.121228
559.56 7.48571 0.146408
425.371 9.73559 0.209272
364.123 5.49655 0.123652
198.267 4.4694 0.10605
347.201 8.37191 0.22759
436.788 10.8673 0.262771
260.487 6.82256 0.185046
354.081 7.29292 0.19414
443.969 9.1636 0.282981
481.261 10.8423 0.343025
507.782 10.0082 0.293336
322.942 7.78101 0.209086
305.411 7.66319 0.243463
250.505 5.53109 0.183915
237.281 10.0695 0.329075
328.193 7.27528 0.226023
228.803 4.66113 0.158083
337.813 7.13995 0.264777
436.35 11.3168 0.354851
279.603 8.82329 0.327221
226.542 7.99698 0.277404
363.21 10.4241 0.364944
327.49 8.88881 0.324969
336.883 9.90759 0.37317
282.592 7.06734 0.29005
243.693 11.6288 0.45423
191.916 5.27613 0.242549
301.127 8.68228 0.363298
206.444 8.24979 0.388733
363.175 10.1457 0.477037
277.886 10.2309 0.496055
230.579 11.4337 0.468312
136.303 6.03684 0.293361
436.041 17.5284 0.824932
111.191 4.08809 0.200935
228.403 10.8549 0.556605
197.115 7.18213 0.37264
297.495 12.3969 0.633537
203.177 9.79985 0.505181
149.513 8.04152 0.3744
171.409 6.26582 0.325151
163.504 7.98645 0.399719
217.366 10.694 0.575071
186.231 11.6439 0.666755
199.52 10.472 0.623987
363.07 19.3486 1.15974
312.662 15.547 0.883898
295.317 16.2072 1.05422
112.489 8.39639 0.574855
168.037 7.47026 0.482753
153.25 9.00488 0.588178
316.084 15.0176 1.01757
180.926 13.6947 0.953601
228.762 13.0641 0.991864
268.837 13.3683 0.959038
160.377 9.70863 0.647686
140.4 6.25695 0.471957
245.118 15.5276 1.14881
117.82 10.4077 0.884714
133.851 7.80274 0.626903
240.763 14.1246 1.05696
171.766 13.9112 0.959017
131.127 8.49229 0.703766
99.0748 9.23077 0.763516
175.425 13.9961 1.14825
146.439 12.7975 1.09757
169.275 15.5799 1.40627
99.282 6.08675 0.545666
194.262 14.6691 1.15755
211.073 18.8069 1.69257
116.438 12.163 1.20357
139.975 10.8974 0.966014
344.431 29.0786 2.49933
153.252 9.07099 0.791973
204.989 14.9861 1.42552
135.819 9.70999 0.948945
120.213 11.2156 1.06349
137.277 13.8297 1.36788
215.907 14.8243 1.39689
135.088 11.8408 1.13373
166.317 12.1174 1.31374
129.25 12.6266 1.29782
140.702 10.8415 1.06666
161.93 19.3469 2.11934
147.642 14.1521 1.52634
170.097 18.1851 1.99052
123.713 11.6228 1.20099
145.99 13.7914 1.57362
117.205 17.2319 1.97778
101.591 9.49453 1.0035
107.562 12.8383 1.41777
84.6645 10.3323 1.23936
132.59 12.8233 1.51853
89.2578 10.7336 1.29402
128.332 14.5154 1.76775
87.4623 9.00533 1.08378
158.952 16.705 2.09377
98.7895 10.7594 1.47556
136.582 14.246 1.77864
91.7235 10.5549 1.4675
235.058 24.9248 3.22077
91.8904 8.97494 1.21596
68.7736 8.50646 1.17716
92.9227 11.5342 1.6448
73.9569 7.75589 1.06131
105.774 13.4442 1.94118
138.487 13.9884 2.03585
88.8902 10.6576 1.48969
132.754 16.6301 2.31105
143.766 18.9008 2.66015
84.9666 15.4461 2.50697
114.612 15.5361 2.44241
128.549 18.0564 2.60718
137.87 18.3972 2.88335
79.5206 12.3826 2.04067
96.0307 13.1651 1.98284
97.4985 14.8421 2.31814
178.683 28.2902 4.59398
156.818 24.5664 4.14058
135.894 15.4078 2.16167
61.6673 6.9004 1.01393
89.1471 10.0415 1.59479
99.6841 13.4952 2.3734
92.6195 11.676 1.96578
125.167 22.2382 4.13248
220.531 32.5092 5.44433
112.589 20.3955 3.7813
112.696 13.8009 2.36279
94.7826 19.3509 3.53365
130.049 22.0206 3.80907
88.9933 11.9179 2.06916
95.792 13.9509 2.86838
156.163 25.2444 4.56888
163.197 28.9977 5.72947
70.1871 17.7639 3.66933
162.654 30.0746 5.09009
70.1542 13.0651 2.5721
51.6167 8.84044 1.74491
68.2669 14.9147 3.06582
75.5204 15.0599 3.13961
48.6001 9.61962 2.18932
111.721 20.7462 4.19179
86.3757 16.1836 3.31786
88.254 17.3693 3.49196
50.9696 10.2764 1.99408
83.8003 13.4947 2.93555
78.5209 13.6696 3.24875
91.8429 18.3157 3.76484
56.0085 12.908 2.96614
57.5349 9.6558 1.85283
99.2897 16.9321 3.47335
81.6131 16.6755 3.39442
82.2989 17.4295 3.97216
85.6522 19.9999 4.89716
96.1261 20.704 4.51985
77.1197 19.6697 4.49955
50.1624 10.6991 2.48498
32.0665 10.1412 2.56745
54.683 13.159 3.20521
70.5361 15.3534 3.5011
57.6617 13.2498 2.84607
38.6638 8.93899 2.26387
93.1214 22.9969 5.2689
94.7597 19.5906 4.55197
67.0925 13.1276 3.22867
78.2578 20.3996 5.39524
96.6257 23.9389 6.56721
68.5498 13.0869 2.94221
54.5189 10.4776 2.7624
35.0413 8.46552 2.05943
44.4856 13.3795 3.64758
53.7227 13.1652 3.28058
64.2674 17.3147 4.30959
47.6453 16.4466 4.4755
40.5438 8.00136 2.10864
52.5678 12.528 3.5422
31.5384 8.17452 2.30093
43.9814 11.3107 3.20915
60.7943 15.4719 4.07689
46.3734 11.1876 2.80508
47.4668 12.0446 3.4916
47.3001 13.3905 4.49312
89.7497 22.4573 6.17844
44.5804 11.1723 3.88033
61.6303 18.2495 5.17091
63.3958 19.3565 5.59005
58.7156 16.8287 4.76345
84.8062 23.7609 6.54961
77.0196 25.802 7.99048
56.6715 18.5429 6.15046
102.461 26.6398 7.80827
61.3725 13.4045 4.08975
95.4438 28.2344 9.01316
101.828 23.3538 7.07741
54.6377 13.9126 4.12358
53.9655 17.9429 5.36349
41.5485 16.0979 5.93676
83.8763 21.4389 6.95118
55.2395 15.9637 5.25142
54.6993 13.0702 4.55343
59.5599 14.8804 4.35023
74.4984 23.6983 7.70793
65.2897 16.6423 5.38516
71.3943 22.3989 8.09161
47.2339 14.6824 5.20792
72.2285 18.7983 5.87732
68.6537 24.3298 8.6256
38.1348 9.237 2.66999
49.0164 16.1085 5.58243
41.1036 12.5311 4.78072
86.3027 24.3695 8.80229
53.5559 20.1523 7.48566
58.8175 18.3894 6.36642
49.3472 19.6407 7.15844
59.3297 21.6009 8.53345
41.1163 12.3758 4.33582
31.6994 9.53029 3.185
45.0589 14.0712 4.8405
31.1644 10.339 4.186
39.1945 13.8241 5.12992
41.0206 13.0985 5.53188
129.595 48.873 18.3761
32.2999 8.65731 4.28476
48.3966 20.3238 6.96958
48.6811 14.6343 5.68655
20.1312 7.57304 3.10822
78.5613 23.0939 8.65284
63.0313 23.4574 10.0533
70.6701 27.3037 10.1614
35.1773 9.4667 3.94278
53.3463 21.9975 9.59635
38.9842 12.094 4.93973
57.9088 18.1856 7.54123
33.263 12.6437 4.27014
46.1815 24.0919 10.8684
70.8069 32.655 14.4969
50.4038 15.1075 5.61694
26.4074 8.17529 2.80074
21.2712 7.46268 3.15015
33.9253 13.9724 6.40739
35.3546 13.1781 6.0721
28.6764 7.03008 2.44874
50.2013 18.6834 8.16464
29.9161 13.4854 6.18977
48.6429 14.8217 6.8026
40.928 15.7744 7.39076
39.6194 16.3336 7.5387
61.8774 23.4791 8.58869
30.1562 14.044 7.3227
48.756 16.5526 6.83657
32.1364 11.6597 5.22267
29.0916 16.6069 7.8706
43.8316 19.2049 8.61091
46.0876 18.225 9.12237
23.8567 11.3611 6.10955
26.1657 12.9223 5.88232
47.0506 23.2438 12.7167
54.1324 20.1373 8.52503
63.0534 27.4713 13.3129
26.8499 13.4984 6.88307
43.0225 17.0926 7.50803
57.4344 24.4319 10.529
57.0588 28.8362 14.7518
22.6821 13.4056 8.16248
43.0214 19.2371 8.67308
33.8015 19.7395 9.44846
33.9218 14.1114 7.08598
50.2527 27.1268 15.3203
61.608 24.7976 12.2574
48.2333 27.4163 13.8695
34.0281 17.2497 10.7663
42.6829 12.2 5.69221
41.9883 19.7395 10.1944
34.2021 16.4931 9.28778
24.2102 10.3938 5.44912
26.1724 13.8784 8.37744
30.0122 13.2467 6.38411
20.423 11.0185 6.114
36.9947 16.9632 8.94524
43.9727 22.0967 11.51
27.8272 12.098 5.87812
30.7368 14.8488 7.66377
34.4758 15.6163 9.16316
30.7983 16.0964 10.3806
31.235 19.306 10.2324
38.6399 25.1588 14.654
30.206 11.8047 5.54673
34.8892 24.4502 14.6457
38.2366 14.4628 5.94251
28.5397 20.0667 11.733
27.2234 15.4871 9.48406
29.9672 16.4683 9.44115
17.3873 6.77421 3.93369
41.5932 18.3467 10.0303
23.6648 14.5554 9.37949
25.7478 17.8001 11.6028
49.2086 21.9608 12.2575
19.8906 7.71887 4.32591
34.3377 17.3219 9.50371
24.9896 13.3895 8.39907
33.2578 16.2269 9.46984
47.8483 30.0653 19.0531
30.0589 11.4791 6.2697
31.5275 17.7895 11.7824
30.03 18.9111 13.3139
22.1545 8.7485 5.24311
28.4837 16.7262 10.7629
26.554 14.828 10.2634
33.0879 18.8632 11.6149
51.9502 28.846 15.8056
22.2638 15.3667 11.2652
18.8186 9.64518 4.85696
17.3098 16.0302 10.6871
33.8647 22.8473 15.9766
39.7527 22.4101 13.8032
43.0627 32.9782 24.2
36.6967 20.296 12.6352
41.7683 25.7122 15.6816
19.536 15.7714 11.6213
35.8856 17.6985 11.3629
31.1683 14.3039 9.53492
37.0276 23.0157 15.1613
27.3975 18.4089 12.0316
41.6156 24.4405 15.9363
29.7343 26.3426 20.9791
37.8352 21.0805 13.8441
31.6659 16.9874 10.5923
19.8171 13.3205 9.12652
17.7681 15.0101 11.143
27.399 17.3132 11.8526
13.1941 8.04101 5.71402
14.1613 10.1415 7.52936
19.4066 13.1788 9.97041
24.7239 16.0829 11.3663
20.8242 13.4604 11.0824
35.7117 26.0218 17.0575
17.475 9.3568 7.21908
33.0316 22.5829 16.683
37.3977 22.3613 15.1934
16.3311 11.5414 8.79652
18.6699 12.5465 8.44653
34.2226 27.1261 18.855
16.98 14.5785 13.2668
33.9915 23.2772 17.8179
28.143 15.1522 10.7006
27.2658 16.5021 13.8605
33.8917 20.6084 14.8036
50.2189 32.0526 21.1012
29.0575 20.2805 16.6588
25.0582 18.0021 13.0137
31.8322 24.832 19.8323
14.0361 14.5578 14.0574
28.1098 17.043 11.6798
34.1394 23.5217 16.0579
22.6199 18.1463 14.3285
19.2746 20.6446 21.3865
30.2694 13.4887 8.21951
20.7383 12.067 8.73389
33.2063 28.2917 24.5987
15.7463 14.6028 11.8609
19.7779 16.0401 13.7497
28.8959 18.4572 15.166
32.2327 22.6758 17.4706
22.7467 17.3286 12.8589
27.937 16.1581 11.6707
19.9272 17.9219 14.4709
21.7587 17.3175 13.572
13.3584 8.78498 7.85425
18.5816 12.6031 10.3363
10.0827 10.4126 9.80713
24.3065 20.9824 17.0368
10.7821 10.123 10.5557
11.6702 9.28845 10.2669
34.1583 24.8472 16.9102
20.8017 16.3435 11.6661
32.2164 29.3568 25.6098
14.6386 10.7024 8.96845
12.7227 9.86074 10.3983
25.0446 15.9986 11.4464
20.0128 13.761 12.288
21.6395 21.4506 21.8434
19.6247 14.9426 11.2547
12.6802 13.3462 13.2084
17.1228 15.4863 17.4185
19.7051 12.6364 9.13496
15.6818 14.9737 12.7344
13.0627 13.861 14.4243
22.8056 22.5073 24.8786
37.3426 23.0842 19.225
34.6047 26.0169 20.7472
20.7133 13.2144 12.276
25.2497 24.0002 22.4156
26.851 22.8519 22.5028
20.0093 16.102 15.7617
23.4922 16.188 12.656
18.4764 15.9902 14.2905
21.1666 19.8487 19.8562
17.5908 15.7848 14.3343
27.5656 22.1155 16.4954
13.709 16.8927 17.2307
15.4252 13.9531 15.1276
23.7903 21.1454 21.7833
24.7158 18.8918 17.1825
22.6878 16.1827 11.3265
13.3306 16.8379 18.044
22.4185 31.8028 33.341
31.9095 23.4919 22.2385
18.168 15.6172 15.9747
31.4784 30.1757 27.6191
9.85238 10.1196 15.4447
30.0122 21.5036 17.3675
24.4216 18.1699 17.6896
13.1235 15.8834 19.3449
53.2827 40.9232 36.7155
15.5966 12.7605 13.3376
13.8245 12.5935 12.7369
12.1839 10.9511 11.9578
18.209 19.8762 19.1351
22.3286 20.8156 21.2142
18.4658 14.7119 14.1302
21.225 17.423 19.2892
29.8865 24.9185 21.7065
20.6158 22.2851 23.9328
18.4943 18.6526 18.1339
23.1771 23.1304 24.2132
16.7956 15.0965 17.8571
26.6621 24.5666 24.9794
11.0196 10.8929 15.945
22.7392 20.5045 21.9641
14.7859 15.2423 20.537
21.6485 20.3272 21.6189
18.6964 13.7977 16.3974
27.0833 28.2064 29.0291
22.654 21.2468 17.3336
11.4535 13.0242 15.0562
13.8775 12.4352 11.6625
15.0576 19.9848 23.3944
18.8873 12.8784 12.6458
15.3934 15.761 18.8893
21.9255 21.3197 21.4436
16.6603 14.5068 15.11
11.3109 9.98621 11.5324
17.7589 21.4344 23.7448
17.4952 18.9423 16.7203
13.1738 14.9552 16.9968
24.0679 37.5578 46.3375
16.4982 12.4032 14.2862
19.3754 16.7302 17.1767
20.5045 26.8027 34.6157
26.3637 22.4325 26.2637
25.4653 27.1816 29.3497
16.5521 16.6617 20.0489
29.0934 27.2991 29.9388
10.4866 10.7608 15.3364
14.0856 16.7913 20.2288
22.6662 16.4681 14.6506
16.2742 16.9061 18.7242
18.0289 16.5331 19.8396
15.1686 14.314 12.4185
16.4715 26.0598 38.1515
15.497 10.8965 10.3489
10.4063 12.0919 13.4532
15.2676 13.7125 15.4362
7.96538 9.3741 10.7274
10.4235 15.4014 18.9007
14.2759 12.9614 17.0787
14.4271 13.8693 17.538
13.9541 16.4009 17.4241
8.90082 12.9021 19.9275
10.0541 16.0553 25.7016
16.1229 13.6261 16.9663
15.1753 17.432 18.9575
9.65286 8.9236 11.6645
13.389 15.4229 18.0994
14.1108 14.6987 14.2826
11.705 14.9626 18.7168
9.43247 9.89465 12.1362
14.6446 19.1967 24.6729
20.8493 23.0941 29.0922
15.4002 15.7476 20.3953
18.7142 23.196 30.232
14.5057 14.4692 14.8708
12.3702 15.1368 17.957
4.824 8.25171 15.8763
14.602 12.7622 12.9857
12.0983 18.3662 27.4382
18.3964 19.9736 22.1788
13.1068 19.0183 23.326
14.4182 18.8979 24.7063
7.14153 7.33088 10.2034
9.74216 10.2523 14.6154
16.9999 19.6832 27.3087
18.1495 15.893 14.584
6.88415 13.961 22.7451
9.77444 9.70792 13.1603
7.8062 7.48553 11.0607
15.9525 17.4869 23.7458
11.7393 16.9492 21.9742
14.2909 17.8526 22.6546
22.8676 29.2445 35.4967
6.36911 7.02855 14.0156
21.7172 27.6152 41.4441
21.197 27.8124 31.3958
10.234 17.6904 31.085
18.1059 18.3443 20.8975
11.9774 16.6739 27.9811
14.2524 14.3726 16.7084
9.94582 9.17735 13.3892
20.8282 30.3637 41.8477
27.5324 33.1941 37.203
12.5341 14.9997 23.6331
15.7916 18.709 24.4143
12.0707 15.08 20.8567
12.1171 15.1764 23.275
17.1203 18.7661 21.1215
11.9497 12.7353 13.1155
11.2772 19.1195 31.8033
17.8694 21.0477 30.632
8.75366 14.3498 28.0086
13.343 20.3597 24.4862
8.04343 9.54114 13.1894
9.87246 13.9332 21.6053
7.34172 9.52635 11.7488
12.4315 22.5335 35.6771
15.0336 15.8819 22.8107
8.41942 10.0712 17.5445
12.5992 13.2246 16.3423
16.3569 24.2336 33.312
6.29825 14.1092 35.3495
18.4072 20.6908 21.1695
6.35349 5.69268 11.1549
8.3931 12.1547 15.5822
12.85 20.4932 31.1344
12.411 20.0375 22.0682
3.61905 5.2588 10.8543
10.0546 22.4923 34.3542
12.6186 11.439 16.1437
7.87379 9.0556 17.6007
11.7866 13.7395 17.7922
12.635 18.7544 32.2978
9.92794 11.618 20.4878
15.751 19.1854 24.1157
10.2482 16.345 27.9009
9.01446 13.6117 31.2321
28.8133 33.0936 37.5696
7.08355 6.88207 12.002
6.45322 10.0549 17.3454
11.794 17.7873 32.9586
20.7714 22.7197 21.4247
9.84211 14.2917 19.3424
8.98817 12.9158 20.2988
12.9642 18.8459 25.4691
8.83049 13.7027 24.503
5.64825 14.7221 32.9675
16.0112 19.7626 24.4435
10.9087 13.2665 20.1784
10.1955 13.3152 22.8344
7.78992 12.7167 21.4609
8.47116 11.1932 17.3635
8.60322 10.6901 15.2885
9.36781 13.6611 19.9134
12.9359 18.4187 30.6548
12.8532 26.6935 50.6023
21.3994 24.76 30.892
8.072 9.68506 16.162
15.2725 22.0314 34.208
15.2265 20.5626 28.6823
10.2997 17.2262 33.4771
14.7466 19.7067 24.8739
7.89697 13.7097 26.1921
10.0925 15.8233 28.2239
10.6049 18.5634 33.5608
11.9241 16.3515 24.8658
10.3107 10.9873 17.0273
8.53306 14.2678 23.2668
9.22745 16.0402 26.1259
9.45734 12.3659 16.3174
6.19748 11.4972 26.1889
7.62675 8.13817 13.9023
6.24065 10.1558 16.1795
9.89747 13.3484 26.369
13.592 18.4617 27.3831
5.31121 8.94876 20.516
9.0897 12.1676 18.9855
9.26032 13.3156 17.8998
9.00989 13.995 27.25
7.24521 9.74922 12.6347
7.90932 10.7519 16.9271
6.42315 11.9131 25.8841
11.396 12.4421 18.7111
17.1946 31.6052 54.58
5.51404 10.5077 20.8965
11.536 17.7277 36.8187
10.0423 14.5463 14.6861
7.10422 15.3552 28.6623
5.57949 7.64095 15.0513
9.85023 19.3225 41.1922
14.4495 13.6255 8.72715
9.67029 21.5387 39.6811
8.78301 13.1139 21.441
4.93503 10.8733 21.6177
8.64983 14.3659 28.0385
7.31652 10.3794 21.3516
12.6467 19.9301 36.9886
7.2256 20.9554 67.8636
31.4514 46.5974 41.5034
11.4376 28.6753 59.413
10.8186 11.0296 14.8928
5.20207 10.0574 25.8713
13.3618 16.2715 21.9512
7.5047 13.2132 17.983
4.04737 8.28278 16.8243
7.29146 16.3165 28.3857
5.31594 12.708 28.2062
7.47403 9.91501 20.7543
11.9967 21.6865 36.6819
7.03658 15.5097 28.8814
6.60412 10.6898 26.102
7.94667 11.4745 23.421
11.6282 14.9205 19.7371
4.7131 11.6344 28.3917
7.36805 8.60104 15.839
8.38791 22.143 41.3499
13.6848 18.0723 28.527
4.48594 11.91 25.9887
8.91272 17.1191 29.6391
6.81975 13.5302 26.2999
5.4255 9.02765 25.233
12.5019 16.1122 28.9394
10.2994 22.3997 46.0965
11.2658 16.9823 31.4122
10.8805 11.9832 21.2338
9.4738 13.717 21.7185
6.78809 18.8662 43.6395
14.303 19.2164 28.5357
5.64787 12.708 34.151
12.6076 19.3912 31.2248
10.3921 13.774 17.6128
4.43477 8.87985 24.3087
5.67641 8.29721 15.2684
7.08549 13.0296 21.8839
7.94821 13.7142 21.8138
6.53668 15.2664 30.0875
5.70335 10.6497 24.4822
5.04016 9.25574 24.4718
12.5747 21.2222 43.9074
7.44885 15.0746 29.8531
7.64891 13.8029 31.608
10.7865 16.2505 25.9906
5.98932 6.27434 9.66074
8.00878 16.8621 35.967
5.98962 11.5217 19.5157
5.71269 10.7037 18.3207
5.61193 12.45 28.9409
5.29748 9.29328 17.1819
7.16533 13.3293 28.3794
10.2785 19.7371 42.6502
9.89385 16.6233 26.6339
5.89811 8.74462 18.8481
8.33965 13.2142 17.4646
2.70105 8.83449 26.0866
7.12856 8.39186 13.8744
7.9982 14.7049 30.5685
7.15774 13.2565 26.7338
7.839 10.2882 12.8892
4.88356 11.6102 29.1962
10.7359 18.8249 33.1656
6.80842 16.0921 28.8547
4.20142 9.76153 31.7886
8.23283 16.0507 39.4941
12.557 18.7586 28.6368
5.42532 8.311 23.1992
6.20964 12.8088 29.0037
5.5112 8.35245 14.988
6.38222 12.7621 26.8222
6.64051 13.3613 31.5144
5.00864 9.23471 17.6105
6.11317 9.05364 15.1108
3.73652 10.4943 27.7653
5.47009 13.7569 28.3353
4.76767 8.82985 22.986
6.99386 14.2245 26.2031
4.56474 9.6321 25.1696
5.70085 12.5566 28.9183
6.27396 11.9129 35.2708
11.9736 18.3305 27.2725
5.41153 11.5275 26.6124
8.61202 16.995 29.6425
4.36439 11.6934 33.5816
6.18106 13.804 29.3437
8.29964 11.4974 24.9547
6.82661 11.068 26.4572
7.37834 8.75329 16.4125
8.09737 16.158 28.2232
5.51454 14.9722 45.7167
8.8373 13.5501 30.8134
10.706 18.9108 34.9543
8.94791 13.5594 17.9041
4.9318 13.8392 31.3193
5.67053 13.0134 30.3712
7.34455 20.9808 63.8269
16.0644 26.7266 38.7949
5.69062 13.6479 38.7513
7.49089 12.7819 29.1458
7.91929 11.3428 25.1
5.2306 8.14701 24.2007
7.09802 12.5043 35.1007
10.335 20.9124 43.4088
6.78953 9.57958 16.9402
4.51364 11.2303 26.3062
5.48432 9.71672 18.3212
7.38411 16.0104 28.7338
4.50076 14.3606 33.6636
7.49245 16.9118 38.9283
6.9057 14.2794 28.8181
4.51639 8.74164 22.5988
6.17786 17.4956 36.5287
4.99258 13.9933 48.5241
9.0934 9.44787 14.5691
7.27552 11.648 27.0185
7.68512 16.1225 42.3464
7.88344 14.3392 22.5397
4.70489 12.1907 28.3267
8.21185 13.0998 30.9212
8.01131 16.887 34.2455
6.02461 12.1395 31.4509
6.60455 12.2435 25.0662
3.62401 6.67729 21.8497
5.8121 14.1386 31.8312
4.66447 7.21741 18.8755
6.30196 14.8459 30.2155
8.8569 19.4631 34.8754
3.26384 12.1283 36.1067
5.79977 14.1068 38.5211
6.82639 10.8098 26.3364
6.48737 11.5156 28.2556
7.4622 13.7583 29.0869
5.5954 8.62052 17.0469
4.96709 13.2083 43.7566
10.2274 16.3979 24.8109
5.1486 12.9318 35.1016
5.836 8.66144 20.9674
5.69605 9.43853 16.0217
4.93078 11.1835 26.5038
4.24612 13.7002 35.0552
7.82371 13.6322 41.4111
7.0287 13.4568 25.8427
4.62429 10.1822 20.6903
3.51612 11.278 28.8074
5.74891 12.6197 31.3793
6.01483 14.6471 39.2494
5.1917 12.8496 35.8279
6.23307 15.0001 37.031
6.1884 14.0729 29.1505
7.7584 20.0368 39.4509
6.8088 13.984 36.0019
3.9708 12.4706 37.0003
4.95242 10.5108 27.567
6.9355 11.1495 27.7353
6.54325 12.2206 32.1033
6.14883 11.6854 22.827
