# pn-170911/RbIIR-60-TWTF-1280-1959.psd
# Power spectrum* (dif=0,1,2) (really just |FT|^2)
# NOTE: only the first half! (symmetric)
# weeks: 1280-1959
# 10 clock-days, 0 excluded
# PSD: 1441
300.973 0.0201948 0.00562942
9836.67 0.134749 0.00535722
64660.7 1.35921 0.00533002
13367.2 0.529278 0.00547235
32612.3 2.35524 0.00516487
2414.89 0.307703 0.0057262
5912.89 0.904188 0.00607808
4098.81 0.765504 0.00576518
1601.99 0.377024 0.00541434
1940.28 0.66158 0.00584198
2737.19 1.01724 0.00534944
1159.66 0.605886 0.00495719
1157.65 0.757799 0.00444913
489.66 0.292403 0.00563512
1066.22 0.831046 0.006737
673.385 0.708513 0.00782029
888.048 1.19313 0.00645382
465.619 0.549063 0.00678599
865.704 1.3945 0.00602536
217.01 0.267507 0.00592087
676.292 1.21403 0.00938385
494.155 0.93051 0.00755712
669.649 1.48637 0.0102551
496.465 1.22001 0.00899677
287.332 0.845278 0.008159
327.046 0.890819 0.00622802
338.817 1.12384 0.0123635
359.358 1.05505 0.00544466
221.422 0.832377 0.011569
169.328 0.734026 0.00856962
337.576 1.45996 0.0112924
218.836 1.01772 0.0107901
204.402 1.09136 0.0128622
134.025 0.696094 0.00739377
221.046 1.05101 0.0112383
217.9 1.01159 0.0167531
186.689 1.06804 0.0128981
235.608 1.5022 0.0170986
172.745 1.1312 0.0117899
95.6984 0.628655 0.00671383
159.342 1.18883 0.0156873
255.561 1.88596 0.0216558
145.616 1.22624 0.0155479
255.91 2.12025 0.0308748
197.04 1.6528 0.0175609
205.984 1.87865 0.0209962
157.331 1.83176 0.0205768
149.81 1.62095 0.0186579
224.329 2.46226 0.0337945
201.501 2.45467 0.0296255
120.196 1.32379 0.0162249
194.987 2.43519 0.0410119
275.748 3.17618 0.0587413
195.748 2.4813 0.0386104
234.266 3.04662 0.053596
187.688 2.71722 0.0420775
125.63 1.87548 0.0262388
156.499 2.6611 0.0495258
115.345 1.4919 0.0329943
122.973 1.93203 0.0351303
283.149 5.12079 0.09466
140.895 2.52875 0.0539327
80.3503 1.59681 0.0371578
79.8887 1.81142 0.0479996
154.045 2.70413 0.0465584
76.0383 1.56948 0.0323269
196.993 3.98908 0.0873368
155.315 3.47088 0.0831603
188.906 4.28045 0.104254
104.316 2.27579 0.060883
105.605 2.56605 0.0684683
59.6307 1.47507 0.0419457
75.9196 1.69842 0.0437556
136.477 3.17733 0.0886398
69.3627 2.12217 0.0532409
175.823 4.36055 0.128297
90.7068 2.39226 0.0705568
72.4023 2.09227 0.0709836
104.389 3.29137 0.0985467
124.549 3.18421 0.0991878
121.985 3.52877 0.0980301
190.467 6.14958 0.181398
156.643 4.5381 0.152287
129.673 4.26161 0.141998
143.607 4.76216 0.168923
67.9994 2.45228 0.110654
131.183 4.33438 0.164587
110.26 4.01656 0.120001
174.014 6.52199 0.217582
152.31 5.82326 0.19931
165.53 5.93481 0.2561
61.635 2.0964 0.0915743
104.455 4.40272 0.175329
154.576 6.21683 0.263885
120.999 4.84005 0.219241
98.398 4.06489 0.16032
112.46 4.70605 0.215227
124.441 5.48804 0.248959
95.7567 4.69447 0.233902
77.1375 3.41049 0.153654
105.073 5.06794 0.267209
133.368 6.39013 0.308677
142.166 6.61746 0.320149
137.146 7.04636 0.372724
120.149 5.77866 0.312166
89.0139 4.48261 0.214564
94.0762 5.00215 0.303378
63.4795 3.39869 0.177525
97.781 5.49165 0.341781
133.586 8.04703 0.477344
205.458 11.1679 0.679077
136.449 7.61989 0.417251
133.955 8.4874 0.552443
44.5033 2.72655 0.164215
133.685 7.85781 0.498926
109.202 6.5766 0.386915
140.878 9.19081 0.596983
137.778 8.56205 0.540174
114.066 8.02563 0.533231
71.6121 5.51254 0.389592
162.142 10.8448 0.760892
80.3808 5.67206 0.380038
77.2186 5.16761 0.325996
159.279 11.1622 0.790605
92.1228 6.4211 0.451017
127.043 9.56774 0.78442
103.857 7.77114 0.546079
73.1941 5.48145 0.365269
53.3959 4.20237 0.330334
77.9841 6.95236 0.592707
88.7246 6.35379 0.505661
124.027 9.50836 0.7355
87.6011 7.03579 0.56845
124.402 9.97196 0.849296
108.915 9.16788 0.753816
78.7952 6.22884 0.531887
80.7666 7.03224 0.654465
100.747 9.44732 0.848381
94.5296 8.54691 0.74847
70.7942 6.60039 0.65861
105.363 9.44169 0.914656
100.785 9.16392 0.830409
87.1787 8.3383 0.827851
82.1666 8.36202 0.838267
67.1204 6.34918 0.561821
117.858 12.0236 1.26648
93.5499 9.72463 1.08379
115.476 11.6252 1.15731
125.67 13.0898 1.37469
128.224 14.6579 1.65656
81.6692 9.63138 1.05416
99.9027 9.74453 0.934678
71.1692 8.67816 1.07865
135.804 13.2458 1.33172
54.7867 5.84041 0.71084
86.2807 10.0503 1.11825
83.9048 9.45875 1.0183
68.4149 8.49836 1.09158
101.217 12.4272 1.59801
104.674 11.6797 1.29409
80.5257 10.2288 1.29646
70.3682 8.16023 0.946526
59.5617 7.03473 0.841073
71.7824 8.2922 1.03149
57.1477 7.67585 1.05805
82.6761 9.36769 1.1631
75.4177 9.25754 1.13936
64.0297 9.42068 1.37221
129.478 17.0718 2.24096
48.6303 7.3407 1.08769
106.629 13.7931 1.77877
91.0357 12.025 1.7089
50.4052 7.99252 1.21206
78.9167 10.8593 1.58363
73.058 10.3017 1.44628
73.5524 10.3733 1.54314
124.619 18.4189 2.67621
104.645 14.8604 2.14027
52.1763 7.36724 1.1088
59.8162 8.36403 1.21202
131.055 20.2851 2.97656
63.8395 9.90942 1.49373
45.7438 7.4152 1.21088
55.1241 8.57937 1.36728
62.9144 9.6354 1.61835
145.34 23.5391 3.83567
65.3492 9.67583 1.45781
52.4014 8.1267 1.31527
82.1381 14.1053 2.3125
62.0504 9.84632 1.62291
75.7216 13.0958 2.2414
50.3757 8.24201 1.33042
25.8961 5.04118 1.07936
103.839 18.524 3.20369
87.4427 15.8308 2.86902
90.1509 15.5167 2.77356
73.8018 14.3516 3.03746
95.3962 16.2318 2.73347
71.7573 12.5459 2.08162
48.1887 9.57639 1.81784
55.5989 10.8741 2.16127
76.3879 14.1644 2.4736
40.7346 9.37877 2.08743
89.5773 15.8658 2.8838
77.853 15.3941 2.97078
56.7082 10.9088 2.0763
58.525 11.662 2.36513
79.4956 14.902 2.89275
71.9636 14.9848 3.11724
71.6186 14.1885 2.79366
138.273 27.1933 5.15343
23.08 5.92541 1.42024
88.9084 19.0994 4.06868
49.9275 9.60928 1.89537
81.0067 18.4105 4.00787
51.7042 10.7936 2.32483
46.4929 9.88316 2.17458
84.4874 20.5519 4.87792
45.5858 8.87971 1.94541
56.0759 13.9563 3.57008
63.3787 13.667 2.98923
71.5508 15.6716 3.41136
69.4369 16.2248 3.78696
50.5308 10.7262 2.42856
66.1602 14.2381 3.08271
65.319 16.7184 4.39656
72.9335 16.6718 3.75084
42.1686 9.87808 2.37749
92.6386 23.6742 5.50213
56.1411 14.4927 3.84599
33.9959 7.92194 1.89186
74.0676 19.1917 4.908
56.1883 14.7748 3.9342
65.6017 15.8806 3.8199
45.8917 11.5483 3.02584
60.9751 14.2603 3.48082
55.3117 13.8075 3.25625
39.0007 10.9494 2.96212
31.4598 10.6466 3.41058
74.7538 18.5924 4.87289
28.8837 7.16205 1.91136
45.628 11.6603 3.06416
59.2386 15.7797 4.17323
78.6662 22.1845 6.29134
37.6563 10.9398 3.24349
55.0695 14.2285 4.04044
36.9025 11.2052 3.41219
48.8811 14.8947 4.47291
32.1614 8.21646 2.23808
50.4135 13.6088 3.83615
50.1932 15.4747 4.80856
42.2426 10.4481 2.909
70.442 20.1048 5.33982
32.3844 10.1406 3.19151
49.5844 13.8635 4.07794
47.8116 14.4985 4.28721
45.6911 14.9955 5.05371
68.0537 20.3518 6.22446
69.3555 19.4286 5.55606
65.5995 20.4846 6.04129
33.881 10.6481 3.37195
40.5546 12.8033 4.02586
40.219 13.4028 4.26169
61.3658 20.9186 6.88169
31.6111 10.2872 3.62615
64.3925 19.3454 5.74816
51.7435 18.3498 6.37646
76.3945 24.5305 8.06524
21.3217 7.52113 2.70584
54.9336 19.3035 6.55808
58.0674 20.2337 6.98518
50.7871 15.6331 5.15493
57.306 20.6219 7.43919
53.7184 19.2242 7.14742
26.9996 8.32652 2.92989
57.9674 20.8201 7.51078
64.8548 23.2042 8.86594
64.537 19.1539 5.59078
36.5985 12.5905 4.04844
27.2897 10.6421 4.10668
56.4831 21.8567 8.09597
46.8708 14.7684 4.83504
34.7918 12.7592 4.61628
41.7022 15.8084 5.68922
19.7978 8.52176 3.59417
27.3955 10.4868 4.24923
22.3673 7.10128 2.44045
54.3529 20.1282 7.1167
64.1972 25.8218 9.53072
34.1328 15.4719 7.07433
47.6432 17.4106 6.80479
51.5898 19.7887 7.75969
59.4527 22.9938 8.52338
35.6506 14.9456 6.39029
44.714 16.1372 5.69834
36.9935 14.6237 5.76693
61.1676 26.3472 11.2809
33.771 12.7259 5.16843
44.7202 18.2705 7.34485
37.1477 15.7327 6.6785
50.0224 18.2842 6.94715
42.9717 17.7762 7.09801
19.6092 7.91313 3.36453
30.3906 14.2088 6.93661
38.0006 15.0269 5.73691
31.2254 16.013 7.85396
38.2923 15.6799 6.58868
30.7266 14.3427 6.94528
31.5533 13.4999 6.30633
35.2221 15.585 7.50472
102.863 43.3897 17.1335
35.3427 13.9278 5.94945
34.6804 16.6011 8.11133
39.9468 16.0323 6.33327
32.8799 13.7938 5.41039
30.3214 15.5912 7.54855
29.8394 14.3493 6.87229
46.3072 20.5042 9.00603
57.8058 26.206 11.0365
12.2288 6.85839 4.00881
32.0418 12.8844 5.08583
35.8474 20.3192 10.3627
30.1104 12.26 5.1814
27.5198 14.9323 8.36502
57.2884 28.1646 13.6953
55.1243 26.2945 12.4136
33.8357 13.0908 4.8635
14.9923 9.44269 5.88913
32.6454 15.5087 7.67942
27.4828 11.5747 4.57999
29.2266 16.5177 8.56106
32.2162 15.2801 7.11784
37.2617 19.5943 9.86193
40.1293 22.3389 12.5456
27.0318 13.3738 6.84119
43.8824 22.6318 11.1245
25.999 13.0981 6.43491
11.9437 10.1868 8.08766
45.8566 20.1257 8.79487
63.2201 33.8837 17.2602
26.4878 12.7961 6.7469
27.3689 12.2365 5.41869
25.039 16.1911 9.82734
28.4786 16.8346 10.3609
44.555 23.0524 11.9788
33.3845 16.9965 8.37161
28.7007 16.4786 9.4362
28.2408 13.9892 7.07596
41.4978 24.6682 14.0501
32.2928 15.0799 7.2828
30.3752 17.2756 9.24967
18.5268 12.3544 8.28811
29.4782 14.9165 7.72844
31.3961 22.211 14.6063
31.0486 14.5876 8.08447
32.7655 17.9605 9.78008
13.8467 6.2126 3.78741
38.2955 20.2247 10.2665
35.1027 20.1955 11.2847
27.9974 16.5359 9.61092
23.6872 15.7722 9.99647
22.2576 11.8464 7.48601
27.6587 15.353 8.65228
36.7938 22.735 13.2857
46.6832 29.6364 18.7661
32.382 16.9009 9.71388
24.8427 14.0909 8.43295
35.4828 21.456 12.6723
32.3874 20.6461 13.5891
47.8137 27.1202 15.5446
26.1775 14.478 8.11919
23.5961 14.2009 8.99992
54.9014 34.227 20.4912
42.2778 27.2632 17.2793
24.9537 14.8808 8.7336
13.5714 7.90761 5.00734
22.5752 15.8658 10.8044
30.6068 18.3957 10.5749
28.3374 23.1609 17.8923
32.4021 18.0959 11.0737
40.9445 25.4794 15.4816
35.5004 21.9751 13.2565
28.4065 17.5095 10.7909
34.2158 25.3101 18.228
36.8044 23.8972 15.5776
12.5719 9.40431 9.01709
35.477 19.8566 10.9685
35.7516 23.0891 14.001
35.2587 26.5401 18.915
24.4308 17.4011 12.9248
28.7314 16.9023 10.4888
25.8688 18.4459 12.6698
29.7819 19.8007 12.632
20.1218 15.3131 11.549
19.2485 14.2934 11.2472
13.1433 8.02869 6.34354
28.7691 18.4266 10.9049
14.4031 11.1934 8.51402
15.4136 9.31534 6.3339
26.2917 21.3215 17.1275
48.3577 32.3643 21.0251
23.4484 17.3817 13.7932
29.5559 18.3108 11.3477
25.8029 20.3829 15.0558
34.8975 25.3748 17.6157
16.1779 12.6842 9.89119
13.8915 12.2018 11.252
15.6352 10.9009 9.21145
35.732 26.1826 18.5606
20.2618 15.5066 13.1016
33.8696 23.0685 15.3818
19.4727 13.7642 11.039
30.5171 21.6787 13.8854
17.7581 14.5874 11.3159
20.8127 16.5841 12.7885
27.3066 21.1241 15.6434
18.0481 14.7732 12.7594
21.828 16.5232 12.2842
20.5052 18.0952 16.3146
38.9168 30.6082 23.6888
27.7872 21.8138 18.3672
28.3288 19.5872 14.2212
23.247 16.4194 11.2315
23.362 19.8516 15.7361
27.0187 20.5474 14.8189
11.4859 9.82748 8.97803
15.3256 12.3354 10.333
28.6245 23.8391 18.7784
20.4848 18.4881 16.8343
26.893 22.4617 19.6091
31.6982 23.5547 18.2502
16.9101 12.2519 9.65212
19.7943 15.9127 13.3786
30.1281 22.9616 16.759
13.9539 12.6733 12.2674
23.4986 18.6441 14.9907
24.8295 23.2377 20.1409
18.0559 13.2135 11.6278
24.4031 19.5975 14.9297
27.9691 22.3045 15.9374
11.6519 14.1752 16.6034
33.9568 24.9771 16.8883
13.6441 13.6586 13.2172
16.4989 15.5137 14.2995
16.9836 15.3513 14.4572
27.0002 23.3256 19.947
16.2144 10.9311 7.44767
20.4138 21.4308 20.8933
26.5994 23.1389 19.7435
19.1842 18.2142 19.0385
38.6867 30.3813 23.1699
25.6291 24.4254 21.9249
33.5669 33.9834 32.2303
26.0684 20.7124 16.9785
8.31209 10.3914 13.9595
19.1187 15.3995 14.5725
16.7678 10.5227 6.18315
21.6813 24.4069 24.8585
28.8492 25.4209 24.0683
26.0553 20.2515 16.6276
21.1415 17.6199 14.2732
19.2404 16.8615 13.6296
21.6354 24.9835 27.041
25.3272 20.6212 18.6673
37.5804 35.4057 29.6725
12.6727 12.0013 12.1472
27.9402 29.8831 29.1959
14.1912 16.6871 20.3019
29.3239 26.1574 22.9147
13.4868 13.4525 14.8267
16.3777 12.1544 10.6437
17.5767 16.226 14.819
10.4999 10.764 12.9967
27.5129 24.47 19.6969
9.4153 11.0411 12.5807
10.1725 9.2422 10.5383
12.5579 9.93701 8.40698
12.2802 10.1974 7.63001
15.8482 16.9988 16.267
24.5425 26.3951 26.8099
26.9679 28.4894 28.8747
21.8858 21.1327 19.4112
14.4374 17.0092 20.6193
21.2728 22.9562 25.0171
18.6491 16.7872 15.2961
15.2835 16.7623 18.644
13.157 13.5831 15.8115
21.5644 21.1097 20.928
12.1361 10.3963 11.2596
28.4139 29.3925 27.7998
13.6525 13.4855 13.3691
12.5206 15.7435 19.2462
21.1813 19.2375 17.4636
20.2744 25.2855 29.568
12.3863 10.0691 10.6795
9.87109 11.5451 14.3447
18.6783 19.345 21.5694
19.1801 19.401 20.2816
14.9241 16.7631 21.6181
18.5552 14.347 11.6426
21.5263 24.4442 24.6517
17.541 18.7311 20.328
18.4998 20.6185 22.0087
13.112 12.3449 14.1906
18.8114 18.1986 16.3783
19.2566 23.2483 27.173
25.5292 26.4979 26.2132
15.2074 16.939 17.9166
10.5005 16.1025 23.3743
19.8275 18.2755 19.0568
25.3291 28.7579 30.7519
28.3447 31.4541 31.5457
13.0427 14.1282 15.6236
12.2142 15.8442 18.878
13.3304 17.0586 23.7742
14.3336 11.7264 13.0659
17.1098 14.0118 10.3434
17.1887 21.5397 24.1291
20.1978 22.4057 21.8847
7.94825 11.0018 14.4791
12.4608 15.0757 17.2758
18.2439 23.8968 29.6671
17.4486 19.0579 21.4049
21.2701 27.8407 33.9085
13.8759 15.9749 20.543
16.7858 18.138 18.9185
10.8489 12.8538 15.5866
17.4732 22.729 26.3555
7.32112 11.4586 18.436
14.2328 15.9431 21.0474
11.3065 10.337 13.5108
19.1752 19.3006 17.2187
9.27095 13.4039 16.718
12.7061 16.9507 22.8093
14.301 16.0788 17.3749
15.1504 22.2045 29.5956
12.1237 15.6168 23.4707
15.1628 11.1629 7.80803
10.4666 13.442 16.2298
12.8845 17.7413 21.8587
9.32489 11.2448 15.4529
17.4665 20.1863 21.5245
4.861 7.18332 13.0388
11.3654 12.9346 16.2168
14.7185 18.5188 22.9001
13.5984 16.3544 20.4823
16.3896 22.8562 32.8274
19.2375 19.1959 22.2013
23.1102 27.0987 27.1877
18.853 25.8092 31.7398
10.1546 11.3844 12.3831
15.3121 27.3793 41.4994
17.0375 17.3315 19.168
13.4247 17.9308 23.0226
10.2902 13.2602 19.9354
16.7168 20.2344 23.0223
13.0122 17.4131 23.0697
13.7385 14.5032 12.7313
8.14623 18.1006 30.7902
12.1095 11.8924 12.5203
4.90941 6.49041 9.76253
7.85021 14.475 27.5901
17.097 17.2619 18.8898
12.5433 18.8107 30.6685
26.6548 28.2188 24.8764
13.346 18.6398 22.0261
14.1597 21.1238 27.099
19.6529 30.4352 38.5465
11.9218 18.8152 30.0883
10.7667 10.8774 12.0903
9.20894 14.9 21.1168
9.03891 14.6131 23.3422
14.1339 19.3877 26.6648
10.7614 15.0402 21.8205
11.6938 15.0227 21.6178
18.8072 29.0268 40.6511
15.8822 22.7023 33.4496
9.37237 8.46027 11.6287
15.9329 25.9312 36.692
8.28813 6.65702 9.19306
15.1772 24.0229 37.7896
21.1007 24.6054 26.4078
11.7326 20.1894 34.9096
19.5163 21.4472 18.8752
7.39305 12.885 19.7049
17.0983 26.7577 33.4336
7.32174 13.5001 25.6717
13.7309 18.353 24.6464
7.96595 9.80158 14.7521
12.3506 20.343 29.8418
8.80033 10.7912 13.7502
7.07008 12.8346 23.4336
13.2339 19.0255 29.671
15.7051 20.064 24.1276
6.3336 9.02454 14.4616
11.6346 19.8641 32.0134
13.9092 16.9593 19.177
8.60288 14.4492 23.3737
14.0464 22.5768 33.4048
10.5148 14.531 20.0965
10.4212 19.2651 33.1695
9.5736 10.8432 15.2483
9.95778 17.5621 31.2566
13.1687 17.7737 28.959
16.8648 19.3681 17.1967
5.31215 10.431 19.2651
11.38 14.2397 15.4284
9.26375 17.2391 25.7939
12.0346 24.4845 42.8373
10.043 8.49327 9.49794
9.35076 13.8855 15.4415
9.84884 26.3258 51.7917
14.8878 20.375 34.6258
17.5939 24.685 37.1965
13.56 17.8601 24.8618
11.8943 18.1457 27.9288
12.7329 19.7811 29.5471
14.0611 21.4978 29.979
7.61464 14.0743 28.6038
13.6047 16.8843 21.7907
7.55025 10.5219 12.4209
7.6544 17.5366 32.0536
10.3703 16.1395 29.1019
13.8117 19.7671 26.9291
8.74927 15.6655 27.1999
7.04322 9.61447 17.1394
12.6017 19.3223 26.597
7.75984 11.8901 16.8097
7.34565 15.775 29.8897
7.24802 13.724 33.6213
17.7701 21.9776 24.6243
7.46587 13.504 21.0154
5.34598 10.6418 22.0595
8.96925 17.077 35.6606
13.4003 15.5083 21.8726
17.5963 29.7726 40.6631
10.9018 20.2985 34.8946
7.29476 8.91969 16.7894
9.13318 13.0983 18.5953
7.35825 9.92964 13.509
11.4615 22.8503 37.0523
8.73363 12.6073 19.7657
9.44369 19.4242 34.4521
7.29283 9.74016 15.1162
8.41019 17.6243 31.3846
8.01264 13.7921 27.3437
12.2618 17.8609 27.3883
10.8208 18.5387 31.6868
11.7406 16.4804 18.8795
8.55711 20.9887 40.5898
8.69799 13.6179 25.0313
9.76506 15.8418 22.6231
3.22484 7.75942 19.6817
7.48497 14.3953 33.7629
12.4335 14.3281 13.8195
5.60533 11.1009 17.1889
6.765 17.3078 35.8662
4.82839 6.8101 21.5014
12.1453 17.8453 26.4934
11.4833 16.2972 18.4256
6.64276 19.423 45.0148
12.7276 18.8941 32.2649
7.27743 10.1477 22.5497
12.9316 18.771 26.4564
11.2208 18.0894 25.3843
10.2688 19.9553 31.6739
8.18273 18.5543 39.4552
10.5454 16.207 28.3322
9.92466 17.1731 30.7996
9.71091 14.1244 18.5872
6.68646 15.4224 31.0593
8.34137 14.5537 26.5866
10.3946 20.9499 39.2469
9.29486 13.6704 21.3166
8.31456 14.7975 24.3637
6.913 11.1877 14.3816
5.10119 15.882 35.2741
8.85243 17.1732 35.3692
8.55438 15.197 33.7552
11.0017 15.4004 28.0382
14.8831 27.2339 44.0968
10.2759 16.1662 24.1602
5.63054 11.6137 23.6839
8.45596 17.197 30.7814
4.42219 5.5115 9.92171
3.638 6.60424 14.0477
5.44978 10.3029 18.8952
7.77251 13.6166 20.5357
5.10376 11.4694 22.6205
6.60347 13.4517 24.2657
4.07917 9.5568 28.5262
11.313 17.5243 25.6492
6.81939 13.3727 22.4616
3.41045 7.00007 18.5252
6.07533 9.13503 15.9046
6.73753 14.5189 28.4122
7.55576 14.1284 25.2942
5.77773 13.0901 27.8057
6.18706 11.1501 21.1866
4.32191 7.2693 20.2927
12.5678 23.8111 37.4684
6.17746 12.9752 25.6997
4.2943 7.15678 20.2751
8.76308 17.3787 31.7338
8.16689 14.5536 27.0264
6.4238 11.3299 22.382
9.65662 19.4319 33.2215
7.00803 16.9753 37.8328
7.26929 10.7069 18.6984
6.48503 13.8627 23.2943
4.36685 12.4395 32.1786
6.16453 7.71873 12.6051
3.4455 8.41714 26.8882
9.18724 13.0992 17.3153
7.20188 17.4028 37.3698
9.52322 16.1336 23.8947
6.78253 14.2623 20.3434
2.67337 10.2056 26.608
3.99517 9.02757 26.5299
9.37638 18.3048 36.092
4.81676 8.43991 27.5742
10.4516 14.2899 18.4119
8.29684 18.0976 29.7794
7.29249 18.1613 39.5509
10.4645 20.9684 34.0862
4.50199 11.5624 30.3836
5.41507 8.38874 19.5366
7.24449 13.1005 22.6343
4.52081 8.68131 19.5949
6.90803 16.1661 35.0204
6.54122 10.806 18.0986
5.1699 13.573 33.0729
7.21083 12.6667 25.7743
8.87473 19.3096 41.5515
10.7416 21.5426 38.6953
8.16088 17.5496 36.2317
5.94744 13.1125 33.7431
7.88394 13.8013 26.794
6.713 13.264 27.5195
6.57768 13.4007 29.2549
8.3079 16.9982 28.0044
3.4906 8.75753 26.1431
6.87369 11.9064 25.2868
9.00077 18.0839 31.3108
6.62864 15.0694 31.1725
5.32739 9.70968 20.9659
7.40341 17.2678 33.4773
6.19143 12.9268 23.4879
4.50192 15.7303 47.0287
9.2784 12.8382 17.2918
4.396 14.0482 36.172
7.34395 15.948 41.6292
11.0898 23.4381 49.1345
8.61056 16.9703 37.1263
6.58948 12.1853 27.8612
8.39254 19.1996 42.9188
11.3456 25.2116 52.9462
7.04234 9.38215 17.6148
5.95545 10.1767 13.6501
4.51895 11.6115 23.188
4.93886 12.3381 26.45
5.48513 14.2333 35.0306
8.50138 19.048 40.4192
5.46145 8.62289 21.459
7.27797 15.2342 28.1582
6.22283 12.2488 20.0027
4.11184 10.7133 25.1755
6.0372 14.745 36.8445
8.20488 15.6877 24.5431
3.70474 9.14114 25.4321
8.36012 22.5353 47.4685
6.13771 12.2012 29.9729
6.85012 12.9103 20.6055
2.90805 9.29028 30.8017
8.5308 17.6272 30.4702
6.82424 21.8107 58.4891
9.33093 15.8937 28.925
4.93478 10.4529 21.4017
3.31005 7.73432 22.2868
6.64042 12.6325 20.2089
4.13299 9.79428 17.3396
3.27173 10.2669 25.1162
5.72194 17.197 43.1603
8.0059 17.4908 34.7396
5.21501 13.9542 34.561
5.11746 11.5535 30.8464
5.31479 10.0837 24.4395
7.31453 19.7789 39.5712
3.18288 4.86124 18.7562
5.37954 8.81975 15.2516
6.83804 22.0436 53.1367
6.23023 11.9594 25.8361
4.34945 11.7549 40.5943
9.68955 19.134 32.0365
4.94099 13.9009 37.3323
6.4762 11.1778 21.8036
6.1263 15.8055 33.2666
5.40851 15.5618 41.3925
5.70454 10.9538 26.3351
4.58355 11.2466 33.7103
6.75589 12.6921 25.0698
6.10811 13.2174 22.4216
5.59758 18.6294 44.8193
5.72874 10.9932 18.8872
2.4191 11.7866 41.5272
5.44917 7.04877 16.142
4.53697 12.2437 30.7012
4.36311 7.9643 24.0277
6.44073 12.7467 27.0497
7.88459 20.3401 40.6947
8.73499 26.6152 60.6964
5.59897 14.3045 38.5216
4.47072 9.57815 33.3011
6.93251 12.0417 18.2949
3.00595 9.97862 33.2013
6.24516 12.4607 22.5936
2.99164 7.30967 18.5454
3.43853 9.06908 21.9249
2.76635 6.97561 22.7586
3.9744 6.30139 16.0562
4.87198 11.7248 22.9825
4.51381 13.065 30.1515
5.35878 14.8917 32.298
4.21049 11.8948 39.0111
