# pn-170911/RbIIA-38-RbIIA-1280-1959.psd
# Power spectrum* (dif=0,1,2) (really just |FT|^2)
# NOTE: only the first half! (symmetric)
# weeks: 1280-1959
# 1 clock-days, 17 excluded
# PSD: 1441
5735.99 0.181126 0.0100507
81639.7 0.335351 0.00493929
2.00203e+06 47.2689 0.00932285
464839 28.1007 0.0096467
222610 18.3053 0.0091319
242187 20.018 0.0015198
3294.73 1.30436 0.00479727
18976.2 9.63291 0.00997149
248332 68.7464 0.024418
2656.56 0.629674 0.00197414
4722.03 1.20128 0.000748822
7328.97 1.966 4.7488e-05
26372 13.9941 0.0187577
16547.3 6.76813 0.00872953
7801.54 2.8994 0.00742
617.749 1.37938 0.000160814
15821.2 12.6073 0.0282118
7531.52 12.7254 0.0129703
4180.81 6.52694 0.00856697
3926.35 3.37987 0.0188601
752.158 0.27241 0.00810638
12477.6 31.209 0.0819756
2824.07 4.45864 0.029449
95.3638 1.43335 0.0078782
9.57805 0.984102 0.0110896
1439.85 5.44812 0.0129306
7672.46 21.2587 0.0423098
1133.01 8.29462 0.0518974
2132.22 14.2441 0.084193
3398.39 20.9512 0.118565
1552.13 4.35057 0.0194563
3355.91 7.42214 0.0179866
1611.3 4.5393 0.0141663
1554.9 3.1033 0.00862829
1856.32 5.72662 0.0389849
837.433 10.7232 0.0634054
1706.15 8.24574 0.0688188
5083.68 41.0808 0.287475
707.351 6.39499 0.0262794
80.0878 0.0282825 0.00100409
302.967 0.628782 0.0114246
920.232 3.97768 0.0507423
1611.56 9.05904 0.110917
1500.95 9.87868 0.0992699
74.6859 1.61685 0.020436
88.7968 0.64772 0.0213534
142.582 0.21247 0.0110854
1069.99 6.76169 0.0444062
747.514 5.40364 0.0794597
168.571 0.140285 0.00383563
438.239 4.88546 0.0830984
2201.36 19.4607 0.235233
923.332 5.18919 0.0451539
18.9886 0.518698 0.0149218
760.975 9.35862 0.137073
26.5263 0.599203 0.0144971
71.541 5.11794 0.0943869
666.111 3.99265 0.0459644
338.069 7.10099 0.142057
2234.52 25.6677 0.446021
1338.08 15.3775 0.297475
1046.25 13.4457 0.283346
234.61 4.08733 0.116914
496.802 11.1286 0.136372
177.169 4.51631 0.0585143
217.325 5.79744 0.104505
0.243338 0.149292 0.00622523
196.663 6.71798 0.151891
252.476 7.26117 0.119625
0.949082 0.55872 0.0281333
191.793 2.78206 0.028262
621.717 11.1532 0.190638
772.874 13.4112 0.27193
301.779 12.6454 0.314586
237.102 13.9897 0.41062
1031.22 37.2407 1.05241
892.543 39.3164 1.2328
1224.33 37.2888 1.11351
186.901 0.918835 0.0293177
122.326 0.600368 0.0111586
201.061 2.62454 0.0908631
150.839 9.1595 0.371599
351.641 4.10682 0.0872435
535.959 12.6678 0.479933
390.489 8.59446 0.237997
117.78 5.57322 0.240864
281.098 6.99412 0.200328
158.61 3.8803 0.147233
417.512 13.0375 0.582082
17.6806 1.218 0.0298138
41.1951 1.03236 0.0343903
49.8249 3.19051 0.129815
14.4571 2.30239 0.0963852
284.911 13.3593 0.59891
439.45 20.48 0.988664
307.746 6.04908 0.242726
629.455 25.6801 1.25172
25.5781 5.86479 0.315607
91.7458 0.505986 0.0284462
17.9543 0.321815 0.0167046
29.4263 6.41439 0.338992
226.336 7.42309 0.363124
107.208 1.45786 0.0779227
30.6485 4.11472 0.225119
196.947 7.37121 0.377796
6.86412 1.85612 0.109702
34.1006 0.153451 0.019705
56.39 1.1604 0.0665589
108.789 7.06414 0.286777
33.061 3.1377 0.12393
194.65 12.7861 0.636917
50.166 4.12301 0.206564
16.6232 1.01619 0.0734328
135.145 12.1649 0.812699
67.8164 1.46773 0.083651
197.648 10.6933 0.567053
40.2429 3.90822 0.317986
96.3891 7.41704 0.467871
123.524 3.89639 0.269913
2.26141 2.38943 0.198446
35.6598 0.584154 0.0390295
2.7367 4.80778 0.423936
146.195 4.60589 0.336493
52.6374 3.47921 0.255657
315.265 32.4359 2.5984
138.997 10.7703 0.801684
142.273 4.60136 0.35181
68.3476 1.06883 0.0334454
290.059 19.5035 1.4387
50.3002 1.21897 0.0907172
188.301 11.836 0.962232
44.9786 5.80656 0.544734
200.011 14.3876 1.27412
107.637 7.85721 0.764224
143.054 12.7455 1.31651
156.732 15.2634 1.71597
81.6109 5.18552 0.262712
100.179 7.66304 0.870635
182.27 20.0524 1.516
96.1602 16.471 1.5701
48.913 1.50476 0.0995208
42.9094 6.17585 0.649158
31.6926 2.12912 0.298693
105.532 2.98217 0.314385
64.7004 16.111 1.57636
18.8168 1.66019 0.148429
25.4356 3.42201 0.36842
116.203 16.6768 1.70775
11.8027 3.96995 0.531619
18.1481 0.579056 0.121619
121.424 4.26353 0.443454
44.0026 2.38508 0.21277
53.4446 5.95575 0.690908
10.5377 4.22179 0.476735
14.6673 2.08771 0.415939
96.4626 7.94023 0.614199
197.305 23.3699 2.36981
59.1803 8.60153 1.04689
4.71485 0.528031 0.0757141
64.5197 6.81234 0.909594
36.9676 5.19929 0.477519
52.5742 10.0553 1.28372
40.6437 7.96425 1.12945
48.3261 1.54432 0.120347
26.8454 0.82351 0.113855
16.0037 7.67987 1.15716
77.6859 1.59459 0.123329
97.2173 6.16154 0.835968
199.146 11.5266 1.58847
10.761 0.980095 0.183112
8.13431 5.43859 0.625629
10.3353 8.539 1.28302
35.7187 0.597382 0.126794
73.4816 3.64723 0.445891
32.478 12.4997 1.79175
11.8852 0.770723 0.162968
39.157 2.51211 0.400291
4.7949 3.08317 0.44419
45.3255 13.4734 2.49009
63.8313 5.25759 0.619342
83.7862 10.0288 1.2225
108.29 16.7507 2.5205
46.0948 7.6644 1.53314
64.5987 12.4321 1.73303
54.6516 6.96441 0.964953
31.934 6.44258 1.17569
10.9988 0.493265 0.104215
51.5553 3.92083 0.609745
28.0219 4.85466 1.04466
106.747 4.97749 0.7148
40.3691 4.09767 0.69384
179.65 12.5257 2.03992
54.8289 2.96067 0.522872
34.2144 5.36072 0.905847
39.7039 0.82153 0.178889
44.4436 1.87501 0.47463
123.893 20.5897 3.70654
24.6576 3.97345 0.630091
117.562 11.8225 2.46061
2.54742 1.29008 0.0779295
0.80562 1.28417 0.275269
142.384 20.7813 3.5418
18.1045 3.19093 0.929717
50.5545 8.03864 1.42064
11.3626 0.828626 0.0684003
15.3854 0.635456 0.0127248
131.333 21.908 3.9329
117.485 14.7024 2.55769
42.5991 4.62851 1.04506
18.887 0.673436 0.0922564
28.2035 0.616328 0.0897273
19.8045 17.2169 4.43488
170.231 12.1642 1.68996
28.7696 0.309641 0.0560371
201.678 24.5823 4.96737
18.2332 18.415 4.99026
283.388 28.2489 5.13298
31.4356 1.68374 0.407961
14.0497 2.09293 0.496922
18.0597 13.2542 3.73047
68.8894 5.25648 1.54876
198.439 31.1971 6.21364
22.179 0.964593 0.162666
52.1512 12.6332 3.23817
6.48464 2.52085 0.600735
9.87429 0.423747 0.0928414
13.516 2.41919 0.475383
29.3293 8.88033 2.92247
59.1689 11.868 1.9418
23.3829 8.60767 1.75745
34.604 11.132 2.7515
8.6509 6.53412 1.8075
62.2382 34.141 9.69057
47.6332 5.98541 1.0484
27.1815 1.32961 0.192828
11.3368 5.86859 1.78072
88.8629 6.70716 1.71964
42.7781 14.1491 3.37393
52.9366 3.39198 0.876844
99.8109 14.2004 4.54356
29.359 10.7913 3.7802
12.4746 9.36525 1.49477
27.8809 10.8625 3.42949
37.1768 23.0078 5.27675
21.0118 13.8693 3.56397
37.2344 15.4249 4.63085
0.14876 2.29043 0.718449
13.8878 7.11021 2.47055
10.2005 2.50656 1.25501
3.41995 1.65743 0.729447
32.8698 9.00155 1.88099
43.019 12.809 4.37669
10.411 2.31255 0.72563
85.456 30.5204 8.33458
6.63476 0.307235 0.164651
79.418 11.3546 3.18332
31.8188 4.8881 2.26524
19.9559 0.923133 1.10373
157.109 51.1832 12.9864
77.342 18.8228 6.60503
58.0978 3.02477 0.742844
89.2921 10.5203 3.85629
9.80752 0.16162 0.208516
62.9861 18.2879 5.62293
0.280487 4.19654 1.26811
32.0975 1.83122 0.651031
19.6063 0.647252 0.307325
26.8455 2.14978 1.02422
3.7216 0.244691 0.193565
10.4113 2.62979 0.659558
7.40685 6.22178 2.21559
1.6351 0.265049 0.332307
25.9669 4.75839 1.34158
4.0634 2.81847 1.07035
18.9861 4.20066 1.64987
48.1288 16.3415 5.07822
17.3046 2.47478 0.897196
6.42641 0.60774 0.284307
27.8849 10.9398 4.59083
56.6637 5.76196 1.15968
53.0312 7.65169 2.80083
41.0752 4.51313 2.21298
1.05822 1.49106 0.163294
2.25475 1.77257 0.321263
10.2375 11.8749 4.98612
61.7305 16.2139 4.81405
4.89755 8.60127 3.51547
22.9962 4.23658 2.07954
37.9129 1.87777 0.583661
45.727 5.59552 2.19848
42.9113 11.9044 5.78164
6.909 0.632232 0.839026
17.1618 7.75896 4.72628
5.89353 4.67982 1.14107
0.00279421 0.159431 0.365325
56.3202 26.3538 8.28268
6.43392 4.77331 2.48494
2.04576 0.978104 0.181784
1.5743 2.31737 0.96319
12.2852 0.550932 0.051316
65.8715 17.9183 6.01278
51.3866 10.24 4.37491
12.367 6.91784 4.44047
99.7299 25.0428 8.24664
5.92741 1.41414 0.832689
81.9118 10.3211 3.13204
82.1941 14.5027 6.26107
28.6913 2.37232 1.31148
62.9337 10.3331 5.92573
11.593 3.50316 0.932518
99.8301 30.2436 16.7676
27.1662 3.18325 0.777072
21.6261 11.9507 3.53837
29.3885 3.61845 1.24255
36.6196 5.58902 2.7998
20.4335 4.48009 2.97293
1.2072 2.51517 0.476714
11.3232 12.7894 6.73312
12.4045 7.18589 5.80251
20.758 1.21871 0.0409302
45.4681 10.0859 3.15901
63.6153 21.0185 7.20684
66.2875 46.4628 21.2944
16.2668 12.0373 7.29991
11.837 10.3404 7.2978
11.5527 7.62662 7.53719
70.6765 15.5953 7.1543
70.8766 10.8673 6.11193
113.156 25.6 8.83186
27.9585 4.14235 3.21785
5.47015 14.2818 4.49007
13.4817 34.7553 19.3023
55.5983 12.5002 4.40703
38.021 2.76451 1.78843
1.13423 6.62472 2.78776
15.1673 7.87066 2.67335
15.4983 0.61394 0.606802
12.7305 16.095 5.48504
12.1146 12.7948 5.24032
7.81853 16.4664 8.8877
1.30755 2.11775 1.72382
13.6953 6.36339 3.96243
5.27401 1.94177 0.894743
5.94259 2.50852 0.926612
22.6897 6.08949 2.34516
20.4892 6.22787 3.02579
58.0892 21.4226 12.0929
17.385 6.42076 6.07923
7.56132 8.81607 5.77328
10.0075 0.0665234 0.715783
4.5334 3.53175 2.24919
65.6749 13.2276 5.10558
33.2452 3.91299 2.71898
41.6203 8.20135 3.79708
31.3724 3.17556 2.40583
16.7246 0.67543 0.937231
39.629 7.99199 8.05682
6.93598 3.9071 0.383219
12.3085 12.1088 5.97458
100.022 30.8153 12.1326
59.9575 30.7741 20.0734
47.4526 12.6503 6.98104
39.8507 22.0738 17.646
7.58006 0.804718 2.19504
16.6191 3.66876 3.46772
17.8804 3.15658 0.116464
31.6837 7.11472 2.79124
93.6153 40.2849 21.2174
65.6438 29.4351 20.0549
69.4509 18.7119 6.09427
46.1562 11.6346 4.71247
57.3112 26.4368 16.4204
38.4805 11.4622 8.80761
40.7573 9.10734 7.12062
35.295 4.92368 3.75046
6.50061 9.07783 9.60732
38.9762 1.50587 1.56487
72.129 11.6541 4.566
15.8479 0.857513 1.56645
60.8349 12.1542 6.04618
49.3935 14.6711 9.78557
19.5315 1.78484 3.10371
42.7415 18.8886 10.766
0.0472645 4.72089 2.16345
1.47965 4.37559 4.06713
30.3485 4.75576 1.74171
57.366 34.3532 25.3988
3.77667 0.642593 1.87834
10.2815 11.5293 5.72194
14.5986 5.08872 4.32566
3.67264 1.41373 4.16731
37.2093 23.5637 10.2112
48.8516 28.4418 19.0917
25.0803 5.65066 4.39303
7.91302 2.53891 1.23217
68.2208 30.149 17.7964
51.8445 18.5246 15.9106
6.90098 0.273408 0.0538394
3.95252 3.53575 3.85709
19.2291 0.200983 0.562965
39.4154 2.57911 0.453102
46.0364 8.16746 5.11251
42.647 8.83905 7.13677
19.029 16.0463 11.1828
10.0872 1.97461 3.85902
44.8226 7.80634 5.20465
8.77901 0.59531 0.121445
18.9713 1.91112 1.09481
9.65615 2.58421 2.67951
25.2747 22.1171 16.4516
3.40214 8.14949 15.208
56.8346 28.3188 16.8321
78.2637 38.3927 23.0973
4.50752 4.75106 4.80057
34.9995 14.7103 6.46111
33.6612 21.1717 16.2775
20.7549 5.401 4.11817
17.3588 9.21517 10.7117
2.09738 9.87357 8.18698
13.5325 5.95217 8.40096
67.6122 16.6432 6.96129
38.216 13.9928 12.2928
5.53224 1.11706 0.375121
6.00219 7.56619 6.05566
2.07081 12.7582 15.6318
23.1812 0.613689 4.01366
49.5332 5.00394 1.62428
28.3834 1.10552 0.0871688
36.0914 4.59924 1.4154
27.8101 7.73743 4.7808
23.8116 11.1798 12.1911
8.15314 0.981681 5.65393
82.6217 82.8585 63.6013
11.2759 0.650111 3.73229
16.6009 4.33324 2.10505
2.8766 2.10533 0.196388
3.47002 8.01852 4.74327
6.30484 12.9592 11.631
17.7257 4.26503 3.55379
6.1729 19.2747 17.1848
13.392 4.72686 5.87315
43.016 13.3191 11.7136
18.9569 12.9869 7.08059
13.1935 11.1776 14.2265
40.7196 7.27256 3.53465
37.1867 5.95386 3.42753
19.2617 7.16041 5.72055
10.4567 0.103503 0.0844081
9.66504 9.8691 9.88396
19.9522 1.49349 2.7706
25.0378 1.20168 0.293087
12.5627 1.88222 1.71428
10.1813 0.643323 1.76788
18.7007 12.7528 10.454
12.1736 0.421658 0.497714
5.88535 5.89902 4.49959
2.02387 1.39923 1.84218
3.6067 10.6882 11.0822
1.58036 2.05345 5.29604
2.8144 1.04792 6.2247
18.1793 16.3293 8.83402
3.92623 4.27324 3.49592
11.8447 4.73892 3.08411
0.916197 0.849579 0.0680287
1.12013 13.3703 12.3993
16.5817 0.587581 0.188835
36.3827 14.1378 17.5603
2.86656 9.33166 7.11833
28.0726 12.1397 11.5271
1.38414 7.09995 4.51392
13.733 1.78609 0.449166
21.401 35.1018 28.0184
25.5454 7.83923 8.62452
11.9076 3.82191 6.02901
13.8513 5.09871 10.8582
19.9125 2.60328 1.52769
12.7811 10.1044 7.11457
7.27667 0.221354 0.725132
33.2676 20.3873 22.7193
4.29613 15.0862 14.689
14.334 2.78142 1.59918
25.9404 18.4893 20.1766
3.0818 1.34143 0.019416
8.40519 23.9851 29.609
23.3596 5.37001 1.23032
19.085 10.0973 8.88694
0.534373 5.79767 10.9677
29.7959 5.3006 1.30053
26.3791 7.81695 6.6666
14.3405 3.99116 8.7735
7.84664 13.4724 7.92796
19.5063 19.2979 27.3362
12.8751 0.204299 1.75459
7.02003 4.96579 1.57903
9.3945 0.57471 3.89553
8.26438 30.347 24.8926
13.8116 0.219502 0.759862
14.9377 8.72047 11.6512
2.84179 8.64855 8.01962
13.5758 0.578763 0.931378
0.0786385 6.34436 7.78295
9.39706 0.848912 0.0674976
7.97001 6.5429 4.9378
12.4955 13.5475 19.8818
13.8615 2.74719 3.53305
20.2611 11.5139 8.98523
5.13663 9.69865 10.1668
18.6336 6.32272 4.35373
20.0677 13.6595 15.363
1.86107 1.27223 3.31903
7.33431 2.00667 8.44492
15.4507 30.6457 28.8336
16.1975 6.37032 10.9855
45.7228 18.6577 13.8191
14.1224 11.2917 16.6847
2.69176 20.8095 41.1324
35.6165 30.0097 17.4967
18.0455 5.84075 5.07055
7.48005 3.05009 5.82623
23.2085 3.33922 5.39962
6.08702 12.2786 7.45602
2.09066 3.41192 2.6731
3.63744 1.99195 2.58014
1.90691 0.797297 1.52904
3.58991 19.6486 15.8414
0.607921 12.7648 19.421
3.38845 0.653293 3.69352
7.10114 2.5559 6.01201
6.72417 15.2244 18.5251
10.2071 9.79295 16.8257
15.317 17.9323 10.1998
8.79706 2.73968 1.11508
15.3121 10.0533 8.22638
26.4988 16.2763 20.3943
9.31069 4.23783 8.09089
11.1852 7.35855 20.8805
5.15722 6.49282 2.41893
13.2529 1.13127 0.503014
37.383 12.6997 9.82946
24.395 9.93087 15.198
26.9616 6.67584 6.6536
33.1252 16.3743 26.2001
7.46323 3.3832 2.51312
12.553 7.00465 17.7255
32.0526 13.6572 20.1814
12.1024 6.20727 0.61093
25.5694 16.6155 13.5585
16.1418 16.9247 20.316
5.32281 4.86129 14.8685
1.77378 1.56884 1.13427
6.70826 6.19781 6.20973
7.52113 20.8069 25.047
26.6362 15.6574 15.4707
3.73442 0.144051 1.07163
28.0476 21.6614 22.2509
5.93881 0.524439 1.44496
25.1163 25.4851 25.4283
5.2604 4.42973 10.7945
36.6043 20.1515 24.2139
11.1912 1.20377 3.02128
1.87913 13.8723 22.6533
22.1701 8.8526 16.5222
26.0113 11.6494 25.4511
22.866 0.596516 1.06643
11.4577 2.76568 15.4842
40.0707 4.49623 2.13053
30.6363 7.10823 14.8372
63.7742 33.9848 18.3254
25.7188 25.9041 28.1681
6.23326 7.51874 14.2976
2.26825 24.6283 30.3038
1.38557 7.75674 17.5264
4.01588 21.0403 56.1013
21.5946 6.48779 14.6204
41.4688 23.2089 13.8462
6.1809 5.23304 11.4735
4.09451 9.04206 2.73913
7.13224 32.1184 39.1157
5.22039 1.83288 8.10346
16.7067 3.61727 2.67222
16.3213 5.559 6.3453
13.8948 8.5496 23.2577
9.25119 13.8272 10.0369
4.75702 4.12143 7.43078
10.4998 2.12122 8.2087
18.9943 3.43463 3.15696
24.0171 39.7663 90.2019
56.6716 33.9759 16.0897
22.2964 14.7424 24.3085
8.57277 4.35648 2.05979
7.23235 6.47748 11.5155
5.00406 3.07643 15.2679
36.3375 39.7011 59.9633
25.7023 6.474 9.00524
6.68209 9.54497 9.28451
19.941 22.6743 17.6463
4.95062 10.0771 12.8772
0.0457382 11.2031 29.5912
17.4988 8.64362 5.18756
0.558835 2.58252 5.43828
2.73271 0.755971 2.97398
8.71707 3.84809 10.3243
12.5101 10.2537 19.5146
3.3493 6.1992 7.67734
0.763165 4.28616 1.22406
1.52803 14.9781 17.744
14.7675 2.33712 4.27324
4.85711 2.93035 4.39423
27.2247 25.2054 59.9258
33.1363 12.9169 2.0712
24.9682 10.0105 8.07246
13.4761 2.47625 3.6663
26.7214 23.8571 21.1991
34.4798 22.1333 31.5223
6.83194 1.82844 3.84154
13.1438 5.8198 12.4085
14.695 9.35949 12.1087
5.02881 1.7864 5.06974
25.0914 29.0289 58.4556
7.69048 2.31802 18.6995
36.249 37.5872 39.3052
1.01948 2.54603 11.3512
11.1808 4.8826 10.5497
21.6259 18.8391 23.1127
1.83984 7.00364 24.5827
13.026 4.06765 1.28693
28.6961 22.4835 26.7638
1.99469 2.02651 8.0045
10.6739 13.3589 18.3301
4.49149 12.1618 27.3353
26.6428 6.26639 8.36409
24.4829 15.9561 33.248
25.5291 10.6964 3.5376
15.6817 3.05033 1.54909
36.7744 25.8717 25.6983
8.4951 13.7872 19.3176
2.70214 29.3363 56.799
7.08794 5.82501 30.1501
14.3361 0.81001 18.4403
23.8492 1.89614 1.75386
17.9065 4.56347 8.23181
26.4483 11.9598 10.1848
19.5959 18.3979 27.4331
3.86395 10.7337 4.94238
1.45627 19.4665 33.4796
4.91572 2.17004 9.29487
13.5086 14.9551 13.3903
1.20197 1.21198 1.19615
1.35233 2.34889 4.99406
6.84304 12.3455 14.6201
1.8041 1.10223 0.0855452
6.91259 23.2431 28.2509
10.1322 27.6935 68.8344
6.52849 4.35206 39.8446
13.4606 1.74925 8.36538
6.66156 24.3958 16.8743
2.90572 6.98562 14.6017
5.93844 5.60985 20.3526
30.3725 25.7384 23.8224
0.470544 26.1472 42.9115
11.6778 9.65312 26.107
29.7665 11.2251 9.0643
2.98577 10.3192 10.544
11.8141 19.3765 40.3173
8.68307 38.7013 65.2795
6.76705 2.81436 24.2073
12.4115 1.51563 1.46558
5.45441 0.242155 2.26242
4.38388 8.95333 11.8831
7.53499 2.8021 4.44696
0.950083 13.1775 25.4134
8.42767 1.27972 0.754141
1.47802 1.38311 1.85397
9.8574 4.9366 14.1638
0.300905 1.30037 0.453541
1.05091 1.64586 0.273157
0.0112127 12.0212 18.513
12.4597 12.4933 17.1136
44.7573 45.4295 68.7059
2.2411 2.62645 11.5729
0.445313 9.27374 17.3131
22.7651 8.10438 11.859
15.8104 15.9653 40.3596
0.355867 2.98863 4.55025
4.55729 1.92711 15.517
4.53675 12.988 9.36552
11.5397 7.37169 12.8959
3.67195 8.93306 24.663
2.21699 8.78952 11.1645
7.75039 2.89013 2.77312
2.3575 0.671966 3.24731
5.33873 2.83607 3.3361
3.33497 3.02713 8.1467
0.113663 2.32245 6.96161
13.7207 28.0396 47.8932
3.81413 0.973863 10.6357
5.43331 4.01956 8.19039
9.29814 10.1312 25.7717
7.70939 7.6651 47.612
45.8731 14.4955 3.66888
26.0516 10.6215 3.75387
18.2863 6.67401 3.53869
19.6868 21.6407 29.841
3.71749 8.14463 23.0976
20.1804 6.27045 13.0484
7.16385 0.144078 1.23904
8.97904 2.80479 11.2891
16.7742 5.49381 19.951
32.5841 49.0218 64.7322
7.10361 2.7757 6.70735
2.90819 19.0931 54.4748
6.88227 4.08746 23.1019
10.1504 1.38597 12.6412
13.0768 2.92024 0.421872
5.84221 10.7878 13.9281
1.32754 3.88323 19.6087
5.24005 12.0394 37.5364
17.3302 15.0436 9.33577
6.69775 13.3872 20.5852
3.22919 9.44254 19.5546
0.902252 21.8012 100.097
42.6656 21.7311 18.2738
2.4156 0.372905 21.3128
8.64761 18.985 4.07928
1.33696 19.9873 21.6527
4.80948 2.54631 2.02647
0.499622 33.0614 73.8344
16.3386 3.48292 38.4968
13.6949 10.5071 5.32419
18.5569 39.7186 61.0532
7.76184 1.27966 0.30995
0.0430912 17.7793 41.3454
20.1493 20.4711 56.2251
17.0825 18.5413 20.1519
2.26476 0.355348 6.66571
0.449477 7.87297 18.1046
11.9621 13.0505 8.58127
3.81306 18.341 42.1589
6.09399 2.00354 12.4286
16.0818 29.7382 86.5601
5.22184 9.97823 0.855472
3.28251 33.7785 57.4087
8.97304 10.1709 45.2862
25.3668 9.22168 2.99279
7.72221 0.349081 0.927646
21.0238 13.6118 18.0973
8.69481 7.60703 27.6108
3.44656 0.782521 7.24859
2.22103 0.190074 6.30486
1.95436 13.9047 12.3728
4.87338 1.47174 2.17911
5.97029 2.50471 6.61598
12.438 3.36683 7.15969
3.94397 3.14598 20.7407
7.07366 13.0719 24.9046
4.37275 16.3958 27.6272
10.3922 5.70756 16.9926
2.29368 9.92295 16.6418
4.1057 33.698 66.9147
8.80314 0.293012 2.8973
3.2768 1.215 8.53896
7.76032 5.13604 14.3139
5.50531 2.93603 9.29702
1.98623 1.21952 26.6071
12.199 39.326 57.1423
7.38399 7.79546 14.1299
2.43658 4.19463 2.78246
3.52941 0.869853 11.8781
5.96438 36.828 66.6388
17.3634 4.38705 14.9294
1.07771 31.6917 53.3391
11.4088 1.06645 4.53419
5.00804 16.4251 72.6145
35.3864 13.5654 9.28102
13.8963 11.1249 18.6531
12.8047 12.7015 56.8602
9.49928 8.12287 23.5445
3.4918 33.148 53.7153
14.3272 22.075 58.6625
10.2291 4.82199 1.5859
0.83111 1.02746 2.37289
3.71677 37.4151 86.6953
16.2852 8.35901 4.68158
3.13468 5.74693 14.9482
1.48416 5.02089 10.0103
1.56731 6.15319 31.1024
6.84765 1.78719 5.86488
4.09471 4.07922 24.8487
17.6649 12.6788 44.8073
14.9654 8.73251 10.5695
17.0021 51.7204 65.6466
10.2384 13.963 67.457
6.27174 34.3812 35.1037
3.28867 11.0682 34.0893
8.65117 11.5292 42.7824
18.5994 1.64396 3.32409
12.9176 2.35309 5.10435
1.60463 4.21131 9.53218
4.3982 4.50558 21.2093
16.5022 3.89166 4.23946
2.61712 0.96264 2.24048
7.20927 4.73385 19.9478
2.97301 0.347496 4.99793
1.46516 11.3957 16.5802
6.15167 13.9157 42.1152
15.7975 18.804 44.4584
1.77275 10.0699 11.8774
4.32726 2.34555 9.76488
2.42113 11.9408 22.445
6.2385 6.13319 26.9598
3.56131 8.65858 23.7498
1.85236 22.5544 53.5624
15.8938 19.309 27.7432
6.40284 1.68683 14.2064
15.8748 8.52569 12.25
6.80949 6.37821 28.3044
1.2628 7.18264 8.17976
