# pn-170911/RbIIR-53-PTBB-1280-1959.psd
# Power spectrum* (dif=0,1,2) (really just |FT|^2)
# NOTE: only the first half! (symmetric)
# weeks: 1280-1959
# 4 clock-days, 0 excluded
# PSD: 1441
340.722 0.182408 0.0602617
44557.2 0.567967 0.00262586
145297 2.62615 0.00274216
29388.2 1.21422 0.00281453
59010.3 4.25385 0.00295384
4545.95 0.545276 0.00267192
1969.23 0.196579 0.00294709
1498.24 0.199547 0.00286465
1954.22 0.575058 0.00297678
1810.66 0.448737 0.00219361
1285.94 0.280025 0.0031309
1093.85 0.561088 0.00403152
1338.35 1.41668 0.00468981
1204.61 0.982468 0.00483798
711.129 0.606522 0.00453608
535.947 0.76696 0.00437224
1034.8 1.48629 0.00326325
326.568 0.518826 0.00167837
734.81 0.754001 0.00572385
203.656 0.303169 0.00360555
844.43 1.24924 0.00822643
824.115 1.60076 0.00647888
837.045 1.33375 0.00508082
300.205 1.10261 0.00730896
501.007 1.1052 0.00378057
560.14 1.66211 0.0118408
559.149 2.32002 0.0162235
782.896 2.71429 0.0104187
452.626 2.14724 0.011015
1056.24 2.93609 0.0209439
339.797 1.07627 0.00701731
1081.21 4.28254 0.0131924
542.67 2.15091 0.00948291
606.047 3.08667 0.0206036
948.617 4.91234 0.0302232
170.199 0.661701 0.00985742
491.269 2.88243 0.0277657
735.303 4.45132 0.0265271
861.541 5.16826 0.0432946
521.933 3.558 0.022297
788.201 5.72551 0.0544273
972.438 8.22122 0.0816108
545.455 4.32306 0.0400971
483.981 3.75764 0.0366583
412.972 3.70147 0.0491428
682.963 7.32155 0.0849133
409.923 4.88071 0.0458721
1047.36 12.2512 0.125152
481.585 6.13596 0.0609203
530.148 6.31014 0.0777062
140.154 2.73941 0.0368337
2025.36 22.3814 0.258726
1398.28 18.1164 0.235949
529.605 8.84376 0.121975
644.212 8.31914 0.122506
997.524 14.56 0.175076
518.502 8.52057 0.142394
1050.89 16.5103 0.255994
432.979 8.79632 0.138618
384.484 5.51202 0.0968883
415.431 7.83842 0.131712
842.919 13.2145 0.210985
297.929 4.89519 0.0890621
978.895 17.178 0.329179
672.055 14.7041 0.276256
635.767 13.1409 0.273777
817.286 16.6451 0.349857
595.786 15.042 0.291503
108.02 2.78985 0.0696448
331.728 7.75867 0.180371
440.954 11.4989 0.263358
378.397 8.01592 0.182283
620.904 13.8099 0.354894
285.672 6.66715 0.151706
534.257 12.1999 0.326746
408.34 11.9194 0.314224
160.977 3.75263 0.106475
491.462 13.9583 0.348089
562.941 18.0396 0.496213
327.561 9.37492 0.29421
228.71 6.76018 0.182163
273.886 11.4754 0.384923
291.155 6.20783 0.189066
212.034 5.83379 0.210383
291.071 9.39773 0.329922
143.888 3.44821 0.0991132
324.971 10.4981 0.397869
314.468 11.006 0.371325
443.093 16.8895 0.625808
598.525 24.6246 0.94238
512.673 20.6807 0.804903
457.34 14.071 0.519605
483.536 17.6202 0.748851
188.986 7.70991 0.334719
347.779 12.883 0.566893
450.151 20.38 0.914663
224.297 9.84846 0.437576
485.496 23.0843 1.04735
271.561 13.3556 0.612504
290.596 13.6427 0.672401
481.567 23.8985 1.19373
832.667 36.5911 1.69321
41.7205 2.07036 0.125805
518.742 24.5029 1.18619
221.506 13.0919 0.703968
117.98 6.54354 0.331254
397.24 20.4387 1.09138
453.718 26.2571 1.47003
268.84 13.773 0.811207
219.67 14.3319 0.937462
424.86 20.3224 1.11995
364.957 19.8908 1.10507
524.671 29.3662 1.65815
141.976 8.28948 0.494178
297.44 19.0898 1.11527
413.448 27.0556 1.68904
225.346 13.3506 0.842089
79.9309 5.0953 0.379519
163.8 10.4053 0.640825
422.736 28.2894 1.81088
280.397 20.2224 1.35698
405.108 29.9904 2.19813
119.658 7.46483 0.485866
295.421 20.4272 1.42284
160.746 11.9834 0.932997
191.25 14.0344 1.03655
181.797 12.7821 1.02257
76.8634 6.00858 0.394856
477.469 36.5585 2.83594
288.399 22.8199 1.78709
76.0563 6.68199 0.669287
264.024 19.0346 1.50243
242.087 17.3893 1.35744
633.203 50.3075 4.0171
159.722 14.577 1.40713
116.02 10.3219 0.846374
113.218 10.8629 1.05439
218.782 18.5328 1.64973
394.264 37.4003 3.35734
112.02 11.9322 1.30616
213.979 18.4774 1.58375
265.239 26.3724 2.38092
95.6023 8.89338 0.921218
214.485 18.5185 1.74149
59.6541 5.22697 0.504076
150.032 14.1396 1.51239
251.955 27.3806 3.0372
119.248 10.5345 1.12875
122.147 13.1478 1.4064
183.316 16.1459 1.66369
129.803 13.1377 1.47915
252.632 25.8469 2.59325
176.127 18.7859 2.23221
132.129 15.5628 1.68506
43.072 4.17093 0.3671
95.6891 9.19392 0.897589
149.141 19.3805 2.06726
197.926 22.0225 2.63493
240.282 29.7654 3.42649
126.366 14.8185 1.81831
257.336 32.2611 4.10727
118.981 12.7571 1.54778
140.521 15.6313 1.6629
288.832 35.615 4.5748
30.2901 4.3332 0.600071
138.143 15.4114 1.85526
73.0661 10.3189 1.3589
74.4802 9.23934 1.22297
149.564 17.7617 2.19229
48.2713 6.78322 1.09932
143.601 20.8546 2.72223
48.5712 8.51187 1.21094
75.7404 9.62058 1.24183
124.025 18.1059 2.68977
110.314 15.889 2.27949
127.695 16.3768 2.17659
71.9815 11.8776 1.8369
109.014 16.6761 2.62098
106.677 14.859 2.09253
58.4584 7.90741 1.16595
50.3693 6.93101 1.09063
66.2166 11.755 1.84003
255.129 39.0731 5.83497
117.144 21.0039 3.43607
166.427 29.0182 4.74046
142.711 19.8269 2.93632
161.43 29.2843 4.73885
130.355 23.7563 4.43897
111.269 21.2297 4.02673
102.897 15.3275 2.31279
88.4967 14.0709 1.9609
83.8676 15.601 2.57036
195.047 38.1153 7.12735
106.194 14.4189 2.36526
93.3829 14.1965 2.15627
87.7601 15.8855 3.19202
137.531 21.8617 3.65757
26.9329 4.6475 1.04382
105.08 21.8194 4.48195
164.825 27.6676 4.53584
85.0601 19.0258 3.88459
73.7048 11.7507 2.39437
73.9387 14.3879 2.49361
72.2124 14.8882 2.89929
59.5751 12.5928 2.41623
61.3067 12.1731 2.27719
69.016 13.0413 2.1762
126.499 28.9743 6.09331
109.68 24.2586 4.92818
56.0284 10.8387 2.23157
72.3053 13.5677 2.8038
121.235 24.8448 5.02596
140.761 30.9519 7.01553
206.082 39.5574 7.29883
21.1325 7.21914 2.00561
60.064 14.0956 3.14487
50.8521 9.67863 2.2045
113.914 22.2097 4.61119
48.315 7.96315 1.61373
154.212 35.1729 7.47297
139.634 36.72 10.2516
154.622 30.1977 5.85352
42.4717 9.78643 2.09471
96.9008 23.3132 5.25068
31.876 7.31983 1.67663
127.257 34.1364 9.02098
138.624 32.7641 7.12483
76.352 19.3272 4.75079
114.73 31.5339 8.39221
138.904 36.6513 9.21879
139.545 27.6807 5.86549
105.487 25.2542 5.98841
114.461 26.462 5.95215
56.7252 15.3403 3.70564
30.8423 10.2226 2.74976
46.5933 13.4629 3.75465
60.1817 20.8029 6.22517
74.4331 16.494 3.67555
60.6967 12.7773 3.00278
79.4335 24.3478 7.65585
68.5186 17.3603 3.99406
30.5533 6.45811 1.54776
78.4135 23.105 6.70795
97.7327 29.7758 8.50797
53.5784 14.7871 4.49651
93.0195 24.2222 6.39213
76.0235 18.4528 4.2092
58.2444 22.0936 7.62569
216.494 52.5319 13.6771
84.6672 25.2759 6.81194
97.6932 28.6889 8.5537
79.1798 25.5085 7.42617
95.9104 28.9418 8.90506
39.1182 13.7359 4.85685
101.365 27.56 7.78252
88.9379 22.227 5.7234
91.1388 30.6918 9.79918
79.2636 25.5303 9.10657
87.63 25.9888 7.41174
61.4183 25.8186 10.4818
84.5508 22.1896 6.43308
55.1116 12.9264 3.2951
34.0142 11.709 3.8628
57.5493 18.7495 6.34125
138.645 41.0222 11.9791
67.3331 21.0524 6.87198
101.182 28.3649 8.66061
20.8747 8.31103 3.96046
48.7551 18.4129 7.3123
104.066 29.6003 8.65652
51.7108 16.965 5.74317
59.5582 20.2832 7.22036
54.0518 17.1311 5.71495
107.421 32.3336 8.51771
88.9597 34.5869 12.5739
43.6436 14.2344 5.6248
59.8392 17.0212 4.98298
29.755 13.0331 4.87014
62.1067 26.6956 11.4407
84.5734 22.2183 6.11171
14.8685 7.49483 3.79669
115.187 37.683 12.7504
31.9078 12.2486 5.75024
69.9295 27.857 11.5514
106.889 34.2812 9.89036
40.6323 16.2595 6.50867
37.0587 19.4299 9.39991
45.2165 14.3018 5.75111
114.49 45.2346 17.0221
17.4156 4.97187 1.73844
29.7397 7.68579 2.39614
59.1567 24.5946 9.05191
37.7746 19.0331 8.84995
60.3003 17.8429 6.21107
90.3131 32.2757 11.8631
81.2525 34.8208 13.232
50.6586 24.4683 11.0966
47.6531 15.4822 5.46846
16.4231 4.83127 1.81151
34.0947 14.7833 6.83097
75.0681 28.2954 11.6312
98.4367 47.4287 22.4949
37.9867 9.48665 2.95948
74.1246 30.4026 12.7259
108.415 43.418 15.5097
38.7542 18.9304 8.76455
36.0669 13.8785 6.1159
110.543 51.5546 23.5826
69.5231 27.6139 12.1336
80.4243 31.3657 12.0092
25.7186 13.8729 8.35954
79.0479 26.4643 8.03304
45.7181 15.7458 5.28823
104.318 42.7815 15.8248
47.6861 25.0793 11.1006
37.6181 19.4762 10.0444
48.1747 25.5327 12.9431
37.6236 17.2364 7.21642
48.6551 23.7542 10.7519
42.0936 25.726 13.424
21.1877 13.0007 7.87082
73.9323 36.2369 17.3252
71.1994 30.5663 13.4572
35.9304 17.0281 8.68004
41.2439 24.0717 12.8064
57.1867 24.0742 11.1982
66.5458 32.5067 15.94
65.7048 37.5197 19.2693
52.8417 22.9879 9.71932
34.3626 13.0835 5.48618
67.1303 28.8344 11.2485
84.8125 47.9643 23.4044
45.6353 29.7133 17.3643
51.2819 20.6469 8.73047
41.0254 26.3912 15.8531
32.2828 22.1984 13.8032
40.2098 19.7951 10.5084
25.236 20.2389 15.7344
94.8993 36.463 13.5351
30.5378 15.2517 7.05006
47.0625 27.9876 14.7574
50.0451 24.9324 12.3393
67.9332 40.6845 22.945
64.0384 32.1796 17.4079
78.3492 41.8986 19.6652
25.4663 14.6881 7.45336
46.3581 30.8178 18.4154
26.2921 13.225 6.6353
38.7793 22.6249 13.1549
53.047 24.4379 10.8743
48.898 36.7734 22.6461
16.998 5.93802 3.89241
57.3999 30.8202 15.4268
40.1154 22.7477 13.9808
70.4117 39.6968 20.7551
22.2041 13.5101 10.1406
55.7856 29.514 16.3556
57.2862 28.1485 13.6142
59.0315 39.028 23.3573
13.4742 8.16891 4.86425
33.7448 31.3792 24.5532
57.1039 26.4028 12.3875
29.5099 18.5369 12.3389
30.7116 17.806 11.5379
26.2708 15.0695 9.64305
30.1077 20.8736 12.9499
37.6044 19.931 13.2104
70.1582 40.5358 21.5825
18.6954 14.4334 9.83658
44.2473 28.6532 20.2951
55.6735 30.7709 16.6547
13.8938 11.0726 9.85245
47.4034 21.183 7.42752
44.7269 36.0473 26.82
68.3207 39.2209 21.4032
45.6731 29.3808 17.2579
25.2526 16.1956 10.923
40.4922 27.4139 19.373
73.5955 50.2987 29.2307
26.8266 17.242 11.053
17.9605 18.0664 14.6684
26.8847 25.2823 20.2489
40.6484 33.5581 27.4207
45.5529 24.3189 19.0483
75.141 38.0974 18.1879
28.0731 17.8047 12.9827
45.8768 29.6702 19.2572
34.5845 23.6755 16.5773
30.6077 16.8574 10.523
11.0401 3.81076 2.98969
31.4055 16.7661 8.75302
32.9316 19.7283 12.5072
66.295 45.9899 32.9079
52.3573 35.6085 23.6443
68.7817 45.1853 27.4571
27.4301 26.3549 22.8076
58.7623 38.98 27.6414
44.9898 32.2434 24.0717
10.1532 3.20448 1.63259
36.3189 27.5565 19.0724
30.0002 17.9561 9.53548
40.5633 30.6433 21.5785
24.4183 20.7689 16.8985
49.2523 29.9724 16.6844
13.2685 15.1702 13.8109
16.013 8.81579 4.14615
26.6045 23.8906 18.0721
16.5889 10.1698 5.63864
8.95005 9.72286 9.46196
44.3427 34.3208 25.6404
46.2651 29.5393 19.3897
27.3374 28.5065 25.4602
21.2687 17.7621 15.5839
29.8515 19.4011 14.378
36.3056 31.2102 23.2812
41.1297 34.7163 28.8976
34.5284 20.7538 14.1399
19.6904 19.8404 19.4555
25.0442 18.7689 15.6598
61.2203 44.8897 29.8605
22.2481 24.5598 22.8488
46.6443 39.732 33.9771
48.3739 31.8007 19.2961
20.3272 13.9823 8.95271
7.98863 8.92186 8.28086
19.7257 17.9872 16.3172
39.6125 32.9679 27.1535
38.909 37.3345 34.7277
44.3681 29.3635 20.2945
44.5665 39.3933 32.5394
33.2608 22.6027 17.581
40.3709 33.1307 24.2537
27.5746 21.7613 17.9621
28.6352 27.5407 27.0981
25.8975 12.0466 4.93656
53.3922 50.0824 38.0914
25.4821 25.4815 24.1721
22.4896 19.5285 17.2579
20.1628 19.6063 16.6835
30.01 35.4069 38.4782
17.177 15.5299 20.3831
38.4161 27.312 22.2265
29.2293 27.8632 27.9367
40.2413 31.9201 23.1335
18.8628 21.7211 21.3472
10.1113 7.78704 9.94916
10.8725 5.75885 8.2017
35.8818 27.1633 19.2421
23.4678 26.3014 30.9019
34.8399 20.6019 14.3736
20.6703 26.2009 34.763
51.8966 29.1649 13.7465
28.5551 25.3472 18.9945
28.5239 22.5882 17.4847
8.73852 7.65997 9.32173
22.0555 14.7564 8.16946
30.853 30.4919 27.0428
53.0933 53.4494 44.8982
27.0723 25.8855 28.6937
52.6184 37.4265 23.8833
44.8747 49.7608 45.5345
9.98643 13.1193 21.2313
42.296 43.8456 41.4051
30.9703 25.6027 22.6882
43.8771 43.8516 39.6406
51.5479 54.7435 56.3748
52.6514 49.2459 47.3146
35.3693 42.9973 49.7794
41.0277 27.4596 19.8007
17.61 15.7657 17.4633
17.5415 16.6028 19.0199
29.8525 19.1789 10.064
25.9049 31.0948 34.0136
17.1039 19.7297 27.9954
52.0316 44.6193 35.8833
33.7833 27.701 18.3771
23.2547 30.4676 33.34
14.4731 11.7739 11.1684
37.8161 46.17 50.9118
40.2435 35.0764 36.5699
51.5608 48.6488 44.2217
10.4232 10.7986 16.6866
24.7205 22.6598 25.1608
56.5458 51.9146 42.1216
22.0905 22.6789 23.4811
28.0933 27.3984 24.9247
14.8503 15.9414 17.2333
23.527 25.4896 28.6306
28.681 34.1411 37.2852
37.2921 40.388 46.4307
33.3144 36.2827 42.3833
40.7327 29.5764 18.6281
14.7465 19.8988 21.5074
24.7746 31.7867 36.4894
50.8428 65.817 78.7016
26.7906 14.2284 12.9113
16.1898 13.9544 13.6596
13.2455 17.2401 25.3921
36.4968 34.6605 36.4159
36.5714 31.8549 27.4542
23.2183 35.9561 47.9483
43.2288 32.2837 25.1259
17.3967 23.4852 33.5108
41.3903 33.3032 25.6454
26.4498 31.2413 32.3633
34.2534 41.7412 48.5012
12.068 5.79135 3.54578
24.0407 31.1173 35.0844
31.4688 30.3138 29.0524
11.0602 11.2552 10.6193
12.1527 11.7514 8.59278
13.0349 21.4825 26.753
15.3481 21.0967 30.456
14.984 9.23032 8.78672
22.1605 32.2997 42.1956
28.8074 37.2611 52.6708
38.6727 25.3755 15.2057
10.0354 14.1601 20.3367
11.1907 9.60435 10.7101
16.1842 16.9409 25.0585
50.2785 50.272 43.4724
20.4904 30.1479 42.3643
36.4465 41.49 52.8273
59.8643 63.7723 65.9338
17.1882 20.7368 32.3207
54.8106 55.2718 52.4282
21.6775 25.2017 27.928
20.4893 27.5975 38.5121
45.1799 47.0328 43.5336
18.3154 17.9523 21.5157
49.5554 73.9985 88.6373
24.7684 22.584 27.1122
31.6358 38.4564 48.8137
50.2331 58.7808 62.8954
19.9639 27.129 35.3188
27.14 35.3377 50.9153
49.5335 57.2068 57.9052
13.0664 20.8281 34.8945
14.6168 21.5117 44.1548
33.5708 25.3655 23.9418
61.2718 79.9402 97.5045
22.5343 15.5111 8.97195
25.9955 36.7803 44.5161
34.3767 45.3028 56.4469
10.2314 14.114 22.8845
17.3629 16.8991 13.9767
12.1556 23.7236 39.0335
21.5882 30.7222 46.0968
22.3033 25.1516 32.8125
16.8533 18.1873 27.3133
27.5101 28.3515 24.0632
20.5042 29.6601 33.4676
18.0859 24.3425 30.9899
12.0397 22.0287 43.9273
57.2417 74.3205 88.7319
29.8959 28.145 27.0141
12.4845 17.8806 27.2303
19.0465 22.355 21.8128
4.10071 13.5753 32.4946
25.5799 24.759 23.0211
21.3816 38.7127 57.2926
17.1897 16.1923 18.8717
10.7933 12.6467 18.3629
20.1048 26.9243 36.6651
11.1908 16.3068 31.9398
32.499 30.6174 29.9271
25.2958 32.767 36.1077
13.578 14.928 14.1006
8.22305 16.3761 24.8036
11.0761 12.7157 18.9667
25.5349 47.0856 71.7771
24.1263 19.7614 19.4177
12.9092 17.0311 26.6163
17.0548 18.7819 20.0173
20.1524 29.9779 34.3244
14.0877 29.5589 50.2222
12.8837 24.0337 49.3938
26.5715 22.1043 16.3045
12.5066 21.019 35.1884
23.4672 24.0093 24.3256
4.47358 4.66457 7.62146
17.7256 24.607 29.0464
10.4299 18.5828 29.7525
13.7598 14.4069 17.0516
9.11492 10.2402 10.0211
4.89415 12.1005 22.9346
8.42181 10.5211 18.3367
15.5249 18.2572 17.7424
1.41529 5.3043 20.0204
31.3309 48.7136 63.5232
16.3152 22.4184 25.2021
11.8352 30.9504 62.0915
16.8829 13.4923 24.1839
26.6352 31.2483 32.1553
13.5641 22.0132 33.8258
27.2365 48.5033 81.7629
33.3471 34.7014 39.461
13.0073 15.6617 21.7833
31.7387 61.0189 89.97
18.3344 22.9636 38.6934
19.056 21.1732 22.9751
19.1727 41.1271 78.2164
17.4356 16.5814 21.2078
18.5867 27.2051 36.5985
11.7297 15.6828 22.5347
4.70466 10.1362 29.9932
21.4023 26.8944 35.9556
29.3557 41.5204 51.8488
22.3617 34.3724 54.8685
14.8473 17.806 27.9159
23.0539 35.2643 45.8493
6.40014 13.4869 30.149
16.6082 25.6318 41.2623
21.0814 28.8916 35.662
6.79181 8.50692 17.3755
25.1887 43.4659 62.8584
13.3465 19.8884 31.4902
18.1005 26.2019 30.2333
6.11735 15.7585 30.1901
12.1173 20.2589 31.654
5.57429 15.2893 41.6171
14.5783 16.3804 29.619
32.8667 47.2829 61.78
11.5934 18.2722 44.1155
23.5465 28.6063 24.6883
4.913 10.2595 25.3309
26.0948 46.6438 76.6552
12.7032 5.81054 2.44701
15.3362 23.6627 32.0227
20.1124 32.1391 35.2528
6.05367 22.6136 55.782
9.98439 6.81662 13.7156
15.9665 18.0052 12.3252
11.4064 27.7326 46.7437
7.7059 9.41592 14.3588
13.6316 21.5483 25.3063
7.35007 15.488 26.2519
6.36134 15.9128 34.0137
12.6941 21.5582 43.2598
20.0757 34.6703 54.92
11.3233 14.0067 21.8396
7.74512 15.4653 29.5141
7.53095 10.9695 17.0809
6.70419 16.7173 38.0375
9.29298 13.3229 32.647
15.2359 23.1459 40.7903
24.797 36.948 50.3732
22.5023 47.7695 89.299
28.0975 41.0486 48.1274
4.93084 20.8929 60.5265
14.7644 14.4578 27.5496
21.274 30.8015 39.941
9.70563 16.967 35.4399
15.262 20.9887 25.1345
3.31204 8.26031 24.4897
13.3151 26.2071 56.9864
41.1272 70.1962 102.798
12.4807 22.402 61.1899
19.2284 19.4754 16.5009
14.958 31.5543 47.055
15.3288 26.4883 38.6191
9.59042 19.2704 28.1729
4.23741 29.5516 103.774
35.9653 43.241 44.4802
3.80433 7.68888 28.6209
11.9094 15.6188 26.3176
12.6027 20.7355 34.0449
14.598 27.0604 43.1241
15.7906 28.8004 47.1089
20.2057 41.0078 79.4785
25.4785 45.7761 68.0018
5.3559 7.97614 26.9174
15.7694 26.4524 45.3733
7.149 3.82684 8.95861
13.3059 22.4832 42.1039
21.7656 31.3037 44.9446
22.9315 41.4469 56.9543
8.65799 18.4643 35.8561
9.91836 21.4891 36.6582
14.0969 31.1237 65.7659
17.9303 25.8829 36.3474
24.8091 59.5793 94.6846
6.22079 18.4607 69.1615
29.5847 37.8359 46.0745
10.5935 21.4433 51.1327
17.0438 20.9275 30.4788
25.2694 53.796 82.7735
12.1583 23.0587 35.191
3.55558 19.8262 61.0986
4.6725 5.26376 27.699
14.7989 23.6789 31.0314
7.67444 28.351 77.2458
14.9143 18.0612 26.6346
6.12692 10.5976 28.2544
12.7076 27.0917 74.4894
21.1901 24.0219 28.8533
11.7349 14.5053 8.8765
7.02787 14.8866 17.6089
12.9988 31.8531 55.006
5.27621 14.2129 32.5232
3.64627 8.20838 37.0293
17.3739 29.9261 47.3132
17.0591 38.1875 54.1363
8.6258 25.8013 75.0335
19.7834 32.9406 56.1125
17.7238 33.533 53.796
13.0316 28.6448 50.9932
4.43767 11.933 38.607
10.3623 18.1662 55.4123
24.2086 38.1395 50.3428
7.19458 13.888 26.6112
10.5492 19.4989 38.2246
7.82949 14.0736 29.718
10.2081 21.6883 35.2121
6.6556 12.2727 24.5672
5.52353 9.59737 11.1567
2.04299 7.62899 27.9864
11.6394 24.8491 41.565
11.9358 38.6728 103.518
19.5284 20.3745 27.2458
6.2157 9.80489 18.1678
8.9215 33.0748 103.889
23.927 26.8808 32.4752
11.7717 19.1943 36.1505
24.0507 56.4101 97.9831
12.4133 19.8814 35.763
16.5707 41.4611 90.3712
16.2182 25.3333 39.2607
13.4575 27.8289 40.6804
4.01845 12.2745 39.6629
14.5755 33.7439 71.8298
17.4447 36.3162 63.0259
10.5138 25.4219 59.8828
11.2672 27.3475 83.6991
25.8297 43.5404 48.8468
4.70573 20.2317 73.1475
24.1882 49.5501 98.6202
15.4144 24.7193 31.8224
7.31924 16.7498 32.617
5.64957 14.5853 34.9829
9.45563 20.1657 36.8167
3.15328 5.71 16.2987
11.6993 37.4659 96.2913
17.9371 32.4105 51.8149
11.5496 35.307 84.1865
10.877 19.0724 51.7017
14.6767 30.4671 73.4073
14.8364 23.6072 44.7405
8.31264 12.2651 15.3443
2.98344 9.58921 22.8368
6.48816 20.6563 54.1691
6.69148 11.3923 44.0624
18.5938 32.2692 38.7831
4.11307 7.82046 21.0349
7.6988 17.7617 36.2303
8.51792 16.3689 33.2228
9.127 22.762 49.4499
9.75684 22.0676 60.8411
11.7916 16.967 31.6203
10.2246 21.9822 34.5863
5.65808 11.0782 23.167
10.1349 28.1442 60.0974
14.4444 34.8251 84.9583
24.4125 53.9577 77.9891
4.38487 10.6227 27.9445
5.86157 20.5501 63.0383
15.8438 33.8392 57.8289
4.01247 15.1216 66.6209
19.7562 26.1962 30.3458
7.03517 17.7839 32.9188
2.0675 4.07547 8.11633
1.67452 12.4595 49.3451
9.63719 14.2369 26.5959
5.25819 12.8646 40.5468
8.51376 14.002 19.4303
5.63531 23.824 76.3708
13.5943 28.4308 51.8106
9.09001 24.6834 50.1814
7.40358 16.3698 41.5645
2.77016 4.17127 31.8359
15.8429 34.6599 49.6906
2.09733 13.1107 51.7689
5.8832 8.99552 33.31
5.23198 10.9368 33.6116
4.47833 4.22993 29.1831
17.8733 38.5303 62.2797
9.57885 26.6223 55.293
6.70433 11.2677 26.0546
4.90935 10.7705 28.8811
5.15654 7.56489 15.4855
4.18928 6.64505 13.1498
3.89952 13.994 43.3765
9.96611 20.8832 49.0956
8.75137 15.8896 24.324
5.00682 19.4041 66.6002
10.4142 14.3784 32.3484
9.32359 19.1305 42.9361
10.6046 22.8071 36.0979
4.21264 8.43436 24.104
8.68248 19.9908 22.9361
1.49587 7.19256 28.9798
10.9364 27.3966 47.0532
3.98429 13.3069 50.676
9.00112 17.1833 36.9837
5.26439 15.2143 38.1487
6.63374 10.0556 19.5176
6.31604 24.4505 87.1368
21.3047 49.2146 89.7314
7.10758 8.31081 13.575
6.62561 23.0989 61.1487
12.0578 28.4412 62.4415
5.91193 10.2472 27.0805
5.81062 8.85472 12.1645
3.9532 14.8258 46.4657
12.7573 31.2581 55.0682
2.17727 6.38672 37.9167
9.52854 15.6333 26.4612
6.79456 21.4098 50.3664
10.7713 34.5695 88.9456
10.2029 25.7197 72.9408
10.9427 23.1937 67.2357
14.2482 27.0841 63.8247
14.3783 34.3398 50.4139
5.24164 21.919 66.1983
6.62286 14.0239 42.5365
12.6053 36.3921 79.0146
7.89958 17.8086 38.8263
