# pn-170911/RbIIA-36-RbIIR-1280-1959.psd
# Power spectrum* (dif=0,1,2) (really just |FT|^2)
# NOTE: only the first half! (symmetric)
# weeks: 1280-1959
# 2866 clock-days, 656 excluded
# PSD: 1441
3634.64 0.202606 0.0288481
313451 5.55242 0.0147528
1.08787e+06 22.0019 0.0159463
306720 10.9999 0.0155277
205683 13.3766 0.0163756
97763.2 9.45599 0.0160852
68341.8 9.71929 0.0175833
47856.5 9.14065 0.0177311
38229.4 10.0952 0.0183024
29142.1 8.83604 0.0190981
27407.2 10.8 0.0202986
18819.6 8.23527 0.0208387
17876.2 9.26479 0.0223353
12863.7 8.6243 0.0222398
10723.8 7.73268 0.0223069
9566.9 7.93874 0.0255904
8064.94 7.81645 0.0252624
7143.5 7.88154 0.0267019
6363.73 7.62679 0.0276069
5344.83 7.4741 0.0282119
5142.78 7.65865 0.029701
4588.81 7.76067 0.0321154
4365.71 8.30791 0.0328739
3822.61 7.83886 0.0349936
3748.72 7.85738 0.0381243
3236.36 7.54961 0.0377125
2994.21 7.43084 0.03943
2716.65 7.60753 0.0430416
2577.94 7.50732 0.0437889
2614.28 7.93503 0.0473284
2466.2 7.95835 0.0542653
2178.81 7.57092 0.0516521
1969.5 7.39644 0.051311
2008.69 8.28353 0.0577696
1748.28 7.51357 0.0573088
1702.19 7.92854 0.0620178
1521.85 7.57513 0.0620356
1523.57 7.74583 0.067434
1451.08 7.53904 0.0678394
1357.18 7.36709 0.0689572
1281.11 7.50929 0.0735836
1272.59 7.77537 0.0787222
1235.17 8.06352 0.0829041
1112.14 7.8432 0.0851394
1061.5 7.67088 0.0865025
1012.61 7.9247 0.0931296
1023.87 8.02736 0.0984252
946.292 7.88369 0.0981385
931.856 8.22028 0.10469
889.6 8.01484 0.110954
831.77 7.99611 0.110481
812.151 8.05489 0.116795
821.669 8.20462 0.119563
763.642 8.21729 0.125158
806.882 8.63346 0.140058
732.334 8.62934 0.140812
716.892 8.57553 0.143693
718.559 8.6668 0.148985
662.667 8.50728 0.153638
633.741 8.6948 0.163533
623.334 8.40741 0.156994
619.632 8.9993 0.174851
611.125 8.61278 0.173395
574.497 8.71172 0.183255
568.64 8.93186 0.191539
562.952 9.01131 0.197825
563.454 9.05195 0.204281
538.44 9.15079 0.211739
514.834 9.22574 0.216192
527.57 9.70424 0.237826
501.019 9.13043 0.230432
485.254 9.51047 0.243135
495.53 9.62052 0.255622
467.254 9.55487 0.254557
454.107 9.34867 0.261418
443.306 9.86723 0.281936
441.907 9.97975 0.290983
424.374 9.79014 0.290777
418.079 9.73991 0.300725
398.633 9.5925 0.301451
405.146 10.0884 0.326884
392.915 9.92684 0.324246
400.607 10.6431 0.358294
389.88 10.4795 0.36464
373.337 10.4931 0.367574
370.836 10.5605 0.380973
365.024 10.5376 0.388447
348.097 10.3734 0.383183
352.512 10.8157 0.412863
347.323 10.9823 0.424595
337.391 11.0711 0.443012
345.962 11.3353 0.46335
325.268 11.1164 0.465141
329.686 11.4526 0.486532
297.444 10.7792 0.464456
317.472 11.4338 0.50464
321.619 11.8238 0.525244
291.427 11.1041 0.515049
297.557 11.6461 0.542508
286.658 11.3856 0.542933
281.109 11.3872 0.559556
293.496 11.8937 0.585826
285.968 12.1466 0.607165
275.902 11.7468 0.604018
281.99 12.1192 0.632545
267.824 11.9184 0.642601
266.529 11.9442 0.65231
269.147 12.3357 0.686403
269.046 12.5593 0.707079
263.722 12.4344 0.718176
252.055 12.3534 0.726786
260.644 12.659 0.755977
245.861 12.7618 0.77363
243.518 12.9498 0.803344
252.004 13.2764 0.834882
245.044 13.082 0.840585
245.844 13.3868 0.86464
240.759 13.1557 0.867132
229.598 13.0873 0.877203
236.099 13.4328 0.91892
227.553 13.28 0.919078
228.692 13.6437 0.965692
223.824 13.5206 0.969239
216.045 13.41 0.970085
226.421 14.0094 1.03427
222.14 14.1032 1.07093
214.88 13.5259 1.03019
211.327 13.6856 1.06384
211.209 13.9247 1.08873
205.011 13.8391 1.10183
199.019 13.4577 1.09818
204.198 14.492 1.20129
194.376 14.0458 1.16919
191.19 13.7811 1.16916
196.043 14.3747 1.24214
193.05 14.2112 1.2324
189.78 14.4382 1.27515
193.258 14.7715 1.3352
187.861 14.8095 1.35513
190.125 14.8107 1.36519
187.751 15.1843 1.42325
180.36 15.1874 1.43018
186.591 15.5503 1.49615
181.755 15.5726 1.52588
177.964 15.25 1.5037
183.98 16.0579 1.59521
174.722 15.2082 1.54223
177.39 15.7887 1.64186
174.491 15.7215 1.64782
173.925 15.7937 1.67304
170.568 16.0522 1.71219
172.566 16.2523 1.76468
167.836 16.1338 1.77344
168.08 16.5097 1.85454
167.64 16.546 1.86889
167.312 16.7789 1.91823
165.882 16.8654 1.95319
163.306 16.6403 1.94289
162.066 16.8108 1.99444
161.964 17.105 2.05852
158.227 17.009 2.08176
158.34 16.9539 2.08057
151.741 16.9716 2.11391
156.938 17.049 2.1436
150.537 17.1579 2.20894
150.704 16.9222 2.18817
150.635 17.2789 2.25948
148.939 17.4385 2.31267
149.234 17.4587 2.33562
145.063 17.3488 2.35176
141.813 17.0917 2.31105
140.307 17.3922 2.40919
139.397 17.2031 2.41017
140.795 17.7775 2.52288
137.477 17.3281 2.49022
134.422 17.3953 2.52612
138.906 18.296 2.67569
133.794 17.8427 2.64917
134.379 17.919 2.69458
138.941 18.8534 2.8412
130.817 17.7239 2.73767
131.05 17.815 2.74237
128.316 17.8336 2.80211
132.778 18.7761 2.97524
126.262 17.9974 2.89303
130.422 18.7799 3.02392
128.404 18.7476 3.05294
127.697 18.8351 3.10588
127.742 19.1916 3.21253
129.32 19.1686 3.2392
124.878 18.6694 3.15391
123.628 19.1305 3.30071
121.627 18.9645 3.31201
119.411 19.0192 3.33677
121.912 19.2238 3.40418
121.216 19.7263 3.51601
121.966 19.4532 3.50034
118.507 19.2812 3.52349
119.366 20.1306 3.71393
112.059 18.7624 3.49306
119.219 19.8517 3.75626
115.283 19.9107 3.78873
116.043 19.8825 3.84518
109.621 19.0983 3.70091
113.3 19.4825 3.82659
111.106 19.7815 3.90875
113.657 20.1199 4.00309
113.106 20.558 4.12861
112.121 20.3032 4.12379
107.838 20.0929 4.13744
106.813 20.0314 4.12812
106.883 19.9995 4.17358
104.848 19.8153 4.18537
108.716 20.8074 4.40348
107.528 20.639 4.44485
107.78 21.0753 4.56332
100.84 19.9383 4.35805
100.577 20.0438 4.47394
102.233 20.5448 4.58682
102.833 21.026 4.6873
105.477 21.4475 4.88269
101.771 21.0195 4.85478
101.35 20.8217 4.77058
101.729 21.3282 4.99014
101.372 21.6176 5.08103
99.2472 20.9945 4.98665
98.9953 21.2363 5.06629
95.4733 21.0187 5.05205
97.0653 21.3555 5.24292
100.057 21.7873 5.2738
96.3353 21.5244 5.31543
98.2368 22.43 5.58117
97.7577 22.357 5.66202
95.6385 21.8262 5.53829
93.6618 21.3001 5.45109
94.3438 21.875 5.63569
93.9045 21.9243 5.70749
92.0973 22.1413 5.81074
89.8968 21.8027 5.77572
93.9202 22.6035 6.01874
91.5172 22.6806 6.10089
87.6489 21.4858 5.81595
88.5708 22.1238 6.0662
89.6898 22.2712 6.07591
87.7885 22.0176 6.11801
90.9288 22.9588 6.42337
87.2292 22.6536 6.38124
85.7136 22.1478 6.35758
87.0741 23.0446 6.58257
88.5135 23.0483 6.63039
85.0565 22.3435 6.52402
85.7513 22.9153 6.72637
84.6514 22.7063 6.75562
86.9523 23.2982 6.91212
83.761 22.6541 6.78005
86.3479 23.3479 7.0453
81.1521 22.6224 6.88866
85.4154 23.7669 7.31904
83.4156 23.5713 7.24751
83.152 23.8348 7.45725
80.0155 23.1066 7.30071
83.0955 23.8716 7.58818
82.1101 23.4195 7.43637
77.5338 22.6975 7.29105
77.7341 23.157 7.48364
79.5593 23.5777 7.66778
78.034 23.5281 7.71125
76.2936 23.4891 7.77882
78.1791 23.7355 7.86324
74.1907 22.4726 7.58496
75.4823 23.4831 7.95225
75.657 23.3671 7.8894
72.8528 22.9678 7.91372
74.6278 23.584 8.14104
74.6625 23.3913 8.15453
71.8764 22.7344 7.95699
70.9208 22.9735 8.1739
70.9013 22.6443 7.97957
71.8374 23.3545 8.36493
72.0647 23.3117 8.37924
72.8864 23.5387 8.47656
69.3635 22.9707 8.43892
70.1519 23.4602 8.59411
70.966 23.6166 8.67837
67.6246 22.9975 8.65375
69.674 23.7211 8.9037
68.5326 23.3764 8.81557
67.6376 23.6396 9.03124
69.5057 23.7933 9.05584
67.2148 23.6596 9.13493
67.3555 23.7869 9.16339
66.2461 23.3505 9.1013
66.2875 23.7618 9.33112
66.066 23.6891 9.26602
67.3944 24.3797 9.85798
64.326 23.6441 9.48335
66.5746 24.4911 9.87751
63.9285 24.2052 9.76254
63.0341 23.785 9.76413
64.8216 24.4445 10.0324
64.1749 24.198 10.0491
64.3669 24.7575 10.3432
62.9436 23.951 10.0783
65.2296 25.126 10.6085
63.8658 24.6195 10.3848
63.5946 24.9251 10.7231
62.9429 24.9157 10.6523
60.9703 24.2343 10.5668
62.5975 24.8801 10.7499
60.1404 24.181 10.7019
61.242 24.7096 10.8331
61.9137 24.8792 11.0484
62.6476 25.5506 11.2856
57.3552 24.082 10.9721
60.6755 24.9453 11.253
58.4532 24.2817 11.0079
59.8076 25.3501 11.6224
59.6509 24.8582 11.4331
59.561 25.2222 11.693
58.5618 25.021 11.6478
56.8351 24.3238 11.5003
58.6477 25.1423 11.7979
57.467 24.8211 11.8051
56.4405 24.781 11.7928
56.4361 24.6339 11.7642
55.9935 25.0473 12.2105
57.1401 25.3351 12.2067
56.1995 25.4078 12.5194
57.562 25.6526 12.4462
54.3897 24.8271 12.3579
55.1345 24.7722 12.2891
52.7033 23.9515 12.0189
54.4822 25.108 12.526
51.4597 24.1556 12.4532
53.5305 24.2938 12.3001
53.8712 24.6544 12.5982
52.7062 25.3852 13.0231
52.533 24.9735 13.0069
52.6729 24.7058 12.8045
50.8297 24.4601 12.7581
51.409 24.8885 13.0658
50.4351 24.0958 12.7988
51.2891 24.8979 13.2415
52.0371 25.5334 13.5765
48.6214 23.8013 12.9236
48.2542 23.896 12.9828
51.5328 25.3592 13.6396
49.69 24.9338 13.6334
48.1923 24.294 13.4425
47.6949 24.4302 13.6152
49.1243 24.8404 13.8808
50.0938 25.2895 14.1702
48.9549 25.3937 14.3497
49.1548 25.1639 14.202
47.7049 24.5766 13.9024
48.1939 25.2503 14.5397
49.0096 25.8358 14.7174
47.9504 25.5543 14.6863
45.9367 24.506 14.3068
46.223 24.5162 14.3503
47.0049 25.5626 14.9996
48.1939 26.4271 15.624
46.7855 25.6374 15.1502
45.3681 24.9972 14.8178
46.6812 25.9067 15.6537
45.9688 25.1288 15.0061
45.1306 24.7893 15.013
46.4852 26.0975 15.929
43.3111 24.3349 14.9267
45.8513 25.7335 15.7215
43.7757 24.7908 15.3784
45.0886 25.8516 16.165
44.7041 25.5117 15.9581
44.1726 25.1732 15.6013
43.6442 25.6572 16.3995
45.2062 26.2183 16.4926
44.1161 25.3736 16.1499
42.3819 25.0196 16.1839
42.878 25.2993 16.2549
44.1528 25.7532 16.6042
42.0735 24.6995 16.127
42.4343 24.9596 16.1994
41.1991 24.7547 16.1573
42.0682 25.3317 16.6151
41.1833 24.9791 16.6871
40.1615 24.288 16.0661
40.9749 25.7931 17.3694
42.4485 25.8367 17.2733
41.9426 25.6548 17.2684
39.4315 24.5406 16.8808
40.5139 25.2272 17.2221
40.7853 25.8705 17.7163
39.8465 24.8615 17.277
40.0638 25.2891 17.4471
40.2616 25.7356 18.059
39.8256 25.2593 17.4569
39.0903 25.2638 17.5419
39.3784 25.8 18.2829
39.2411 24.9957 17.5861
39.0667 25.7603 18.386
37.8717 25.0696 18.1272
38.787 25.6278 18.4533
38.3364 24.7668 17.7781
37.926 25.1573 18.4208
36.7185 24.3397 17.5948
37.0049 25.324 18.6264
37.6369 24.8269 18.1841
36.987 25.1417 18.6019
37.0269 25.4394 18.9673
38.2167 26.1305 19.3434
37.3242 24.9238 18.5162
37.2354 25.3107 18.9592
35.9959 25.4083 19.223
35.6858 24.5043 18.6014
35.6302 25.1149 19.25
36.042 25.2105 19.3874
35.3858 24.9895 19.3714
35.6184 25.2544 19.4226
35.963 25.2709 19.433
35.0782 25.425 20.1764
35.55 25.2044 19.5996
35.658 25.835 20.3457
36.0891 25.6681 19.9364
36.0044 26.3735 21.1337
35.414 25.3249 20.0801
33.4512 24.5871 19.8001
34.1505 24.9878 20.035
34.2461 25.1671 20.3828
34.9524 25.3078 20.5645
34.1509 25.2181 20.4571
32.9225 24.7448 20.2241
32.3718 24.2473 19.8926
33.3247 25.0868 20.7353
33.2183 24.8264 20.4914
31.9973 24.0157 19.8101
31.9599 24.6918 20.7093
32.8121 25.0222 20.7842
31.7149 24.8597 21.3826
33.4275 25.7827 21.6348
31.502 24.9786 21.24
31.1267 24.4753 21.0812
31.5985 24.4103 20.7439
31.1116 24.6029 20.98
31.1006 24.6339 21.4331
30.8981 24.9837 21.9315
31.2735 24.5905 21.3263
31.1168 24.7908 21.3558
30.424 24.1922 21.3647
31.4651 25.9739 23.0666
31.0446 25.2886 22.3493
30.7881 24.8066 22.0451
30.3712 24.7593 22.1086
30.5058 25.0064 22.3482
30.3986 24.954 22.4162
29.4325 24.3904 22.2115
30.1878 24.9108 22.4466
29.1402 24.3575 22.5867
29.6605 24.7163 22.6043
30.5424 25.8943 23.6637
30.4168 25.719 23.539
29.782 25.3834 23.6654
29.7483 25.8746 24.3669
29.9899 25.1563 23.4059
28.7831 24.5472 22.7908
29.3555 25.2045 23.9225
29.2134 24.6669 22.9554
28.7841 25.0657 23.9621
28.7623 25.4889 24.2857
28.2862 24.7038 23.5096
29.4491 25.6807 24.9632
28.2692 24.3568 23.3913
28.1979 24.6108 23.9671
27.9373 24.5937 23.7041
27.712 24.536 24.2147
28.6978 25.2535 24.418
27.2793 24.7219 24.4335
27.715 24.9412 24.2069
27.6859 24.9803 24.5288
28.4154 25.7646 25.2525
25.8282 23.9993 24.358
26.4385 24.8931 24.9699
26.2136 24.6533 25.0622
27.4344 24.9851 25.2784
27.4307 24.7553 24.7505
26.9382 25.7159 26.7264
27.5924 25.3434 25.3668
25.3633 24.1657 25.0104
26.93 25.4518 25.9959
26.5934 25.1342 26.0171
26.6803 25.1729 25.7265
26.5475 25.7176 26.6756
25.3452 24.3229 25.4168
25.8264 24.6122 25.8071
25.1401 23.9128 24.952
24.7706 24.2809 25.8571
25.5896 24.7037 26.3364
26.4114 24.9795 26.1906
24.7669 24.0158 25.9061
24.8251 24.0871 25.8326
24.8675 24.4926 26.3983
26.1807 25.6609 27.4307
25.0237 24.7073 26.7228
24.7095 24.3634 26.351
24.6621 24.4291 26.6063
24.7622 24.8829 26.8946
24.3428 24.778 27.2185
23.5367 23.6502 26.3354
25.238 25.1211 27.6692
24.8506 25.0485 27.5441
24.2962 24.5247 27.3591
24.1698 24.8364 27.4647
24.2184 25.1467 28.1496
24.0242 24.6146 28.1615
24.9076 25.6665 28.6082
23.8098 24.4284 27.4182
23.3613 24.3677 28.1169
23.8726 24.7666 28.0415
23.1349 24.7228 28.3417
23.0431 24.1564 27.7886
23.2594 23.9417 27.3896
23.45 24.9096 28.7271
23.2374 24.8957 29.276
23.0835 24.1915 27.8735
22.8839 24.2592 27.8918
22.5758 24.2364 28.6427
22.5942 24.1699 28.1612
22.2604 24.3676 29.0936
22.0979 23.9622 28.1957
21.7702 24.3072 29.4404
22.6143 24.1183 28.686
20.9243 23.2774 27.8657
22.5098 24.8663 29.8146
22.3785 24.6398 29.5421
22.1104 23.8823 28.708
21.6173 24.1582 29.4812
22.15 24.7303 30.1139
21.3313 23.9231 28.8768
21.635 24.1724 29.6601
21.3398 24.0834 29.85
21.5357 23.7723 29.4301
22.0081 24.4861 30.1674
22.468 25.4331 30.9447
21.607 24.4192 30.4064
20.902 23.7508 29.5545
21.0191 24.3685 30.6735
20.8588 23.8549 29.792
21.4006 24.5306 30.8452
21.4655 24.5402 30.7565
20.6871 23.9157 30.3715
20.4248 23.8819 30.3332
21.03 24.2536 30.3975
20.0866 23.4776 30.4279
20.4715 23.8769 30.3681
19.8539 23.4811 30.2699
20.7266 24.3755 31.7278
20.1908 23.8212 31.2397
19.625 23.2271 30.8208
20.8068 24.6372 31.6962
19.9814 23.6819 30.8157
20.345 24.5088 32.0199
19.9022 24.0249 31.8727
20.105 24.4133 31.8751
19.6087 24.1038 31.9185
19.09 23.2457 31.3153
20.1384 24.1912 32.2176
20.2851 24.2191 31.9856
19.732 24.4212 32.502
19.5854 24.4316 33.3873
19.4515 23.8376 32.1008
19.6482 23.9955 32.6094
19.7196 24.1982 32.7661
19.6012 24.4759 33.5349
19.2322 23.871 32.506
18.8218 23.4018 32.0106
19.425 24.6237 33.8338
18.8723 23.8368 33.0515
18.9195 24.109 33.7316
19.6608 24.9116 34.0785
19.476 24.3071 33.8032
19.0891 24.2716 33.865
18.63 23.6978 33.0701
18.2577 23.5696 33.3937
18.2789 23.0911 32.356
17.9894 22.9947 32.6681
17.7819 22.8895 32.0505
18.1973 23.745 33.8088
17.9985 23.363 33.5355
18.2865 23.7727 33.5724
18.6842 23.9834 33.9419
17.3647 23.0528 33.6498
18.05 23.63 34.0232
18.2704 23.631 33.6416
17.3558 22.7381 33.049
17.4999 22.959 33.4586
16.9734 22.4405 32.9629
17.331 22.8105 33.0634
17.2322 22.8051 33.5038
16.997 22.6619 33.4121
16.963 22.7658 33.4679
16.7079 22.8504 34.2309
17.4415 22.8836 33.6918
16.7197 22.3212 33.2445
17.1865 23.8881 35.1242
16.8711 23.1749 34.8909
16.8765 23.3719 35.3624
17.2455 23.2134 34.4669
16.5571 22.956 35.1181
16.9291 22.8558 34.2204
16.5096 23.0946 34.9233
16.6741 23.2677 35.5068
17.0453 22.8751 34.6442
16.703 23.559 36.0181
16.2399 22.8842 35.5461
16.6918 23.366 35.6178
15.7733 22.1962 34.4023
16.4076 22.6583 34.9047
16.0966 22.9716 35.5826
16.1551 23.0435 36.0802
16.2447 22.8827 35.5349
16.2032 22.795 35.6278
15.8774 22.1832 35.0169
16.0872 23.0216 35.6604
16.1512 23.4069 37.1558
16.093 23.3008 36.6526
15.6067 22.1361 35.6113
16.0156 23.6672 37.0558
15.9087 23.346 37.2423
15.5626 22.301 35.7785
16.1214 22.5846 35.9924
15.6851 23.1932 37.2014
15.3369 22.7713 36.9772
15.4872 22.8612 37.4591
15.6385 22.7281 37.1034
15.3352 22.3387 36.153
15.5178 22.8159 37.0001
15.6397 22.9333 36.8725
15.2782 22.8612 37.7877
15.3915 22.7715 37.0634
15.1778 22.395 36.3257
14.8672 22.5749 38.1332
15.5291 23.1739 37.5796
14.921 22.8601 38.727
15.5803 23.1001 38.3593
15.3699 23.3087 38.4474
15.1298 22.7572 38.2546
14.8401 22.4589 37.7093
15.2377 23.3221 39.1817
14.9698 22.533 37.1638
14.4648 22.4164 37.6898
14.5355 22.3493 37.7883
14.2271 22.281 38.0242
14.3363 22.0216 37.7426
14.736 22.8529 39.051
14.6584 22.9379 38.9481
14.9377 23.5393 40.0251
14.6449 22.7962 39.0966
14.1003 21.9285 37.6476
13.8526 22.3058 38.5064
14.1783 22.7655 39.6697
14.2335 22.0372 38.0691
13.9931 22.4522 38.8474
13.8359 21.9594 37.7459
13.7705 22.0798 39.214
14.1598 22.4995 39.3739
13.7357 22.1062 38.5831
13.6442 21.852 38.7883
13.722 22.1805 39.0558
13.7002 22.2209 39.6645
14.1478 22.3793 39.6385
13.9323 22.4814 39.9607
13.7936 22.2561 39.483
13.6669 22.4337 40.0765
13.6572 21.2997 38.028
13.8861 22.7284 39.8337
13.5024 22.3424 40.2684
13.2807 21.7942 39.5591
12.9869 21.6472 39.638
13.2723 21.4682 39.6804
13.6877 21.762 38.7938
13.3351 21.8964 39.6888
13.0706 21.6015 39.7938
12.6977 20.8807 39.0957
13.4888 21.4802 38.7469
13.1893 22.2901 40.8104
12.8166 21.7583 40.5458
13.03 21.769 39.9059
13.1203 22.3582 41.6277
13.3457 21.7014 39.6391
12.4369 21.1017 40.3257
12.7021 21.2585 39.4255
12.613 20.8183 39.149
12.9868 22.1082 41.8039
13.4478 22.9394 42.909
12.8871 21.9375 41.9105
12.9286 22.0677 42.1099
13.3264 21.9778 40.1941
12.6311 22.0347 42.263
12.9346 21.634 41.4312
13.0349 22.1958 41.3609
12.672 22.0269 42.5662
12.3294 21.3968 41.564
12.6755 22.0382 41.5175
12.4155 22.0751 42.1217
12.319 22.1425 43.3828
12.9268 22.7045 43.399
12.5633 22.2331 43.1079
12.5344 21.6836 42.0436
12.3243 21.9813 42.648
12.2228 21.5303 41.5135
12.0033 21.5072 41.7807
12.0345 21.5118 42.5176
12.313 22.2261 43.9509
12.7669 22.3589 42.5182
11.8313 21.9425 43.7456
12.0856 21.2019 42.0152
11.9541 21.361 42.1835
12.1264 21.8876 43.3328
12.3046 22.2752 44.0136
12.1548 21.3668 42.2115
11.9413 21.0247 41.6137
11.4378 21.1752 42.261
11.4141 20.5886 41.2937
11.6164 21.2339 43.0138
11.6909 21.2719 43.2435
11.6711 21.0136 42.352
11.5704 21.2927 42.8568
12.0436 22.3836 45.3736
11.9172 21.7506 43.2931
11.4521 21.4579 44.591
11.8418 20.8718 42.1523
11.8294 22.3813 45.3898
11.9445 21.887 44.4906
11.2766 21.7146 45.0975
11.2792 20.68 42.3499
10.7236 20.6874 43.9806
11.2843 20.6634 42.6412
11.4836 21.8627 44.5515
10.9072 20.388 43.2361
11.4073 20.9096 42.9308
10.875 20.8513 43.5913
11.2263 20.9425 43.5699
11.0669 20.7435 43.8543
11.013 20.2299 41.8736
10.7093 20.8886 43.9543
10.7793 20.146 41.4148
10.6648 20.5865 43.5931
10.9572 21.3678 46.1426
11.2422 20.6728 42.7675
10.5798 20.8895 44.9399
10.8207 20.7822 44.6672
10.845 20.5799 43.1683
10.7053 20.9825 44.9418
10.6189 20.7208 44.8567
10.7239 20.6225 43.0883
10.7618 20.7122 43.9481
10.6212 21.2511 45.4899
10.4593 20.8156 45.1699
10.6394 21.2655 45.6458
10.2636 20.2843 45.1226
10.7276 21.0211 46.2376
10.849 21.4291 46.4165
10.5099 20.199 44.2013
10.7603 20.7869 45.3586
10.4789 20.6117 44.6433
10.1821 19.9963 44.7172
10.4249 20.8882 46.428
10.3814 20.0246 43.6583
10.5151 20.7345 45.0528
10.4587 20.9167 46.0203
10.3498 20.2881 44.0969
10.2308 21.0737 46.7859
10.2746 20.3094 45.1127
10.2275 20.7512 46.1512
10.3358 20.1973 45.0337
10.1366 20.392 46.1165
10.0847 20.1197 44.5614
9.82489 20.106 46.2547
10.268 20.4466 44.9957
10.1593 21.0961 47.5121
10.18 20.707 46.6308
9.9737 20.1471 45.5358
10.0559 20.6327 45.3242
9.53489 20.1365 47.1096
10.0712 20.0964 45.5105
9.6999 20.4585 47.1989
9.93369 20.3629 45.882
9.74028 20.2782 46.5076
9.70113 19.8943 45.9035
9.77007 20.0173 45.974
9.67872 19.9505 46.3575
9.68969 19.6012 44.3245
9.48808 20.1344 46.9614
9.55475 20.1773 46.9136
9.99985 20.5052 46.183
9.30114 19.6311 46.3725
9.90529 20.8967 48.182
9.46056 19.8967 46.6555
9.48326 20.4397 47.8922
9.53196 19.8409 46.5031
9.72182 20.0826 46.6671
9.46786 19.9558 46.5836
9.20005 19.4394 45.4853
9.14412 19.6254 47.5761
9.46887 19.2312 44.9379
9.36403 19.838 46.5967
9.40294 20.0498 47.4077
9.12185 19.4091 45.7385
9.1612 20.1209 47.9342
9.18925 19.8166 47.5966
9.45243 20.233 47.9079
8.95385 19.2841 46.871
9.46371 20.2727 48.4574
9.30637 19.8353 47.0395
9.12614 19.9225 47.8034
9.18878 19.341 46.6775
9.07521 19.5829 47.489
9.11088 19.6286 47.2247
8.95178 19.2202 46.3405
9.03817 19.8217 48.5577
9.38152 20.1197 48.3652
9.04406 19.8787 48.6028
9.14453 20.0645 48.6172
9.1346 19.9402 49.4186
9.18097 19.859 48.15
8.6436 19.0861 47.5798
8.70387 19.4872 47.7191
8.95168 19.4548 48.108
9.25667 20.1488 49.3065
8.99024 19.8552 49.0598
9.00443 19.6574 47.8263
