# pn-170911/RbIIR-45-TWTF-1280-1959.psd
# Power spectrum* (dif=0,1,2) (really just |FT|^2)
# NOTE: only the first half! (symmetric)
# weeks: 1280-1959
# 10 clock-days, 0 excluded
# PSD: 1441
263.996 0.0550231 0.0228815
22865.6 0.603073 0.0455591
111944 1.62354 0.0569111
16355.4 0.579291 0.0523912
33204.6 2.4547 0.0514362
10997.5 0.850826 0.0480804
11602 1.94719 0.0449628
4513.4 1.05491 0.0552954
8479.98 2.44132 0.0489417
4576.55 1.46065 0.0549367
14660.3 6.50033 0.0498676
2905.84 1.62053 0.0482967
3297.1 1.85549 0.049351
1277.02 0.856436 0.0498677
5900.31 5.01747 0.0450928
1928.68 2.08387 0.0416877
4987.22 6.50486 0.0581406
1595.19 1.94047 0.0292054
5281.31 8.71494 0.0559521
1555.92 2.69696 0.0514892
3661.78 6.49881 0.065838
910.112 1.53474 0.048936
5295.98 12.1817 0.0587171
1367.98 3.30105 0.0506391
5809.59 14.7847 0.0626548
1016.26 2.74807 0.0494915
5606.22 16.9658 0.0792684
1323.5 3.97654 0.055359
5272.42 19.7135 0.148713
1411.96 4.82148 0.0652117
7308.3 31.6082 0.230159
803.654 3.32747 0.0764978
2408.44 12.2109 0.150041
648.47 2.91379 0.0683152
4210.37 21.4353 0.185829
818.128 4.74284 0.0872197
1500.85 9.59379 0.106818
1008.43 6.6495 0.0656144
2378.87 15.1062 0.202823
1163.24 8.62689 0.123223
2497.54 20.9976 0.223741
598.305 4.97475 0.0828251
3135.82 25.721 0.297384
701.967 6.20026 0.150096
2134.68 19.1392 0.273173
1372.83 12.7485 0.156817
965.414 9.91579 0.202806
1338.12 13.9851 0.254289
2162.14 24.2936 0.330251
822.765 8.27491 0.0915979
1815.23 23.5925 0.35751
1097.93 11.8673 0.192662
2284.25 27.9756 0.434736
703.513 9.49014 0.178903
2422.83 34.16 0.602091
798.389 9.61184 0.209795
1680.13 24.533 0.404595
874.756 12.3887 0.26392
1592.61 25.5351 0.455079
806.452 12.9883 0.298728
1072.16 17.8937 0.323998
1065.07 18.625 0.329433
994.156 17.4872 0.279018
489.8 8.51193 0.189128
576.135 10.7613 0.316516
986.732 20.075 0.462552
892.472 18.2511 0.353592
967.836 20.5112 0.481966
911.387 22.1199 0.656704
693.569 14.6842 0.369307
474.432 10.843 0.338073
589.472 13.3089 0.447771
978.186 24.4963 0.774979
458.133 10.3998 0.366562
641.232 15.6938 0.402239
309.362 8.89263 0.238946
673.098 17.7286 0.601988
333.535 8.93368 0.35184
985.822 28.5341 0.854354
660.44 18.2829 0.629704
1031.46 33.6338 1.04844
509.743 17.8219 0.568879
715.155 24.1023 0.731811
472.546 15.4927 0.447463
501.733 17.9499 0.630962
725.269 24.2077 0.818906
1064.43 38.4568 1.45015
503.742 17.6669 0.587761
547.501 19.5126 0.797745
540.668 19.8934 0.700817
202.693 8.97408 0.423367
376.431 14.4223 0.505445
527.899 21.2846 0.770471
234.748 9.91937 0.512308
481.097 21.7259 0.982555
638.327 27.0327 1.27412
888.225 38.7268 1.6988
389.022 18.7238 0.874329
428.012 18.5185 0.883852
398.378 17.9666 0.688526
421.877 21.3938 0.917549
287.857 13.1742 0.698712
385.439 19.6679 1.01397
492.031 24.9624 1.27672
562.682 26.7833 1.58574
225.321 11.784 0.788999
261.626 12.7578 0.784614
548.24 30.4823 1.89586
487.715 29.428 1.56791
603.175 31.2376 1.53061
332.306 18.3995 1.03094
543.243 32.5248 1.75401
288.596 19.6802 1.15643
476.311 28.2684 1.95627
476.833 30.7701 1.90745
302.758 20.0745 1.45526
238.024 14.4362 0.823402
273.879 18.8585 1.23843
325.112 22.5685 1.40785
497.549 31.7411 1.9222
281.894 17.4293 1.07933
458.356 29.7278 2.03133
483.683 34.7329 2.30581
255.84 17.2148 1.2253
233.707 15.838 1.26165
368.847 27.921 2.22068
326.646 26.361 2.10227
334.331 24.6907 1.82782
464.448 36.5156 2.68831
171.168 14.82 1.27026
457.779 38.0934 2.93506
157.448 14.2536 1.37309
154.874 13.7501 1.07558
331.478 26.8007 2.41367
298.799 26.5833 2.25175
298.594 23.3755 2.00206
121.386 8.89559 0.676556
430.229 38.604 3.64755
279.326 26.2516 2.39899
210.417 21.9444 2.09779
249.878 21.0027 1.78702
239.95 19.4078 1.80218
189.147 17.4471 1.55123
391.637 36.4898 3.43009
179.878 21.1107 2.23412
186.106 16.7504 1.97971
246.945 24.6192 2.57765
481.38 48.5352 4.65734
133.823 14.2892 1.72385
331.915 33.059 3.56599
234.313 24.7977 2.72513
209.821 21.0348 2.20996
150.428 15.6452 1.67772
327.451 34.2139 3.5346
240.307 28.2835 2.90148
305.737 35.1523 4.06376
269.6 31.9272 4.00841
463.105 51.226 5.48654
207.078 23.3549 2.46121
183.17 21.6637 2.60202
293.604 34.5532 4.02883
168.746 18.7442 2.31158
192.489 25.4931 3.34312
96.1863 11.5323 1.5595
244.472 31.1433 4.25361
281.476 35.1658 4.16182
290.103 38.5233 4.97309
304.862 40.2837 5.11313
148.169 21.2288 2.7825
316.661 40.2173 4.81953
178.229 23.9803 3.45564
278.376 38.239 5.24583
179.597 25.8297 3.65261
271.66 37.892 5.09937
80.3804 11.8758 1.47939
229.276 34.1318 4.89004
346.614 50.6335 7.15203
192.63 28.8268 4.17922
212.186 32.5664 5.08163
122.383 16.8521 2.51953
165.494 26.198 4.12089
349.464 50.9686 7.10147
216.97 33.5974 5.3045
167.475 26.4229 3.99762
144.197 26.954 4.31011
219.188 32.1806 4.73002
176.064 29.1537 5.17814
146.502 21.8936 3.33157
153.284 24.408 3.94821
127.351 18.6031 2.83778
134.852 24.658 3.97491
145.038 23.7777 3.80739
274.147 44.2291 7.02728
144.316 24.6581 4.50016
177.465 30.4385 5.15067
211.839 39.5319 7.11185
182.713 33.8908 6.09818
188.972 35.1715 6.87205
167.442 33.5957 6.06031
297.781 54.7584 9.77695
225.13 40.0487 7.01777
129.246 23.077 3.96254
158.817 31.02 6.49746
164.754 32.0707 5.95475
207.587 44.0813 9.06394
150.926 29.1167 6.16509
167.94 33.3963 6.55815
135.923 24.8365 4.23069
129.435 29.5465 6.06698
146.437 29.5711 6.00858
139.052 29.8483 5.87542
108.993 23.3448 4.71262
167.376 36.162 7.77544
128.475 26.0719 4.84761
217.465 47.6465 9.93109
154.569 35.2024 7.77384
151.021 31.8387 6.40897
256.085 58.6463 12.8137
95.8488 24.2434 6.63899
232.397 47.8372 9.33795
92.7922 23.3016 5.75436
171.282 33.3228 6.63615
124.951 28.5228 6.67873
130.511 30.1184 6.91686
87.9024 23.2839 6.52916
130.952 28.0418 6.41478
211.223 50.025 11.5093
217.766 52.4583 12.9831
132.091 35.121 9.14132
102.682 20.8102 4.73082
205.885 48.7682 11.1477
98.3388 26.0811 6.89144
132.421 32.1399 7.56044
136.55 38.0011 10.7015
135.348 29.5541 6.92677
135.504 36.2815 10.1295
113.624 30.1824 8.32052
182.705 44.464 10.5522
126.548 33.9687 9.3311
98.2847 24.1338 5.95137
83.5726 23.8939 7.18204
111.01 27.4798 6.64879
67.1703 21.3105 6.59754
120.538 35.7551 10.3925
136.266 40.2866 12.675
167.636 38.3083 9.76983
173.534 49.1225 13.1287
89.6934 26.8105 8.12844
123.722 36.0439 10.6451
174.199 45.3311 11.6979
78.8862 22.064 6.23237
79.1123 26.0545 8.38443
128.827 37.2597 11.2372
83.2258 25.5757 7.51208
105.303 29.1244 8.05064
127.958 37.1353 10.585
62.6587 22.5108 7.49538
104.928 32.7848 10.6913
110.703 31.4729 9.18705
155.129 49.8395 15.7923
93.3223 33.346 11.2854
134.21 41.0667 12.112
44.3624 18.1986 7.41907
131.553 38.3577 11.6869
101.425 26.7421 6.98637
162.391 55.0392 18.2938
169.1 54.8287 18.5393
103.521 32.342 9.76135
127.149 39.3802 13.2655
75.6967 25.0569 8.12988
136.695 45.6908 15.143
149.868 51.9809 17.3187
65.5557 22.3904 8.33459
91.7335 31.6242 10.563
55.7277 19.2589 7.6302
80.5243 29.4499 10.323
102.132 36.808 12.5482
99.9112 31.4264 11.1851
130.691 46.1669 15.4795
89.092 32.6965 11.4262
101.237 38.6971 15.6936
86.8795 30.2538 10.1874
101.095 39.2071 15.5125
68.9757 24.0285 8.58415
72.9939 31.0066 13.0983
125.818 47.2987 17.3415
108.924 43.7256 17.324
100.614 33.7587 11.849
97.9774 38.3756 13.9233
58.1604 20.1461 7.48983
62.9911 24.8553 9.78615
87.242 33.4134 12.4193
68.0501 24.2223 8.68679
83.6125 34.2902 14.5236
83.6466 31.7831 12.6956
71.278 28.1357 10.8474
70.6157 31.9126 14.1938
84.4202 31.9508 12.88
35.7675 15.2275 7.26184
73.0193 27.9364 11.1603
55.0671 19.4739 7.14035
129.161 58.7681 23.9703
51.9219 22.9746 10.2226
59.439 23.8137 10.6095
103.342 39.4321 15.7939
110.563 46.0067 18.4244
76.5348 33.6284 13.9665
68.4767 29.6216 13.5222
76.4518 33.6608 15.0412
87.5157 41.3653 19.768
92.4764 36.4889 14.3659
87.0916 37.196 15.1789
79.2346 35.5094 15.7375
54.7511 29.0658 13.3247
37.3274 18.6552 9.60536
57.1996 26.7783 13.1343
129.304 58.8967 28.0952
116.864 52.8356 25.1389
71.8392 26.7969 10.4894
54.5911 31.4836 16.1191
48.969 18.2355 8.60426
100.402 46.2941 20.8859
78.0498 33.4417 15.2332
94.64 42.7766 19.7813
100.248 43.5915 19.1654
81.5139 36.9091 16.7607
45.2775 22.8874 12.2446
88.2497 42.3629 19.5034
57.4383 30.6214 16.0318
88.313 49.5641 26.6765
86.2655 42.324 22.0628
99.2228 46.6615 22.3741
77.5838 30.9077 12.6678
102.33 49.7814 23.1142
56.9977 32.6558 18.962
99.1638 49.4235 24.3176
85.4797 43.9897 22.1961
57.5499 30.1416 15.863
73.1697 33.2767 14.7327
72.3922 43.3957 25.9688
73.0602 36.5593 17.762
32.0557 15.0507 8.5632
69.9595 37.661 18.2167
53.7071 30.992 17.9692
61.2427 31.2838 15.7784
55.4211 34.8235 20.1373
46.736 26.9668 18.0694
74.3149 29.8131 13.0506
49.6301 27.5748 15.5837
70.3327 42.5143 24.4937
68.5434 31.3288 13.479
51.8244 28.708 15.6863
50.2446 26.4437 13.976
82.1225 50.1987 30.3142
56.3376 25.8918 11.8539
77.1324 49.9568 30.184
52.7939 28.3186 16.9315
60.835 34.6553 19.6448
59.8787 34.9803 20.5942
97.9024 64.155 39.2101
55.3711 29.6689 17.9725
79.3928 45.9152 25.2253
30.8212 18.9307 13.6298
65.9526 36.9171 22.6787
47.6354 24.8089 13.2136
46.1247 25.4773 14.8107
47.6217 26.8435 15.0818
72.9016 46.665 27.3616
44.5749 32.3969 22.4183
60.4685 33.6094 19.4435
50.6574 33.2764 22.6058
67.1237 40.5615 25.8117
37.6653 21.3587 12.7308
63.5681 35.6993 21.1277
63.8171 42.8978 28.7458
43.8712 29.9957 22.7974
94.2956 52.4814 30.8241
47.8008 32.3607 20.9279
58.5784 35.4246 21.2189
66.2086 45.0308 28.2779
37.142 28.3102 22.4397
60.0546 34.0349 20.3975
61.318 38.6287 23.2958
52.273 28.9386 15.799
46.3185 30.255 21.0595
73.2841 45.6712 28.1249
58.068 44.903 32.5036
67.2937 42.7655 27.5741
37.0085 24.085 17.606
57.334 37.2846 23.12
48.1763 37.2933 29.4201
58.7014 36.8428 22.6042
75.0928 58.0273 41.3675
36.0756 30.4024 28.1727
99.6179 56.6871 33.8985
43.2587 30.3893 21.4098
48.1475 31.2942 20.3312
46.2657 26.1775 15.6775
46.2176 36.6795 27.0677
54.1011 35.9879 22.3551
22.0484 24.8789 25.3219
44.096 28.1948 20.7985
76.5737 55.201 37.2888
42.1148 29.4791 21.4759
43.4199 33.8746 24.288
19.3614 14.3198 13.2964
70.0618 54.9638 40.8943
57.4543 33.8675 18.4763
43.2128 35.3047 26.0721
40.6433 37.223 33.9585
61.4844 37.1349 23.6994
30.8568 24.4991 19.0564
43.9221 32.375 24.9469
61.4746 48.9618 37.6142
38.8909 28.2368 22.2941
68.6181 48.1423 34.1936
41.8905 27.7512 18.5232
38.613 37.5029 33.7712
45.2714 32.0094 23.9711
53.395 44.8832 34.1383
29.0573 17.9204 12.9379
53.2634 38.7027 28.791
56.4767 45.7676 31.8336
47.2664 51.371 48.2473
30.4203 17.7952 13.4646
36.3293 31.9026 26.947
38.7105 31.2031 28.3884
56.4642 44.66 32.6139
30.4337 28.6048 28.5753
33.2146 20.6961 14.2559
34.3527 27.4567 22.3025
36.6023 31.3138 26.1226
37.3511 27.7279 21.8163
32.0428 31.0161 28.0334
31.0392 27.0468 25.0201
37.6603 27.8065 23.2741
63.6206 50.1649 35.1881
36.8533 34.0974 29.2415
49.1297 48.3237 43.0166
47.8426 42.9552 40.9579
46.1569 31.7106 21.2765
27.1352 25.4943 21.9889
23.677 25.6844 27.1411
40.8656 30.9703 25.2425
22.6887 16.2064 13.997
72.3114 69.2926 57.561
27.0169 20.5099 15.9882
29.075 27.3494 26.7834
35.7691 27.7989 20.81
11.348 12.8173 15.7209
34.2592 28.187 23.8136
20.0565 16.1266 12.6818
23.7796 28.6862 29.6791
30.5814 25.8554 28.6386
32.8707 25.1363 20.753
50.3653 43.6132 35.2253
32.1225 29.0193 28.8408
60.307 51.7386 42.1708
43.6017 45.2752 40.8674
27.5472 26.9434 29.4431
60.3085 52.2299 40.6094
20.5308 27.2093 34.1532
31.7843 26.1661 27.7439
38.3328 28.878 19.6211
9.13801 13.4262 19.7987
40.3448 42.1308 43.2861
45.8748 36.5638 29.2091
15.5161 13.1528 12.8816
24.9125 25.7461 26.8431
35.5968 33.1833 30.1843
26.4076 23.2134 22.0679
58.975 59.6233 53.2607
47.9241 46.6597 43.0765
39.2574 39.1887 38.2641
16.3715 12.7411 14.9131
38.0026 35.2532 32.0407
27.1135 29.7192 28.7194
20.9993 23.0772 28.2921
38.2648 29.4639 24.4621
35.3978 30.5721 20.8269
41.6349 51.3405 46.8105
21.2959 27.4974 34.3025
33.5031 35.0452 38.3155
26.3192 28.3007 32.2373
34.0543 36.2577 37.2139
38.2531 33.6298 31.2766
33.2491 35.5545 39.0962
22.9309 24.3439 25.8594
14.537 12.9521 18.2772
45.5184 41.1341 34.7501
30.0508 31.3195 32.6139
38.4827 40.2674 40.0149
27.5821 32.8616 37.1751
26.9042 29.5055 35.1436
33.5616 38.0598 38.7783
23.2225 24.0082 30.6777
40.302 39.6562 38.0144
20.6871 23.4599 31.9283
68.6189 74.9424 78.9217
34.0662 28.6275 30.0008
46.6533 43.9901 41.0635
31.21 29.6323 27.3849
39.3104 44.3427 44.4606
21.5381 24.3763 27.8312
39.3899 46.6044 49.5527
17.9588 16.8849 17.2758
19.9204 25.5729 31.6839
26.2984 34.5266 44.6683
27.9646 25.4561 26.8287
27.8549 26.7414 26.1929
58.3209 71.8648 78.5078
31.0639 34.1535 39.3081
22.8675 26.1201 35.5946
34.7205 33.9488 36.7703
36.7904 39.3872 38.5586
23.6144 24.0085 24.2109
22.0213 27.5286 31.6541
42.7009 52.3015 54.9601
21.8271 34.4642 52.9858
31.5855 34.9233 43.9502
38.2063 32.8927 26.7468
24.3151 31.037 36.4591
23.6645 33.5256 45.4528
26.2445 33.7152 46.8491
40.9897 47.6125 62.3252
53.5022 45.9135 34.6171
30.5542 42.8928 53.1773
20.2733 24.5557 33.8599
43.6599 56.6627 66.2513
20.3618 19.3742 26.4944
39.9874 43.1442 45.7614
24.3232 27.2267 29.9777
15.0678 28.9402 51.7754
44.3882 50.5309 56.8046
30.8733 37.547 52.3909
29.8924 29.0555 35.1982
55.9649 70.8509 81.6146
28.2303 27.4015 31.3275
30.6833 31.1617 30.7223
18.9107 20.3194 21.1407
13.5541 19.619 24.9693
23.6031 36.4968 46.2153
25.0231 36.782 53.2929
33.4018 36.9169 46.1439
33.9429 43.3322 59.4963
46.8124 50.7847 52.3828
22.7124 34.3507 53.3117
45.3735 43.4676 44.7639
19.1931 17.7874 19.9879
38.5004 47.5439 48.8709
39.1301 58.2818 73.0864
19.4578 22.9506 31.927
32.9973 44.3486 56.9075
22.1713 30.3675 42.9475
27.9573 41.3219 62.7364
25.7368 21.4991 21.103
18.6252 21.3737 26.0249
29.3296 42.2338 55.8765
26.2188 35.7704 47.7035
28.938 42.6851 56.8098
24.9928 31.52 40.8104
10.7525 15.8197 32.9827
38.0902 55.1337 78.3229
37.3442 41.0869 47.046
16.506 19.667 30.7368
23.649 22.9615 25.9976
33.0153 43.0849 46.1972
14.2271 25.5645 42.4198
19.0583 29.4209 49.3377
31.6392 33.7528 43.8
29.6888 32.242 30.9746
16.4213 21.9213 30.7603
29.9245 36.8976 38.2162
20.1429 31.346 45.3341
30.1745 43.9172 62.4767
23.2158 34.2314 52.9679
25.2876 32.4653 41.4368
28.0917 40.3466 53.2261
23.166 46.9699 86.3236
30.774 33.2428 49.2685
27.4444 31.1465 46.9907
48.0525 59.7597 67.9671
36.9019 52.1026 60.6046
18.0935 32.1079 53.2909
23.892 24.3757 24.026
13.5596 20.5755 30.6605
15.7122 24.0685 39.0081
30.3953 45.3904 65.9702
30.3616 38.5848 46.3856
21.431 32.3336 47.2556
21.9196 29.8345 43.0149
21.3442 28.9209 42.1509
37.6253 52.6265 59.5918
17.044 41.8766 79.8058
27.2755 31.1354 39.5671
16.3148 21.829 30.1518
17.9556 29.6565 47.8481
14.1859 18.3279 26.8052
16.7051 25.9624 35.5049
11.0708 17.4966 28.7313
16.353 25.6203 41.9087
21.3178 31.7269 42.982
16.1998 26.3137 42.8772
20.5382 34.1087 59.285
20.1392 26.4411 39.0056
17.1972 27.1234 47.1511
19.8206 25.8494 41.5818
21.3413 21.955 21.3321
15.4128 28.6078 43.7894
12.9499 18.2041 32.9377
20.368 28.0357 37.7378
14.6671 19.6805 26.7462
17.8156 27.3496 41.4845
13.6166 19.5247 32.3437
21.82 34.2272 51.9524
32.2387 54.8325 74.1573
20.8308 30.4415 38.3112
14.444 40.2985 83.3617
24.8933 32.9477 58.3635
17.0983 20.7826 28.1225
14.5903 25.8333 54.6452
35.5143 49.0184 66.0867
14.0344 13.8748 23.9191
22.9419 31.1964 33.9422
13.2379 27.6654 51.3158
30.7804 46.6605 60.5382
11.2152 26.0231 52.9794
17.9176 32.1228 62.8155
30.5534 40.5914 54.4032
23.0441 41.6512 65.2162
17.9161 26.9749 41.5101
13.2841 20.1923 38.8604
21.2872 34.2981 50.9034
19.3316 25.3374 31.7649
15.1422 27.989 44.3229
13.2524 22.5466 39.4711
21.4031 37.0332 53.936
12.0052 27.0882 55.7109
19.6811 29.133 42.5877
12.1661 23.8261 50.1869
20.1945 31.3241 53.5397
24.6852 37.3952 53.1031
17.6103 29.6503 45.5644
15.4906 32.1733 61.4357
17.5173 27.7575 49.4237
14.6067 22.0953 40.4448
18.0329 30.1761 57.811
29.9922 43.6673 60.4865
17.622 25.9986 30.7778
13.1397 28.6484 54.8257
20.5459 39.42 66.7461
15.8662 23.9992 38.9042
16.6884 35.5544 65.7599
17.8776 28.0326 44.0721
18.7293 38.5414 81.7763
24.6222 33.1794 47.9922
16.2074 24.4254 34.2944
14.9012 32.4133 61.3086
23.1886 39.7657 66.861
15.5958 22.219 37.769
15.4111 28.0383 46.7883
13.9415 25.1069 42.8145
15.986 33.6122 65.782
18.7159 32.281 59.7102
15.0379 23.14 43.8035
13.7653 23.1998 45.7416
21.2663 34.852 56.3687
15.0877 26.8138 47.7267
9.41935 20.7823 48.5105
9.77322 11.7789 26.6561
15.7055 27.8506 52.7278
14.9922 22.9981 48.5508
25.5992 41.5993 57.8158
17.1285 28.4617 44.7884
13.8469 22.6888 33.1014
10.8671 23.1318 43.6706
14.4366 28.2914 42.4007
8.83625 20.4829 45.4744
11.9763 18.6698 37.253
14.2004 27.1759 56.2049
22.0538 36.0226 55.4925
10.8894 21.0574 46.1718
14.1154 26.8279 54.1099
17.7018 28.8235 50.3619
11.0512 17.7213 36.5484
19.4164 38.3597 75.0063
19.9377 37.495 76.5472
20.8597 33.2592 60.7561
22.3027 35.7391 52.5547
12.4378 21.7851 35.209
13.1609 28.1844 56.3643
21.5156 39.1002 62.5371
14.7749 28.9562 49.2226
10.4959 22.2701 51.1555
17.269 31.907 51.5281
10.5907 27.0309 67.3398
17.3606 21.7537 34.7705
10.9968 19.7032 45.9282
21.4524 35.7335 58.4142
24.014 43.4022 57.2753
12.0336 30.7055 60.1059
9.40341 19.807 43.7746
13.2631 27.7674 63.9958
14.2087 27.3316 50.818
8.70115 11.4739 22.4243
7.4832 17.0651 40.434
14.9284 27.8619 48.2733
9.01342 13.5098 20.6661
6.46473 16.487 45.4073
19.6773 35.4729 56.9079
11.3024 31.0374 75.8018
14.065 19.7766 39.5834
16.5557 31.3014 58.4892
19.4791 43.7459 89.4269
16.4983 23.9274 39.8704
18.4936 39.1775 71.3339
12.5393 25.2995 61.4936
18.2991 30.5699 46.8712
6.8352 15.525 40.1123
13.8652 26.926 45.8345
13.0755 32.2068 71.1471
11.5396 18.2278 39.0066
13.6875 27.3285 47.6544
11.7618 30.6534 78.0484
14.5039 17.861 41.2032
26.6093 54.7238 86.1895
15.9541 37.6669 75.844
21.0584 48.5631 95.9586
15.1466 31.1175 76.2171
14.2524 20.2441 38.6928
14.6564 36.2877 80.3152
17.0396 26.9377 50.3486
17.1426 33.4771 64.7277
10.072 13.9266 27.9585
14.4015 34.8598 62.8777
6.62591 11.4745 29.9779
11.5344 28.6294 59.9394
7.39785 12.408 28.6968
8.78359 19.3801 48.0135
13.9201 20.3589 26.2207
8.1561 23.5814 60.9731
12.8092 20.9014 37.8345
12.9574 29.9012 57.1389
11.8396 19.6506 33.397
10.0103 25.5037 53.6182
12.1064 25.317 42.5964
6.84199 18.1797 47.9251
10.4879 19.1928 37.6638
10.9105 32.7012 74.6927
8.96829 13.268 33.6698
13.8859 34.1581 71.269
9.77411 19.0227 44.6304
11.9076 22.3915 38.5407
7.20273 18.3307 44.4868
13.4093 34.0908 77.1278
14.7391 29.5928 65.2382
15.0297 31.1913 67.7084
12.7205 29.6492 70.4185
14.9381 30.1174 60.9
8.95343 17.1421 38.0065
8.04464 15.9077 42.1286
9.48592 17.176 37.5629
13.5089 30.277 52.6493
7.06951 17.8803 58.2375
18.3862 32.6851 48.5974
8.26425 20.7651 42.9245
6.35513 19.303 53.1401
10.9625 19.283 33.9501
8.52017 26.9653 73.3354
13.1147 22.2112 54.7396
12.9598 29.0383 56.9205
10.7569 18.9194 37.7077
11.8123 28.8615 63.527
10.2065 21.8856 48.4847
11.6909 31.5443 69.394
11.6094 25.1692 52.3367
5.00936 7.64711 27.7927
10.2727 17.367 25.3793
8.96016 35.7776 94.5737
10.5354 15.7876 40.1784
10.4978 18.2252 25.1314
3.59729 11.7995 35.0669
7.58497 16.6401 38.8456
8.56977 26.0107 70.3392
11.4963 19.113 36.0597
6.88771 13.0822 24.7653
7.46339 20.4562 46.8118
11.063 30.7345 80.312
12.414 19.6909 33.1774
7.47486 24.3379 69.4899
11.629 21.459 44.4069
7.95225 17.8055 49.063
6.57673 11.795 37.207
11.6898 20.5697 31.9808
7.97981 23.3519 51.3573
7.81044 18.8799 50.8072
10.3209 24.8051 56.8037
9.60313 26.0083 72.2001
14.0906 26.1419 36.6629
2.84437 12.3024 54.1407
13.9763 27.0463 52.2445
11.1553 26.7624 47.4505
3.54148 10.5732 35.6497
7.57517 15.4472 45.6745
10.401 22.136 48.6026
14.6988 35.8763 70.8472
11.3448 27.3682 63.0579
12.3378 32.8954 79.1293
10.8021 24.8087 57.1503
7.82267 16.0578 43.3219
10.2294 24.9989 65.538
10.0319 15.1968 28.5953
9.64929 25.2186 53.3903
7.64669 17.6559 40.4447
6.97164 18.2572 52.1665
13.2877 35.5646 78.086
8.61185 21.2577 50.8246
7.65278 18.7036 48.1917
8.04095 16.8106 32.5686
5.85904 21.9769 79.3436
11.186 17.2021 39.8487
8.67334 16.7422 34.0782
7.52155 22.4835 69.5235
13.1024 25.5536 38.3746
7.66112 29.0327 82.5357
10.8222 30.9189 106.411
20.6082 35.2022 51.3311
8.17927 20.1245 42.2372
10.0192 35.7433 95.2646
