# pn-170911/RbIIR-50-WTZR-1280-1959.psd
# Power spectrum* (dif=0,1,2) (really just |FT|^2)
# NOTE: only the first half! (symmetric)
# weeks: 1280-1959
# 11 clock-days, 7 excluded
# PSD: 1441
969.469 0.143034 0.0620088
22966.7 0.297646 0.0837769
178082 4.11933 0.234253
11588.2 0.539513 0.0872052
58319 4.73316 0.175586
8104.2 0.56974 0.0577532
7559.85 0.891227 0.186205
3234.47 0.427261 0.108248
1878.35 0.471976 0.165053
1425.59 0.405607 0.107651
2105.6 0.603848 0.164891
1318.71 0.652467 0.180989
1540.24 0.575468 0.0864302
1013.76 0.566821 0.110733
584.63 0.523214 0.195676
1063.99 1.00486 0.154563
833.094 0.620633 0.178253
560.834 0.707112 0.0584348
787.103 0.581621 0.184677
491.887 0.996345 0.098522
757.672 1.19268 0.214381
261.512 0.695789 0.117883
672.988 1.40979 0.148134
444.836 0.705006 0.19594
683.237 1.76418 0.1195
366.111 1.18772 0.138629
460.424 1.30626 0.134739
287.939 1.13289 0.209409
276.904 0.738059 0.216098
159.302 0.74829 0.123166
291.748 0.985899 0.125355
483.791 1.82961 0.187667
228.926 0.842459 0.16134
243.521 1.04844 0.21966
402.047 1.84408 0.127819
405.11 1.81401 0.224468
187 1.16167 0.161757
270.572 1.49195 0.158476
479.691 2.96557 0.2083
245.935 2.05493 0.165972
265.015 1.66282 0.240961
336.14 2.10059 0.116989
221.424 1.8815 0.175825
266.073 2.58381 0.1682
194.731 1.68752 0.201187
262.773 2.39275 0.234566
188.301 1.81282 0.143803
163.445 2.15213 0.225134
145.566 1.84677 0.14791
268.399 2.60216 0.244068
316.829 3.47682 0.181823
271.49 3.15368 0.187898
237.348 3.20292 0.251973
343.789 4.6228 0.150037
611.98 7.22373 0.278431
221.97 2.59072 0.101825
145.729 2.75628 0.188263
101.053 1.18958 0.140222
236.616 3.81075 0.202391
266.255 4.06872 0.177481
144.104 2.58415 0.145736
188.857 3.39496 0.108792
215.221 3.46704 0.178123
133.958 2.16543 0.0739238
218.789 4.37873 0.307857
190.024 3.32837 0.17412
203.354 3.85024 0.218054
204.724 4.43367 0.191256
103.423 2.06397 0.15256
280.146 7.4216 0.380825
296.683 7.39602 0.417732
220.166 5.16174 0.241568
193.371 4.83961 0.202301
102.383 2.50286 0.14708
184.365 5.26509 0.436365
207.541 5.00994 0.164686
183.371 5.00325 0.343648
214.68 5.63132 0.251411
79.2733 2.82684 0.231231
236.76 7.19507 0.23859
193.997 6.41944 0.426653
128.67 4.29001 0.164502
193.753 6.1171 0.276226
183.069 5.82203 0.361006
127.966 4.91887 0.240367
200.07 5.88545 0.274443
198.533 6.99742 0.339028
127.086 4.31795 0.325841
241.146 8.22992 0.535842
236.897 9.37696 0.635701
385.855 15.8364 0.641039
261.307 9.44985 0.504015
167.134 5.32123 0.364201
134.727 4.75288 0.533212
154.559 5.84399 0.453502
158.154 7.09005 0.460822
189.681 8.83357 0.334593
136.303 5.92777 0.596981
237.962 11.0322 0.654216
254.232 11.5502 0.66438
65.7848 3.84872 0.429187
139.634 6.91704 0.317505
137.88 7.17596 0.379094
192.889 9.56891 0.659383
215.654 11.723 0.864849
120.318 6.60736 0.459778
190.261 10.2897 0.527172
262.336 13.9079 0.95522
189.11 9.21795 0.542491
89.3674 4.36992 0.523399
124.275 8.63337 0.640099
101.653 5.44552 0.2367
107.42 5.73435 0.502046
182.32 10.7141 0.617422
178.111 12.3754 0.913588
193.625 13.0209 1.14994
155.9 10.7347 0.903128
150.797 10.6716 0.656743
183.852 10.4524 1.08654
174.782 11.2729 0.757322
208.347 12.539 0.622363
173.239 11.3891 0.879366
105.972 6.60376 0.677098
78.0178 5.26756 0.362519
105.271 8.08818 0.517106
184.804 13.2405 0.76035
129.634 9.21257 0.770454
188.451 14.9484 1.21027
181.816 11.9072 0.652511
197.203 13.9715 1.00843
216.05 16.7324 1.46507
113.465 8.28906 0.852265
155.988 11.997 0.983874
127.948 10.2167 0.87996
137.085 11.5276 0.737635
147.163 13.6939 1.34965
143.335 10.9861 1.19136
88.9041 8.89277 0.959187
122.711 10.0479 1.02803
248.702 21.7713 1.99227
108.801 9.74868 1.11095
83.9452 7.92528 0.797037
100.898 9.54724 1.08661
78.6355 7.00744 0.821183
166.711 15.9823 1.71491
131.924 12.7847 1.08995
98.017 11.2565 1.1729
93.4569 9.61288 1.13109
114.631 11.9564 1.43796
124.766 12.3445 1.72428
125.097 14.4903 1.91642
131.738 13.2137 1.65639
162.711 16.6238 1.88624
87.2754 9.89307 1.40431
55.2826 5.69273 0.682525
154.214 18.9726 1.88888
99.873 11.058 1.30318
116.574 11.8389 1.21042
133.572 14.3276 1.51876
180.367 21.8089 2.5029
66.1564 7.52138 0.743653
59.5902 6.97667 0.98945
86.918 10.6016 1.35706
67.8237 9.18972 1.58093
86.1155 9.13252 1.05315
135.283 18.0301 2.64731
154.109 22.0841 3.18777
136.178 17.9953 2.70471
103.702 12.8678 1.77324
75.717 10.8875 1.70586
179.771 23.8787 3.0258
170.95 23.224 3.3039
79.4987 10.8561 1.444
103.569 13.3087 2.21453
91.67 13.1149 1.93858
157.878 21.2428 3.2954
89.1051 12.9918 2.26077
87.0325 13.285 1.9571
142.133 21.9214 3.43225
63.5402 11.0815 1.74234
65.975 9.88487 1.32592
132.544 18.0748 2.74231
125.89 20.2229 2.68482
140.317 20.7312 2.89543
118.431 16.7261 2.76108
86.14 14.5274 2.92658
202.136 30.0925 4.96695
84.2544 12.9589 2.30626
101.479 18.1989 3.40054
178.372 30.8608 5.07839
127.047 21.3773 4.06983
116.961 21.5316 3.70518
87.6393 14.1739 2.63072
74.2179 13.7117 2.66194
57.0851 8.10456 1.37867
136.781 26.5344 4.95459
65.7891 9.87059 1.8141
115.803 23.1063 4.53698
166.884 25.1432 4.42451
63.556 12.5388 2.7877
119.844 19.6904 3.23022
165.606 26.8704 4.89426
284.821 53.3146 9.55132
70.7825 16.5522 3.20622
91.8008 19.9822 4.02246
44.6227 9.6006 2.31157
140.708 24.0049 4.73069
88.1329 17.3838 3.82908
117.942 23.1133 5.38166
73.1884 13.403 2.75663
100.545 20.336 4.19272
61.9715 14.508 3.15685
72.8688 12.199 2.61516
112.982 23.5435 4.24223
100.632 22.78 4.98223
89.0251 18.388 3.915
83.0479 16.4862 3.21359
118.924 25.0941 5.46932
80.7293 19.1192 3.73484
79.4016 19.9631 4.92204
89.7925 22.0527 5.36844
146.693 30.5682 7.23742
99.1977 24.7369 5.53408
51.1879 13.7075 3.20114
88.4066 18.719 4.10857
68.8582 15.6709 3.69082
133.46 31.1746 7.64358
74.449 16.2329 4.85203
132.803 30.4188 6.78617
95.6059 23.9798 5.66501
52.3556 14.7998 3.86501
69.2306 17.4859 4.40997
32.157 7.3983 1.97942
107.713 24.9127 5.79932
78.8423 20.7611 4.93818
114.731 31.6061 6.82521
77.6784 21.4645 5.4458
91.6152 21.364 6.12696
81.4625 19.7639 4.91465
159.635 39.9652 9.87888
82.5153 24.0205 7.66052
111.032 26.4757 6.62708
67.7021 19.7087 5.08331
125.033 39.7743 11.9833
79.1042 19.6916 5.54572
105.229 26.5587 5.85011
77.394 24.4135 7.88223
99.5356 26.7942 8.23429
106.025 30.713 8.69745
93.4047 22.4232 5.7899
48.5921 14.2364 4.44123
110.34 30.4471 8.2329
85.8113 24.0737 7.07961
113.923 33.7304 10.2181
91.6777 29.7368 8.84838
71.0477 21.372 7.08457
66.5432 21.4668 5.93387
108.689 31.8908 10.4211
139.192 40.3721 11.5998
79.9438 25.2732 8.77105
86.6733 25.1044 7.62782
120.199 38.1212 12.2697
65.4984 22.9676 8.07313
65.6312 23.4003 7.92129
50.8197 12.9399 4.0548
68.8408 23.5926 8.49593
76.8088 23.1574 7.04511
100.848 35.2831 11.5824
105.585 31.1973 8.6543
75.7341 22.5185 6.92023
82.3218 29.8833 10.2207
70.5137 25.1974 9.21482
72.5244 23.154 7.39789
70.4456 26.0006 8.4231
34.5994 13.0173 4.44159
64.0197 21.6427 6.86025
63.7209 25.09 9.71013
72.8847 22.0744 7.87928
127.317 41.8195 13.671
56.8342 20.0849 7.5195
89.3608 31.8033 10.5246
101.141 39.2054 14.5585
75.0258 26.9032 10.2762
71.5979 23.4929 8.29071
78.0781 32.21 12.4514
34.4344 12.0556 5.37839
65.7204 24.5545 9.08683
74.8624 27.4586 10.3666
83.388 35.4281 14.6031
47.3682 17.6571 7.13339
97.6799 35.1201 14.0501
65.8399 22.1563 8.93646
79.9715 28.8933 10.4974
57.8541 26.9953 11.9272
76.6244 27.1939 10.6865
49.4157 19.4433 6.97462
80.6703 33.4702 13.4477
89.1326 35.3532 13.2651
67.0342 26.1649 10.9701
49.0737 19.5243 8.34102
58.0315 24.671 10.3239
76.3924 31.3975 12.4311
86.9753 42.3283 19.0683
32.3358 12.6533 6.08986
46.6387 21.519 10.8888
84.4606 32.1059 12.2042
61.2407 25.5564 10.3214
67.0176 32.1613 14.0901
56.2732 23.9783 10.5361
60.1446 28.2828 13.4507
53.5759 19.5905 7.03127
62.6134 29.4183 12.3615
58.4577 28.7148 11.8439
85.9282 40.5011 18.1956
52.3253 22.7838 9.91807
94.2671 49.959 23.534
75.9852 28.5161 11.1593
72.5681 27.5455 10.9587
60.16 33.6639 15.665
58.6957 25.4465 11.8833
52.071 25.7224 12.6045
55.4575 28.2947 14.4044
42.4745 16.4947 6.52097
69.5852 28.7732 11.6955
45.6198 23.1131 10.5862
32.3988 15.3743 8.43689
77.6541 37.5734 18.157
82.7452 40.2184 21.0406
75.4269 29.0013 12.2499
80.305 40.3659 19.266
49.2336 23.2417 10.9437
76.3287 44.8444 22.3948
44.8019 21.603 11.6459
71.7622 29.5219 13.6487
83.2025 40.966 19.3801
75.5131 32.9326 15.2981
62.0719 36.7332 18.9354
40.5408 22.779 14.9186
56.1756 24.0111 13.6517
74.486 35.4182 16.7347
55.8683 29.9476 14.1659
37.7585 24.4244 13.6419
42.2523 23.1998 14.0798
102.155 48.2952 22.5582
45.931 31.1682 19.5877
58.6028 28.4276 17.2923
89.9914 54.0614 28.4146
53.1685 29.3716 15.6206
56.6375 32.2828 16.9736
18.7273 9.49324 5.81611
46.6813 28.2704 17.2009
59.279 24.8526 10.9401
54.8062 28.8477 17.5046
47.6736 25.0975 13.592
39.828 21.718 12.2424
49.0533 29.0846 18.2434
50.9102 29.1011 16.394
36.382 24.0296 14.2981
59.0513 31.4768 16.7273
49.9497 25.1966 12.2378
66.6248 42.3994 23.2415
35.3274 21.1084 13.1436
66.9332 38.7375 23.5762
77.9745 43.3899 23.0705
64.0915 36.3805 19.0914
47.4809 29.2248 17.5313
48.3843 33.1047 22.1936
49.6251 31.4473 21.1129
96.2672 59.6428 34.177
31.2975 23.0768 16.4713
54.5207 25.7185 13.0372
44.1709 27.0052 18.8541
39.2633 23.4189 16.0044
49.902 27.5436 13.735
27.7976 19.256 13.4119
34.7965 24.2592 17.4149
25.7116 14.7998 10.3251
79.0044 48.0573 28.618
32.3914 20.8841 14.3631
44.2481 33.5212 25.3054
59.3239 32.6441 19.6234
34.9771 23.0801 15.7687
50.2705 32.6018 20.6569
57.954 40.9193 28.1076
72.3316 40.5577 24.0991
35.2173 19.697 10.8735
48.4217 37.8668 25.7555
43.3906 31.305 21.4364
51.3085 32.7536 20.7864
33.7507 21.2599 15.7554
80.6076 53.793 33.6463
32.7744 28.6154 22.7876
42.9046 34.6508 29.886
35.9792 15.7241 9.25618
58.7935 47.6799 37.7548
57.4443 36.2084 24.6222
75.6901 45.7443 29.5749
48.6889 40.284 31.4733
56.4614 36.6795 26.388
55.1055 36.7507 27.0553
52.4267 33.9857 20.4064
49.46 32.7219 20.1538
37.4521 29.5919 20.4894
32.2081 29.1403 24.9745
64.7954 45.72 36.0989
56.7978 37.036 21.3169
25.2612 16.079 10.0209
25.6751 23.4269 20.3736
34.1075 24.1607 18.9628
39.6171 30.4629 20.3725
26.8418 16.2424 11.3781
34.7681 28.1273 20.8811
47.3392 34.3766 24.4043
30.0506 27.7422 26.9419
51.7531 33.3811 20.7949
44.1968 34.9258 24.0413
42.9124 32.7487 22.506
38.8197 32.5239 25.7651
36.1017 29.7267 22.3862
42.3974 30.1598 21.3476
18.1906 17.7303 15.125
49.2678 45.5161 39.3568
53.2888 38.0532 28.8061
34.3594 28.0584 20.9217
41.5182 35.9506 27.6798
50.8797 45.7468 41.4101
64.0103 48.4994 36.4327
40.0719 29.0149 22.568
57.8287 50.4649 40.3385
20.0088 18.4259 17.4572
27.4749 26.8333 27.3309
40.6396 28.5957 21.1286
35.7124 25.6866 21.9356
41.571 32.731 25.3339
33.8646 29.1396 24.9584
35.9628 30.6759 27.1713
27.3478 23.3467 21.4265
34.5604 31.0583 29.0962
48.9746 42.0759 35.3147
48.3958 44.5871 41.3716
39.2602 18.6447 11.1039
51.6025 38.3187 25.1984
39.0961 35.5483 29.022
19.912 19.922 20.3966
33.0527 29.8609 28.9524
40.0516 25.935 19.5588
33.8961 29.4872 25.3501
27.4197 28.6443 31.1121
54.7915 42.6173 31.5949
25.6657 20.6216 17.1403
21.3558 19.8083 21.0787
26.2686 20.471 16.8766
42.8497 45.5274 42.4635
46.8474 35.8383 28.5827
41.0742 38.0173 37.2993
44.1975 32.9972 26.5159
32.1203 26.0833 22.565
28.7205 34.3758 35.7871
31.5992 28.3489 25.2211
17.8771 19 21.3369
36.1623 26.7031 19.3854
38.9863 34.2879 29.984
41.6333 43.31 42.3987
31.3496 20.1055 14.9443
35.6514 38.09 39.3977
54.6701 52.5131 48.0897
33.2934 31.9921 32.0923
52.0013 44.1001 38.5842
39.8428 41.5345 40.2939
27.7591 30.0988 34.3875
38.7499 37.5274 37.0153
27.049 22.8118 22.4685
49.3446 47.9976 40.9139
22.3005 23.7125 27.224
40.1993 38.5803 35.2221
11.9892 10.4302 13.9277
21.6289 18.9798 17.9948
21.1042 18.753 19.1313
34.3367 34.9184 36.0711
32.2833 27.1888 22.6649
23.9042 18.1985 15.6232
23.6685 31.3014 34.3336
45.1507 40.2446 35.3422
28.4324 41.4076 51.4408
26.9803 19.8626 19.9407
29.6601 29.3135 28.8326
22.4762 20.4327 22.4467
27.9528 25.1069 19.7818
20.7175 21.8945 25.6965
49.1785 52.3955 45.7009
16.1578 16.6689 18.6702
52.0483 53.997 46.6228
29.8257 42.7615 56.1943
34.0802 26.6206 20.5525
30.2181 41.1199 45.8524
17.0156 22.282 37.8222
52.2013 52.8328 54.7251
30.4798 23.8112 23.3895
40.5466 40.8809 35.8914
27.6682 34.457 44.0713
35.4615 32.8807 29.4984
23.4568 29.6829 32.6415
23.811 24.5608 26.8365
19.042 20.1827 23.798
22.1252 19.1299 17.5069
28.155 33.3469 38.4397
22.5017 22.9068 27.124
34.8343 32.6991 29.3537
37.0617 41.4045 41.111
68.2147 100.643 126.693
38.7316 27.7795 29.7412
59.737 67.7506 74.3086
35.616 37.1074 41.8468
44.8355 45.704 44.4574
45.0813 53.4389 58.8436
28.626 37.6887 49.7666
36.0913 33.7498 35.5427
34.8934 31.4267 28.9522
21.1583 26.5591 31.6431
29.8318 36.5982 45.7056
39.69 43.6532 51.8978
39.3271 36.2472 32.6371
14.6513 19.3563 21.6714
17.2782 24.123 29.4472
15.2285 22.0004 32.1129
19.0208 19.3853 20.2521
18.7694 26.9951 39.606
37.4708 39.2022 39.953
25.7105 31.4687 41.0808
34.2903 42.3105 52.3193
51.6907 58.9881 59.7515
34.9439 40.6528 42.9285
15.8919 28.0582 45.4088
40.4356 43.7479 53.6722
43.4841 47.6789 49.0843
30.9591 36.9018 47.0421
26.9311 28.3354 37.7999
40.7898 47.5104 53.0656
24.215 32.0291 42.5313
21.0877 34.5291 62.1799
51.2621 51.3864 44.8973
21.7719 32.6583 47.6101
22.8704 24.0741 31.2539
28.9794 41.9413 50.0218
15.7409 19.1576 32.9975
31.1558 39.9025 47.1646
29.2286 31.781 32.5866
22.356 37.5969 51.2889
20.1344 20.5532 28.7436
19.3089 24.0747 26.3108
21.7087 30.2105 40.1529
28.5524 39.5857 53.4563
32.6895 37.324 46.7173
14.3141 20.237 29.7701
24.2923 36.3426 54.7555
36.7385 35.4286 37.2158
23.7747 32.9538 41.1659
25.051 31.5285 43.3335
17.9796 22.364 30.5532
40.2724 53.2917 60.3467
12.4062 19.053 29.82
28.7094 40.8503 55.0936
23.6504 33.0365 48.3298
20.7648 24.2159 34.1407
30.6413 38.5371 47.9403
29.3766 38.4982 49.108
29.3415 40.1058 56.09
15.1673 15.2596 23.4904
21.7287 30.2334 40.5545
20.9615 25.7301 32.8657
19.3368 30.5112 48.175
32.6571 43.2821 56.3983
16.0445 22.7269 41.2972
31.6539 40.4623 55.2945
29.0677 32.1172 34.8467
23.4176 35.1141 50.4506
22.3389 28.7293 43.0967
27.1439 37.5524 56.0586
42.1583 51.0838 58.4863
28.8655 38.4816 52.9048
19.9486 29.9062 36.1523
17.6075 32.2099 60.8826
26.3125 33.8738 43.5134
24.8392 29.6565 33.5907
16.4016 23.6627 36.8119
24.6182 36.8514 57.4712
29.4672 41.7783 58.7838
29.7972 36.0112 42.294
12.5346 20.8098 42.6508
26.7951 30.6311 36.0623
16.4339 22.0725 29.8804
27.0612 42.405 54.8371
16.4891 29.5898 57.9765
24.6883 30.1043 44.6176
36.8009 46.5828 47.2794
25.3908 45.739 67.9629
12.5165 17.1234 35.7193
26.7568 40.055 58.6523
37.0482 60.0487 85.4614
29.6283 52.7193 79.4393
25.795 31.1812 37.5711
20.687 34.0351 52.6576
26.9788 41.4532 59.2597
16.2674 28.233 49.925
23.6568 29.1536 35.7197
15.4664 26.7521 40.7857
25.3285 44.199 60.8153
17.0065 32.1757 60.4283
16.8209 24.0552 39.6987
18.9123 25.9339 43.273
16.5581 22.9128 36.5091
18.5511 28.8217 41.739
18.0427 27.9875 42.7971
16.5312 22.3809 48.0024
32.6045 44.4626 46.8399
12.957 24.0516 37.8823
14.2806 22.4373 35.1773
25.4335 41.0742 54.5037
10.6814 20.8111 43.8284
19.2689 28.7889 44.5002
16.8403 29.2675 52.2595
16.0254 19.0994 30.8731
13.0448 17.1235 28.0507
16.3966 27.0213 37.6569
16.9605 31.0645 49.905
16.3083 20.9394 30.4857
16.7614 28.9883 44.8067
15.9576 29.8457 51.6811
17.1822 28.6542 44.0313
9.90881 15.2695 26.9127
16.383 34.1787 67.2528
20.2951 28.3652 60.3108
25.7264 33.7204 48.451
20.1992 31.2891 51.8089
30.203 46.4917 66.2121
19.6561 23.7381 25.8448
14.3212 23.8269 30.0361
12.389 23.2011 40.3458
23.2299 47.2953 88.859
26.2692 32.1486 39.4701
18.831 35.4677 56.7188
16.8439 23.9825 35.4008
15.2036 28.137 52.4175
12.3208 17.5782 35.1645
30.1439 45.8646 52.4053
12.6772 25.8608 41.5955
10.882 28.4946 63.1343
19.5814 25.7114 38.9575
19.5918 37.1491 64.5507
19.1795 38.8751 77.7032
30.5791 40.1593 55.4188
10.3991 17.8204 42.4279
19.3906 33.5667 55.38
21.0537 34.3646 56.5933
15.525 20.351 43.1305
22.6574 33.3972 52.9955
19.6881 28.7664 45.1212
17.9083 28.5393 40.2039
12.6199 23.9141 47.2467
17.0689 28.1546 44.5559
13.7727 28.1207 64.0371
20.3199 26.0093 40.3628
17.6017 22.9553 32.6116
13.0754 19.3524 21.3793
10.5743 30.6731 69.952
18.8327 29.7869 51.0462
15.6864 22.8417 32.0576
9.53272 19.3267 42.2921
15.4596 30.2025 49.3352
18.7982 33.9232 60.5121
15.1936 27.3773 42.9719
12.5039 28.1354 58.4533
13.9765 21.786 41.3207
19.4281 47.5002 107.816
25.5127 33.1902 51.3896
20.3979 34.8324 62.242
19.0883 29.8962 56.2199
23.2842 34.6803 49.6416
18.2961 34.1344 57.4677
14.1282 27.9124 55.0906
12.7868 25.6485 55.7114
18.6955 29.4376 49.8026
13.4821 24.9365 47.4159
19.7093 29.5718 49.3068
15.0324 36.0255 76.8031
18.7277 29.7369 50.8844
16.0756 26.3198 43.0962
11.2788 24.8684 58.6871
20.8339 41.5658 86.8906
19.579 23.5929 37.5856
13.087 21.7075 39.634
12.0802 20.6761 43.6536
25.3416 48.7046 83.9203
23.6826 38.2958 62.6181
30.1114 61.831 93.8679
40.5883 112.83 224.247
27.6835 46.5637 117.752
30.3629 44.5564 81.6988
22.0857 33.3526 52.9234
17.8392 46.5473 99.8919
14.9747 18.9947 42.3007
20.7925 39.2915 65.2442
11.7416 21.5824 49.6162
19.5579 35.1321 72.8899
22.9765 39.3282 62.6795
17.4568 31.4744 51.6813
10.6845 24.0918 55.8154
17.8211 34.3075 68.3963
18.0486 29.5345 54.1569
17.1011 30.974 51.383
11.7257 25.9841 56.3722
18.3374 37.3581 78.5832
21.1217 36.5162 59.8598
16.1857 34.3327 60.8811
12.7281 24.3688 40.9489
6.8741 19.0019 40.9987
11.8038 29.1941 69.5359
16.0256 30.6282 68.4507
14.7199 18.9712 36.4334
15.0403 27.3135 44.6854
9.06246 15.3565 36.1239
9.98455 20.9968 44.0466
15.5131 28.4144 47.5126
18.4749 44.3744 78.1616
13.7899 28.3856 64.5513
13.5234 23.2077 49.6207
18.6631 42.0031 77.5963
10.452 12.7638 23.7582
13.4057 37.5274 74.4518
9.53416 18.0389 35.6266
7.76899 22.8959 66.1011
16.6978 28.4369 41.2945
11.8375 32.5142 66.8148
12.2071 20.0323 50.2939
14.5578 26.9714 49.4639
17.8366 36.6414 64.0397
13.5038 35.4656 88.6692
15.8635 23.9945 56.6883
21.6671 43.1173 88.4958
19.6364 33.8435 50.5371
5.79958 17.8623 54.1237
15.5437 22.5538 43.0336
8.3733 16.1819 38.7016
15.6341 29.2445 59.6348
16.4248 35.7863 73.5524
17.1139 31.1572 60.2888
12.4087 23.0976 40.6655
6.91011 20.6408 52.0615
10.7722 22.8298 41.6478
7.33063 23.188 64.0009
16.4327 35.5267 90.2037
22.9185 40.6422 54.0118
7.04865 20.1402 60.0547
19.3166 34.0857 70.1303
15.6752 25.511 36.5439
11.1978 27.6697 53.2845
5.28404 11.8817 47.6756
16.1062 30.0982 47.4395
10.6934 28.8676 59.8415
14.4964 32.0898 73.9182
14.105 39.1237 101.499
18.9121 36.3881 89.0131
15.3814 30.5701 75.5485
15.0207 20.6479 33.7502
13.414 30.7014 61.7865
12.3961 30.5815 75.1317
13.3776 28.7596 55.5126
10.7103 23.3102 49.6289
10.8865 28.9239 87.4018
14.3741 19.9952 42.2914
12.1761 22.2756 36.6953
7.68249 19.7751 54.3007
13.9205 27.6291 44.3939
5.23924 17.1229 55.1334
16.4634 30.7479 55.7606
11.4496 29.3813 62.8299
10.896 16.0219 29.7771
9.40607 23.2903 56.7036
14.566 29.4723 52.6641
12.6201 32.5677 78.8226
13.3783 27.8843 56.37
8.6168 21.9839 54.4612
9.39526 18.3826 35.5798
8.81299 31.4527 102.439
17.4258 21.5642 39.4341
15.0652 32.9586 71.1623
21.555 47.1389 80.8259
6.8544 27.4511 91.1376
17.3417 31.6739 63.6445
13.4718 27.8601 46.3524
11.6969 37.8073 96.435
10.9755 19.4867 56.4113
7.08673 11.2462 40.2166
15.8568 28.9092 40.4008
6.38891 14.4114 30.6874
5.03651 8.1867 25.0248
9.82276 25.6241 66.3475
10.8366 21.5618 43.0416
6.5109 14.6393 35.7333
10.2627 22.5687 65.7962
16.3672 42.4191 76.648
6.39451 14.8116 52.9431
12.0637 21.442 34.4785
10.1514 35.493 85.9282
8.25544 16.4516 52.8553
10.382 15.0284 38.3342
8.36859 19.0781 36.7523
6.44845 24.5561 87.7759
17.5793 40.3654 78.8889
14.0955 34.099 92.821
13.6173 20.8495 37.7112
9.92807 34.1582 94.3523
8.22754 13.4496 58.2556
15.4933 29.7875 58.6945
11.9292 23.7268 50.5728
11.6612 26.9644 44.6907
7.00704 18.7998 64.948
14.917 33.5182 47.3087
9.1733 31.8458 83.1182
10.9129 21.7421 47.1476
4.50535 16.0505 69.4806
12.8524 28.3981 70.7863
15.7447 40.2242 96.0831
13.8891 28.9004 62.2397
9.0234 19.7905 45.8282
13.376 34.8617 57.9789
7.30176 32.3648 107.198
14.9999 26.067 60.7635
11.2581 25.9191 55.6797
