# pn-170911/RbIIR-59-USN3-1280-1959.psd
# Power spectrum* (dif=0,1,2) (really just |FT|^2)
# NOTE: only the first half! (symmetric)
# weeks: 1280-1959
# 3541 clock-days, 51 excluded
# PSD: 1441
322.742 0.0623982 0.0211614
12219.8 0.283917 0.0111335
40240.6 0.769806 0.0117284
13814.2 0.553681 0.0112245
32793.7 2.49932 0.0118354
5153.45 0.547154 0.0112001
4252.98 0.658933 0.0115239
2731.82 0.560817 0.0114703
3464.36 0.97985 0.0119422
1681.01 0.56719 0.0116314
1588.4 0.674424 0.0116429
1138.04 0.573738 0.0117382
1098.44 0.67238 0.012656
868.118 0.615811 0.0121619
827.386 0.692549 0.0122985
681.212 0.647539 0.0122675
705.692 0.777634 0.0122479
560.642 0.695367 0.0121835
545.828 0.772847 0.0126546
482.374 0.730916 0.012772
449.727 0.787928 0.0131816
408.375 0.780615 0.0135714
404.474 0.854002 0.0133182
369.269 0.844315 0.0137831
362.012 0.903787 0.0143619
337.927 0.920044 0.014319
333.779 0.993059 0.0140962
318.01 1.01428 0.0150434
298.29 1.03424 0.0153513
283.978 1.06477 0.0160711
292.694 1.15768 0.0166562
269.533 1.14443 0.0171288
274.936 1.26326 0.0175985
249.545 1.20653 0.018053
257.079 1.31733 0.0192414
252.914 1.39361 0.020426
250.135 1.47115 0.0210463
248.129 1.53116 0.0219328
235.702 1.53799 0.0229703
239.856 1.66352 0.0229094
231.648 1.68085 0.024573
214.795 1.62097 0.0249815
225.606 1.80515 0.0266373
227.836 1.89887 0.0291094
227.971 2.03737 0.0313682
225.701 2.07753 0.0323689
203.787 1.97659 0.0319449
207.212 2.0667 0.0334536
227.961 2.42988 0.0385035
210.765 2.32406 0.0388179
213.508 2.45767 0.041017
214.941 2.57607 0.0444391
212.731 2.62994 0.0456069
203.48 2.62778 0.0486348
213.768 2.89055 0.0526982
196.216 2.72094 0.0515062
208.112 3.04417 0.0563238
188.546 2.82271 0.0558748
215.166 3.34144 0.0657935
208.656 3.40028 0.0684076
194.899 3.23488 0.0666746
196.179 3.39366 0.0736307
213.476 3.83448 0.0830677
192.47 3.53665 0.0790699
201.179 3.84564 0.0870156
200.533 3.95052 0.0925726
199.503 4.03707 0.0951116
201.386 4.21963 0.103486
177.003 3.81436 0.0963403
190.634 4.23022 0.10684
189.064 4.32504 0.111931
195.557 4.61156 0.123704
190.724 4.62278 0.125813
182.282 4.54596 0.126741
187.671 4.81683 0.139321
175.054 4.59625 0.136202
187.113 5.0611 0.152528
174.561 4.81069 0.147661
186.757 5.29 0.168157
200.181 5.91703 0.187511
183.381 5.44513 0.17777
179.562 5.48442 0.185095
187.856 5.93935 0.201333
165.64 5.33178 0.187173
171.905 5.69077 0.204441
181.705 6.18208 0.227314
174.462 6.03593 0.224608
177.807 6.32718 0.240329
178.141 6.43032 0.247629
175.068 6.52286 0.255858
173.999 6.64498 0.268556
180.34 7.05029 0.28855
157.66 6.25046 0.265373
160.256 6.39917 0.271668
161.84 6.72137 0.295241
179.874 7.64431 0.341571
261.982 11.5371 0.519368
159.42 6.9449 0.321424
153.524 6.90444 0.324794
151.942 6.94795 0.333426
148.401 6.97506 0.344106
164.697 7.91459 0.395984
173.352 8.5732 0.438065
163.061 8.08409 0.417955
161.074 8.27289 0.440125
168.101 8.64914 0.463239
155.314 8.16835 0.448009
147.155 7.87221 0.44115
153.571 8.39569 0.474922
157.829 8.87668 0.513692
153.483 8.69811 0.510554
144.497 8.37242 0.503216
152.803 9.01261 0.549966
168.26 10.2034 0.633771
170.625 10.4136 0.653672
155.819 9.58359 0.613483
149.811 9.42397 0.610478
137.283 8.79619 0.586691
147.53 9.75037 0.65658
149.021 9.91383 0.680066
155.923 10.6006 0.745154
152.353 10.4226 0.732749
129.158 8.95072 0.638281
144.987 10.3343 0.756005
142.213 10.1737 0.749038
145.586 10.6729 0.805034
140.643 10.4853 0.803928
144.478 10.8857 0.845079
144.921 11.1309 0.877374
136.602 10.6815 0.859734
139.736 11.0321 0.894459
137.884 11.2037 0.931152
146.389 12.0356 1.01043
142.626 11.7809 0.996609
136.12 11.4185 0.982161
135.523 11.5566 1.0114
136.863 11.7746 1.04551
136.395 12.015 1.077
132.457 11.8422 1.08575
124.154 11.1786 1.03012
134.773 12.4839 1.1749
131.433 12.3364 1.17549
129.019 12.001 1.14934
139.259 13.4954 1.32857
132.327 12.7956 1.26392
121.233 11.9599 1.20425
126.903 12.6903 1.29112
130.433 13.2586 1.37491
118.021 11.9937 1.25692
125.101 13.0722 1.38003
130.785 13.9266 1.50494
129.703 13.7597 1.48384
122.6 13.2679 1.45636
121.192 13.2008 1.47471
120.767 13.4609 1.52986
121.337 13.6763 1.56952
120.233 13.5802 1.5502
116.786 13.5126 1.58062
121.14 14.2994 1.71274
122.934 14.4693 1.72249
114.787 13.7477 1.6723
113.872 13.7792 1.68484
114.809 14.1373 1.76305
119.155 14.9741 1.90692
116.11 14.529 1.85342
111.073 14.0966 1.81451
116.377 15.0771 1.97348
114.508 14.9357 1.96868
112.847 14.8627 1.98808
110.205 14.6827 1.99012
107.552 14.5738 1.99357
109.041 14.9342 2.07713
110.27 15.1061 2.08978
104.826 14.6947 2.08984
101.477 14.33 2.05076
106.521 15.4023 2.25016
104.951 15.0556 2.1918
103.064 15.1279 2.25923
106.954 15.7308 2.34476
102.833 15.3499 2.32032
98.8938 14.9032 2.27377
104.682 16.1866 2.54016
106.437 16.22 2.50747
104.147 16.6789 2.70469
104.764 16.3259 2.58291
101.39 16.2779 2.64918
101.124 16.1103 2.60424
96.4835 15.9065 2.65316
102.911 16.8167 2.78708
91.4299 15.1224 2.54018
94.1157 15.8802 2.70555
100.494 17.3914 3.05882
144.395 24.7205 4.2177
93.3316 16.0539 2.79183
94.1431 16.6285 2.97177
94.2551 16.6671 2.99325
98.2287 17.5552 3.1788
90.9333 16.2137 2.92098
89.3387 16.4786 3.06763
90.8967 16.8333 3.15606
91.2091 16.9919 3.21681
90.2357 16.9861 3.25482
91.4473 17.2856 3.32221
90.3818 17.272 3.34353
90.4799 17.3732 3.36621
86.0171 16.9629 3.37124
86.3682 16.9608 3.35967
86.7457 17.6148 3.58726
89.199 17.9919 3.69667
92.3932 18.7274 3.83389
87.1708 17.6767 3.61959
85.12 17.6328 3.68819
86.2388 18.0723 3.81132
86.9079 18.318 3.898
84.6382 17.9989 3.86418
80.6552 17.3091 3.75916
85.4235 18.7196 4.12969
83.3293 18.0581 3.96428
82.3239 18.1532 4.04325
79.0098 17.4646 3.91187
78.7933 17.7492 4.03813
78.1027 17.7023 4.05616
80.4308 18.3626 4.24294
80.3009 18.4271 4.28026
80.7072 18.6045 4.3348
75.7152 17.6865 4.17597
77.2969 18.4662 4.44947
77.7086 18.4125 4.42385
77.6896 18.9688 4.6655
80.1552 19.3643 4.72078
77.3055 18.7112 4.5512
71.5745 17.6818 4.41258
73.7107 18.3722 4.63504
75.5033 19.2014 4.9186
76.1242 19.1392 4.84615
74.0762 19.0056 4.93493
73.7447 18.8457 4.85443
69.3319 18.0156 4.72848
71.3598 18.7541 4.96835
72.3157 19.3004 5.22912
76.3165 20.0413 5.29804
68.838 18.3236 4.91594
67.3563 18.2803 5.03611
67.8207 18.5197 5.09436
67.7423 18.8128 5.2832
74.0073 20.5148 5.72677
69.659 19.2191 5.38928
69.1167 19.4491 5.51538
70.5991 19.9613 5.69256
66.0189 18.7528 5.39557
68.0532 19.7704 5.78429
66.5805 19.3425 5.66992
65.6417 19.0526 5.60061
66.3421 19.4678 5.78225
66.6476 19.7582 5.88382
65.5239 19.7419 5.99585
65.2499 19.7033 5.97234
64.4507 19.7799 6.08335
64.905 19.8659 6.12452
64.5717 20.0304 6.24832
61.4862 19.1097 6.00236
62.6132 19.5796 6.15918
60.7852 19.3836 6.23416
62.773 20.1907 6.55529
65.3694 20.7582 6.66328
60.6474 19.4571 6.33334
60.4142 19.51 6.36454
58.67 19.3666 6.42257
60.0426 19.7957 6.59084
59.1259 19.7098 6.62857
61.1372 20.3829 6.83993
59.7345 20.2939 6.9419
59.3893 20.1165 6.9041
57.681 19.6086 6.7311
59.7644 20.6455 7.1673
56.4424 19.6079 6.86498
59.4082 20.8787 7.36405
57.5339 20.1783 7.10966
56.5361 19.9298 7.07132
53.8013 19.4249 7.08911
57.6227 20.6098 7.44081
55.5124 20.2306 7.42388
56.6623 20.4354 7.42527
55.6313 20.4459 7.53582
52.9284 19.5495 7.29511
54.6519 20.2597 7.56183
51.7229 19.621 7.53242
54.8583 21.0278 8.26843
85.3732 31.6351 11.5631
53.082 20.352 7.86319
51.3178 19.8371 7.70897
50.5439 19.7882 7.79932
50.9192 19.9198 7.87432
53.21 20.8403 8.22885
52.1633 20.5624 8.16317
50.2989 20.0371 8.06392
50.5175 20.3632 8.29719
52.3373 20.9135 8.43053
52.4183 21.0494 8.46918
48.2417 19.8282 8.20591
50.81 20.7918 8.5231
48.8624 20.3544 8.54564
50.017 20.6698 8.63939
48.4561 20.2271 8.4843
48.2559 20.3692 8.66251
47.5868 20.1185 8.59417
50.0026 21.422 9.19493
46.6089 20.0692 8.73817
48.3774 20.9082 9.10221
48.0409 20.9281 9.21157
48.1407 21.1159 9.28014
46.6283 20.6377 9.23156
47.5879 20.8894 9.23223
46.6466 20.8039 9.32663
45.1736 20.4288 9.32929
46.5529 20.8426 9.43684
46.9148 21.212 9.6534
44.6753 20.426 9.45223
45.8789 21.0084 9.72125
45.3419 21.0106 9.77753
45.1962 20.9404 9.78696
45.978 21.4791 10.0604
42.7947 20.092 9.50879
43.9057 20.952 10.0345
44.4846 21.3517 10.2987
45.062 21.5081 10.3623
43.0386 20.6638 9.99373
42.2835 20.6433 10.1614
43.2742 21.064 10.3389
44.0386 21.6885 10.6972
41.5907 20.4419 10.1444
42.642 21.046 10.4592
41.0166 20.4125 10.2463
41.9919 21.2562 10.7774
40.7659 20.4889 10.3937
39.4471 20.1449 10.4006
42.3846 21.4678 10.8907
41.4685 21.3911 11.0499
39.218 20.428 10.6835
40.1688 20.8181 10.8702
39.787 20.7841 10.9234
39.6717 20.9479 11.1688
40.4221 21.141 11.1848
39.4483 20.909 11.1793
39.312 21.0144 11.3452
39.608 21.1892 11.343
37.9128 20.6812 11.3463
38.6034 20.9323 11.4647
38.4177 21.0651 11.6591
39.0168 21.2978 11.7413
39.041 21.379 11.7593
36.8547 20.443 11.3985
37.1201 20.8987 11.8501
38.5915 21.5554 12.1372
38.2036 21.5892 12.272
37.3857 21.3155 12.2349
36.8218 20.9511 12.0392
36.2766 20.9232 12.1675
35.6435 20.282 11.7054
35.8467 20.8386 12.2014
37.2766 21.649 12.6049
35.6998 20.9773 12.4114
34.4305 20.1564 11.9062
35.7737 21.2959 12.7104
34.1349 20.1763 12.0844
34.2783 20.59 12.5011
35.1432 20.9506 12.613
35.1862 21.3304 12.9778
35.7422 21.7541 13.3043
34.8748 21.269 13.1013
34.4319 21.2444 13.211
33.9698 20.8917 12.9853
33.9272 20.8159 12.9297
34.6235 21.5854 13.4559
33.3882 20.8321 13.1288
34.1225 21.429 13.5256
33.8944 21.5637 13.8334
34.2705 21.6683 13.7459
32.2836 20.7411 13.3877
32.1763 20.5205 13.1881
33.484 21.9184 14.38
31.7514 20.4713 13.4291
31.8264 20.7529 13.6986
31.9274 21.1572 14.5769
51.708 33.3252 20.6992
31.2893 20.818 14.0084
31.5087 21.2366 14.366
31.2222 20.7836 13.9557
31.8347 21.2353 14.2309
31.0038 21.1282 14.4778
30.6413 20.5156 13.9152
31.4251 21.535 14.7864
30.5081 20.8753 14.3727
31.1806 21.3362 14.7056
30.7112 21.455 15.0017
30.6885 21.3653 14.9854
29.5195 20.486 14.4441
29.6461 20.6816 14.5805
29.5568 20.6349 14.6048
30.4221 21.4656 15.1804
30.1349 21.4767 15.3446
29.7928 21.4839 15.5517
29.5207 21.2667 15.4891
29.1678 20.8237 15.055
29.2184 21.0551 15.3022
28.9189 21.1366 15.6024
29.7088 21.5427 15.6931
28.5069 21.0044 15.5535
28.6312 21.1583 15.7068
27.5344 20.4817 15.3866
28.7046 21.3042 15.8794
28.2867 21.1076 15.8713
27.9733 20.9196 15.7549
27.5823 20.8467 15.9087
28.0804 21.1684 16.0558
27.1109 20.7759 16.1058
27.7973 20.9489 15.9706
28.8432 22.2608 17.1365
27.617 21.2015 16.4631
27.6398 21.4168 16.6626
26.0885 20.2019 15.8135
27.8954 22.2001 17.6672
27.3981 21.4293 17.0316
27.3614 21.1972 16.6105
26.9949 21.1756 16.6932
26.4281 21.2083 17.0381
26.1556 21.1287 17.225
26.6705 21.1638 16.9181
25.3625 20.4569 16.6757
26.6552 21.4147 17.2358
25.5532 20.8767 17.204
26.117 21.2332 17.3645
25.8107 21.2471 17.5262
24.939 20.523 17.081
25.8556 21.4831 17.9596
25.3828 20.9904 17.6458
26.1488 21.7546 18.186
25.8006 21.4386 17.999
25.4801 21.265 17.8113
24.5492 20.7004 17.592
25.2181 21.4833 18.3143
23.9822 20.5658 17.7918
24.2056 20.6064 17.7257
24.5878 21.0783 18.1096
24.4904 21.2779 18.4896
24.2277 20.9522 18.3212
24.0509 20.8302 18.2057
24.51 21.4308 18.8453
23.7922 20.6753 18.2186
24.5412 21.6817 19.2418
23.5275 20.5262 18.1613
23.9011 21.2059 18.858
23.1819 20.5556 18.4008
23.699 21.3915 19.3385
23.7843 21.3716 19.2787
23.606 21.4802 19.6507
23.2834 21.0584 19.2175
23.5043 21.2299 19.2682
23.2117 21.2536 19.4843
22.3558 20.54 19.0556
22.5272 20.5875 18.9837
21.9811 20.5078 19.3464
23.2245 21.5207 20.0443
23.0369 21.3311 19.8703
22.6682 21.0628 19.7003
21.7688 20.5357 19.5005
21.4731 20.3462 19.4932
22.2903 21.1896 20.2958
22.8709 21.4464 20.2078
21.8653 20.8812 20.0915
21.6716 20.6781 19.8799
21.2471 20.6835 20.4114
21.9595 20.904 20.1909
21.7551 20.9896 20.4404
21.5675 20.6134 19.9466
21.7349 21.259 20.8196
21.874 21.5391 21.2478
21.3185 20.8077 20.4838
20.5962 20.6449 20.8677
20.5985 20.8452 22.536
33.7348 32.5086 29.7336
21.0139 20.8897 20.9757
20.8227 21.1633 21.5982
20.3711 20.4279 20.7857
21.0534 21.2091 21.4621
19.9113 20.1851 20.7625
20.6689 20.8949 21.2071
20.085 20.6932 21.4655
20.095 20.4688 21.0645
19.7423 20.3698 21.1774
20.0486 20.7317 21.7131
20.7219 21.4516 22.2502
19.719 20.5459 21.6854
19.9143 20.4658 21.3015
19.8002 20.7039 21.6979
19.3211 20.2349 21.4969
19.6232 20.6087 21.8222
19.7266 20.8405 22.094
19.4761 20.5885 21.7901
19.2497 20.6042 22.1455
19.215 20.5074 21.8983
18.8732 20.5274 22.452
19.4824 20.9787 22.7031
19.0614 20.6628 22.5821
19.1133 20.7307 22.7857
19.4286 21.0299 22.9083
18.9957 20.699 22.6214
18.7496 20.5022 22.4839
18.5074 20.7361 23.3937
18.8514 20.5572 22.6508
17.8493 19.8733 22.2932
18.2186 20.2562 22.6504
18.1476 20.366 23.0689
18.89 20.9469 23.2278
18.3315 20.9108 23.7824
18.001 20.0824 22.6434
17.7105 20.2596 23.2408
17.9398 20.5007 23.6421
18.1377 20.6901 23.7215
18.254 20.922 24.2221
18.1075 20.7552 23.9245
17.6864 20.3693 23.78
17.9456 20.5324 23.682
17.4336 20.3341 23.8151
17.3851 20.2155 23.7029
17.6476 20.6843 24.2617
17.4293 20.352 24.0358
17.5739 20.7106 24.4749
17.1356 20.3512 24.4804
17.3465 20.1725 23.6733
16.8278 20.557 25.2534
17.7373 20.5065 23.978
16.5167 19.7858 23.7492
16.5696 20.0914 24.4842
17.0745 20.9579 25.9078
17.4771 20.719 24.9641
16.9931 20.5289 24.9671
16.9443 20.246 24.3803
16.818 20.6617 25.3455
16.6483 20.3133 25.0065
16.9769 21.1646 26.3122
16.5369 20.4552 25.6932
16.7584 20.249 24.9206
16.0909 19.9011 24.8768
16.5752 20.8349 26.2668
16.5753 20.4213 25.5029
16.3977 20.2564 25.1246
15.8179 19.8343 25.0694
16.2012 20.3878 25.4327
15.8169 20.4131 26.2048
15.9667 20.5642 26.7043
16.0779 20.2669 26.0648
15.8722 19.9817 25.5961
16.2582 20.8874 26.7044
15.4015 19.5696 25.1557
15.3863 19.9695 26.1019
15.3432 19.624 25.4887
15.8873 20.6099 26.6238
15.2947 20.0695 26.5865
15.435 19.9739 26.2342
15.3808 19.9031 26.039
15.5318 20.4275 26.9513
15.2164 19.8858 26.2881
15.1863 20.1719 26.8872
15.1895 19.9743 26.492
14.9682 19.9321 26.8056
15.3526 20.39 27.2316
15.0508 20.1487 27.242
15.1142 20.1499 26.9738
15.024 20.3302 27.4634
14.6275 20.0084 27.7305
15.5638 21.0352 28.5593
15.0135 20.2913 27.6199
14.5803 19.7997 27.3337
14.913 20.6127 28.6147
14.2523 20.2491 31.4142
22.7962 29.8416 36.5451
14.6289 20.3692 28.635
14.4772 19.7307 27.1149
14.0473 19.6702 27.7334
14.28 19.8361 27.8339
14.3482 19.9352 28.0845
14.3893 19.9491 27.6684
14.2811 20.3314 28.7703
13.935 19.4557 27.33
13.737 19.8836 28.9679
14.3885 20.0353 28.1812
13.6613 19.3187 27.711
13.783 19.558 28.0847
13.7509 19.5735 28.1049
13.7557 19.6451 27.9785
13.0766 18.9611 27.8167
13.4767 19.4095 28.2956
13.8539 20.0829 29.1034
13.441 19.3796 28.4691
13.4582 19.3064 28.2842
14.0352 20.3619 29.3345
13.1877 19.313 28.5537
13.4965 19.8642 29.3083
13.3397 19.6165 29.3756
13.5721 19.6663 28.7747
13.1665 19.5797 29.3144
13.4237 19.8917 29.6122
13.2723 19.6735 29.4773
13.328 19.7931 29.4002
12.9538 19.7593 30.3574
13.1901 19.2245 28.6746
12.7625 19.0986 28.8143
12.865 19.3817 29.3434
13.072 19.9572 30.7619
13.2778 19.7928 29.897
12.895 19.5221 29.6923
12.588 18.9532 28.7805
12.4398 19.3252 30.2154
12.8299 19.4605 29.9698
12.9252 19.94 30.7296
12.4941 19.15 29.6028
12.5054 19.4292 30.1574
12.3156 19.2497 30.4911
12.6581 19.5439 30.6332
12.6018 19.3608 29.8409
12.088 18.8684 29.5552
11.8874 18.6977 29.8291
12.2998 19.6551 31.7978
12.7433 19.6281 30.6789
12.2132 18.9644 29.8325
12.0925 19.3825 30.9042
12.1486 19.0456 30.0976
12.0272 19.3402 31.2055
12.2586 19.6292 31.7531
12.1599 19.2025 30.4587
11.5323 18.4902 30.037
11.7556 18.8525 30.2889
11.4594 18.5217 30.1791
11.7105 19.0637 31.1335
11.6479 18.8499 30.7084
11.342 18.4674 30.5895
11.6182 18.7281 30.637
11.8718 19.3642 31.1691
11.1651 18.5143 30.9719
11.3887 18.6804 31.1879
12.031 19.7889 32.1119
11.1426 18.2568 30.2604
11.1506 18.6589 31.1179
11.0416 18.3482 30.8312
10.937 18.0317 30.0345
11.0337 18.9529 32.6575
11.3777 18.739 31.4069
10.9249 17.9968 30.2253
10.8885 18.5791 32.1014
11.4688 19.1909 32.2295
11.0985 18.6164 31.5485
10.8395 18.4711 31.9663
10.9489 18.1583 30.4895
10.7929 18.6323 32.1784
10.7074 18.078 31.393
11.0498 18.7127 31.6767
10.5335 18.1829 31.9218
11.0073 18.7041 31.768
10.6125 18.2235 31.3183
10.2994 17.8125 30.9603
10.4371 18.4321 32.7144
10.5933 18.0486 31.2525
10.1394 17.5429 31.1067
10.6097 18.4293 31.9366
10.3488 18.0471 31.6611
10.1935 18.0217 32.0472
10.3203 18.1381 31.7539
9.88785 17.5293 31.6438
10.1475 17.9509 32.2812
10.2681 18.1063 32.7084
10.2531 19.0757 39.3923
16.4721 27.5377 41.8381
10.3028 18.6937 33.5546
9.71645 17.4854 32.0033
10.0169 17.8405 32.1657
9.98694 17.9856 32.709
9.99279 17.8486 32.1491
10.1454 18.3968 33.006
9.60184 17.677 33.1494
10.1921 18.3668 33.4233
10.022 18.098 33.2228
9.96667 18.2366 33.8982
9.94434 17.6236 32.128
9.82308 17.6334 31.8689
9.83914 18.2093 32.9749
9.63656 18.0673 33.5044
9.40446 17.2661 32.2838
9.49099 17.5076 32.6099
9.46958 17.6019 32.8931
9.46728 17.4412 32.3745
9.20901 17.3684 33.1549
9.41418 17.3109 32.8832
9.83258 18.099 33.1523
9.15496 17.3086 32.7711
9.20627 17.4057 33.6163
9.61519 17.5431 32.0851
8.9086 17.1965 32.9898
8.94775 16.7363 31.983
9.3112 18.0383 34.5736
9.08467 16.9099 32.3431
9.01685 17.2536 33.2132
8.92743 16.9613 33.0616
9.12355 17.2335 33.2158
9.26417 17.5764 33.2691
9.23547 17.8519 33.95
8.94151 17.3832 33.9056
9.00731 17.2259 33.1582
8.88482 17.4251 33.8122
8.64665 16.6011 32.5892
8.72299 16.8288 32.7173
8.66117 16.9794 33.3322
8.49109 16.4016 32.3256
8.64234 17.0415 33.6586
8.72102 17.219 33.8961
8.5151 16.692 33.4168
8.76241 17.0692 33.4559
8.46786 16.9155 34.0505
8.48362 16.4349 32.8464
8.48916 17.0112 35.2538
9.67441 18.5603 34.4145
8.1849 16.6833 33.8615
8.32628 16.7289 34.0273
8.56805 17.0126 34.0119
8.34303 16.6649 33.5524
8.38291 16.951 34.6459
8.62422 17.111 34.2529
8.3162 16.7126 33.506
8.2341 16.8581 34.511
8.16469 16.3069 32.8336
7.97944 16.6043 34.7439
8.343 16.8557 34.3392
7.95765 16.1203 33.6656
8.17795 16.6245 34.2284
8.22324 16.8272 34.3658
7.90309 16.0942 33.4943
8.00731 16.5735 34.883
8.21051 16.6244 34.0442
8.07087 16.5626 34.1442
7.87797 16.3118 33.9364
8.04244 16.8349 35.0207
7.86059 16.4025 34.7877
7.78983 15.7879 33.334
7.92975 16.3578 33.9509
7.80304 16.1402 33.3161
7.53395 15.9597 34.0209
7.6566 15.9122 33.502
7.66083 16.1394 33.737
7.58264 16.2893 34.7294
7.64545 16.2416 35.2255
7.95795 16.6929 35.2246
7.72158 16.2568 34.615
7.52457 15.8451 34.0373
7.83805 16.7439 35.1438
7.45691 15.8623 33.8316
7.2496 15.5163 33.5573
7.23881 15.6226 33.9206
7.42491 16.0237 34.9723
7.52363 16.1606 35.3941
7.62503 16.2468 34.646
7.27943 15.7744 34.3528
7.25847 15.7009 34.1354
7.10531 15.3651 34.0393
7.29223 15.8572 34.5752
7.297 15.958 35.0264
7.22585 15.6962 34.7675
7.2186 15.9266 35.1691
7.02015 16.689 44.8501
11.4512 23.2953 43.1462
7.24514 15.6732 34.6704
6.99339 15.1885 33.628
7.12331 15.8529 34.9735
7.02548 15.6079 34.7469
7.10043 15.9497 35.7614
6.99876 15.3188 34.2994
6.97734 15.548 35.0856
6.95636 15.387 34.7943
6.98383 15.5072 35.0122
7.02665 15.53 34.7914
6.9674 15.5554 34.8048
6.82951 15.3358 34.9726
6.95264 15.4978 35.0072
6.91617 15.4274 34.3101
6.6711 15.1835 34.801
6.84405 15.4891 35.5587
6.91614 15.347 34.2089
6.62213 15.1706 34.8261
6.78684 15.4774 35.1527
6.55254 14.695 33.6532
6.63163 15.3909 35.2981
6.68538 15.3684 34.8975
6.40135 14.7304 34.6939
6.65831 15.2376 34.9181
6.34483 14.4065 33.887
6.56923 15.182 34.8573
6.42662 14.8567 35.1671
6.66955 15.253 35.1432
6.51857 14.9623 34.6682
6.60363 15.4094 34.9133
6.20261 14.9322 35.8788
6.36379 14.5321 34.4362
6.50999 15.2634 35.4605
6.19489 14.4734 34.4375
6.27616 14.5436 34.0865
6.20001 14.7863 35.5299
6.42641 15.0085 35.6961
6.34575 14.5301 34.3677
6.37438 14.9058 34.3301
6.02763 14.559 35.3584
6.24762 14.8292 35.3429
6.0555 14.2308 34.4962
6.17985 14.5811 34.6477
6.19186 14.7951 35.2275
6.08842 14.7115 35.68
6.13946 14.5966 35.6878
6.19687 14.4517 34.5904
6.05562 14.4615 34.8598
6.098 14.7822 35.7418
6.00728 14.2128 34.4023
6.02557 14.5422 34.8964
5.83468 14.032 34.0892
5.8165 14.0996 34.9406
6.08436 14.7531 35.4317
5.84918 14.2716 35.4541
5.89107 14.2327 35.3568
5.99959 14.3153 34.8141
5.84298 14.0348 34.3121
