# pn-170911/RbIIR-59-RbIIF-1280-1959.psd
# Power spectrum* (dif=0,1,2) (really just |FT|^2)
# NOTE: only the first half! (symmetric)
# weeks: 1280-1959
# 2337 clock-days, 207 excluded
# PSD: 1441
654.611 0.195574 0.0331511
25685.3 0.476826 0.0734279
117015 3.44487 0.0748349
22094.4 0.830406 0.0673231
74514.3 6.3589 0.0722519
7726.11 0.771534 0.0675788
7713.09 1.56994 0.0708199
3814.37 0.759801 0.068156
4834.49 1.53431 0.0711908
2526.82 0.722916 0.0672272
2388.95 1.05007 0.0735925
1576.64 0.777925 0.0702515
1722.1 0.999391 0.072743
1249.52 0.825203 0.0704845
1087.94 0.901221 0.0747386
958.992 0.825626 0.0663421
955.28 1.06062 0.0703488
700.077 0.850362 0.0690425
796.431 1.02156 0.069933
646.756 0.920378 0.0660724
585.483 0.942145 0.0733357
556.974 0.994594 0.0740749
511.018 1.03224 0.0708496
473.613 1.01295 0.0704031
445.26 1.05751 0.0780279
397.011 1.05876 0.0697855
395.729 1.14035 0.0701386
378.786 1.13033 0.0724903
382.975 1.2685 0.0721717
357.274 1.29569 0.0762304
370.503 1.44584 0.0749515
321.371 1.30171 0.0739901
354.491 1.5151 0.0800196
293.838 1.34549 0.0758224
296.507 1.48808 0.0771335
304.182 1.61656 0.0779802
296.081 1.65955 0.0822466
281.519 1.69494 0.0795658
284.605 1.76962 0.083453
270.881 1.81674 0.0822241
292.838 1.98702 0.0846748
259.923 1.89888 0.0850932
256.056 1.91245 0.0893554
255.456 2.09814 0.0888104
254.539 2.15331 0.0874022
243.129 2.1868 0.0902223
231.616 2.13979 0.0873203
237.835 2.27971 0.0918829
256.189 2.59236 0.0961859
229.738 2.45239 0.0922917
238.429 2.66854 0.0985072
237.816 2.73056 0.107805
234.114 2.75797 0.10991
232.58 2.85831 0.106207
219.875 2.92573 0.116556
218.999 2.92598 0.109926
231.506 3.25693 0.112915
221.804 3.19937 0.118151
227.796 3.46321 0.124013
208.318 3.23018 0.124142
233.086 3.66901 0.132993
215.801 3.56138 0.135711
238.238 4.06465 0.138273
199.399 3.62105 0.13503
201.779 3.78585 0.142441
211.537 4.13699 0.156282
216.561 4.28442 0.157943
222.355 4.5736 0.162503
207.001 4.29011 0.162231
208.995 4.5371 0.169641
196.025 4.39542 0.173627
190.813 4.44649 0.16747
215.121 5.09326 0.188612
189.64 4.54492 0.180967
207.812 5.24006 0.198962
195 5.021 0.200921
194.456 5.14952 0.204603
191.414 5.12769 0.206888
209.706 5.72392 0.239301
191.075 5.50469 0.228964
185.954 5.39846 0.22636
185.299 5.51754 0.23893
194.169 6.04676 0.253558
192.237 6.12862 0.258728
195.711 6.36295 0.273348
178.958 5.9813 0.270862
186.832 6.37857 0.289088
192.528 6.70551 0.311462
185.74 6.60402 0.303466
185.172 6.82065 0.317075
186.357 7.00385 0.327367
189.219 7.30213 0.335254
177.564 6.98176 0.339195
179.029 7.14025 0.343747
167.352 6.80243 0.357356
183.709 7.49844 0.387424
284.094 12.3872 0.595493
175.293 7.52822 0.396512
165.091 7.34122 0.40228
165.354 7.37022 0.39577
163.52 7.47161 0.419678
177.48 8.3316 0.45951
183.369 8.82412 0.487594
176.475 8.52539 0.479733
158.171 7.85011 0.458701
184.43 9.33336 0.551308
161.292 8.24155 0.487321
156.584 8.37302 0.506896
170.941 9.27407 0.563102
170.88 9.54629 0.592683
158.887 8.95126 0.564351
151.545 8.64415 0.571087
147.178 8.44396 0.566566
176.215 10.6368 0.698096
179.385 10.8657 0.719692
158.641 9.8025 0.667846
156.518 9.73266 0.671253
149.935 9.46645 0.6649
150.36 9.7479 0.691131
159.056 10.5164 0.754289
163.715 10.979 0.79702
146.618 9.91579 0.742819
135.78 9.35597 0.696123
160.199 11.3422 0.870902
143.674 10.106 0.789968
147.708 10.7294 0.852133
157.487 11.5961 0.897701
147.259 10.9575 0.873545
148.226 11.4142 0.943533
140.312 10.8349 0.89853
142.203 11.1329 0.931505
151.414 12.2995 1.05533
165.553 13.424 1.15537
149.744 12.2455 1.0443
142.817 11.8541 1.04989
144.134 12.1789 1.09877
135.983 11.6334 1.05511
137.456 11.9062 1.09704
131.465 11.4705 1.07551
131.709 11.8543 1.12332
135.494 12.5576 1.21672
138.481 12.9215 1.26592
131.029 12.1016 1.18525
140.759 13.5436 1.35345
147.205 14.4529 1.46142
132.681 12.7191 1.2904
131.608 13.0129 1.35495
135.332 13.4586 1.43071
129.61 13.3808 1.43885
125.984 12.9448 1.38678
130.849 13.5001 1.45795
128.401 13.4022 1.47985
126.596 13.5469 1.5154
128.193 13.8831 1.57304
131.158 14.2552 1.62751
127.708 14.4073 1.67499
132.133 14.7673 1.69888
117.672 13.5553 1.62587
124.023 14.2187 1.68994
120.252 14.1804 1.73886
119.924 14.3252 1.77879
126.558 15.265 1.90483
118.804 14.2613 1.75278
117.394 14.5321 1.86025
123.76 15.4287 2.00133
117.322 14.7252 1.90542
116.751 15.032 1.98257
121.24 15.7274 2.08473
124.728 16.4819 2.21703
114.827 15.0583 2.05433
116.595 15.6584 2.14999
115.917 15.7249 2.17894
111.682 15.4343 2.146
106.899 14.6458 2.09987
111.271 15.657 2.25373
111.629 15.8284 2.30991
105.108 15.0789 2.1976
107.701 15.7214 2.35851
110.716 16.2209 2.45203
110.266 16.3125 2.49298
112.006 16.5425 2.51582
109.438 16.6766 2.61014
108.515 16.542 2.56868
113.736 17.8059 2.86936
111.688 17.14 2.71178
106.908 17.1208 2.79006
107.641 16.9636 2.73369
101.826 16.2061 2.68954
103.871 16.8694 2.83146
102.494 16.7671 2.83327
100.113 16.5284 2.80977
101.775 17.0989 2.96876
152.884 26.3083 4.50174
104.214 17.4268 3.00592
100.244 17.6924 3.18611
101.534 17.8557 3.23452
98.9925 17.3438 3.106
92.8073 16.4565 2.96078
96.3929 17.7009 3.31289
95.8033 17.5798 3.28088
94.0821 17.3624 3.27047
95.4781 17.9123 3.43189
95.2724 17.9049 3.41903
94.8578 18.1003 3.51877
100.991 19.4369 3.76597
90.3837 17.5686 3.45615
93.0208 18.1754 3.60269
94.1159 18.7481 3.77156
92.9046 18.3269 3.69027
90.9373 18.6676 3.85662
96.8141 19.7164 4.05006
88.2923 18.3455 3.82994
91.1269 18.8616 3.95905
88.443 18.4736 3.9364
86.1887 18.3878 3.9495
84.4689 18.3256 3.99871
96.9229 20.7034 4.45237
83.2236 18.0399 3.95241
86.2307 19.1111 4.27782
85.2646 18.797 4.22369
86.0586 19.26 4.34169
82.3248 18.5012 4.22581
89.1832 20.5928 4.77284
86.2937 19.6506 4.52887
87.7176 20.4879 4.82482
87.2131 19.9 4.57135
80.9205 19.357 4.69371
81.5234 19.5394 4.71264
89.5084 21.5195 5.2181
81.9802 19.5224 4.68512
77.6597 18.9624 4.64037
78.6245 19.2237 4.76524
80.4647 19.8234 4.95198
80.7545 20.5158 5.25532
78.8547 19.9571 5.07665
77.7041 19.7835 5.10589
79.8034 20.3738 5.20639
71.9146 18.649 4.90405
73.1883 19.2405 5.13285
77.9297 20.5884 5.48255
84.27 21.9969 5.77059
74.6325 20.008 5.40716
74.1272 19.8985 5.42597
71.5487 19.5092 5.39687
76.1311 20.8343 5.75088
77.4822 21.3253 5.85849
73.2082 20.5599 5.78929
74.1693 20.6328 5.80666
74.1011 21.0612 6.00969
72.2387 20.523 5.89672
73.8846 21.1407 6.08417
66.8668 19.7001 5.84903
74.45 21.6109 6.33554
73.2318 21.4083 6.32369
70.1598 20.7384 6.18335
70.8892 21.1815 6.42095
69.885 21.2521 6.5034
73.2609 22.4563 6.84705
71.886 21.8335 6.66685
68.9837 21.3569 6.68631
68.4929 21.1593 6.54125
67.2835 20.7787 6.53286
66.95 21.2198 6.80688
67.6052 21.4046 6.89811
69.6383 22.222 7.1036
64.4194 20.5018 6.63986
63.1062 20.4238 6.65468
64.1387 20.9746 6.87424
65.3217 21.6773 7.26775
65.3906 21.3688 7.11913
65.5292 21.9 7.35767
64.2032 21.7455 7.3546
60.9921 20.4039 6.93958
60.234 20.7583 7.2652
64.1251 21.8769 7.50598
60.1929 20.9618 7.40734
68.5421 23.6904 8.20166
61.4272 21.3472 7.54907
64.6801 22.4721 7.89304
59.7517 21.3123 7.65039
61.7441 21.9979 7.89788
60.4274 22.0941 8.05129
61.1623 21.9507 8.04533
61.0052 22.263 8.19633
59.5797 21.9837 8.19275
58.4238 21.4693 8.04083
57.389 21.4141 8.15064
60.6544 22.9961 8.90029
94.9082 34.9707 12.8636
57.1775 21.7908 8.43004
56.8176 21.4303 8.31295
54.4017 21.079 8.28309
55.1478 21.2242 8.38456
57.8243 22.3711 8.73631
55.6012 21.788 8.60529
54.9726 21.8069 8.81316
55.2671 21.9053 8.78706
55.3488 21.9508 8.85193
56.8293 22.8921 9.28382
54.6504 22.259 9.2091
55.3333 22.7001 9.38129
55.1839 22.7293 9.51958
54.7325 22.1628 9.15127
52.6686 21.8006 9.08009
52.0517 21.8491 9.30762
52.4368 22.2538 9.48082
53.7947 23.1621 9.97589
51.129 21.8839 9.43668
50.9494 21.9859 9.59975
52.4537 22.5529 9.72297
50.1484 22.0078 9.73732
49.4947 21.6857 9.68541
53.1744 23.3514 10.306
50.2329 22.2568 9.96759
48.3852 21.686 9.87234
50.998 22.871 10.3136
48.3075 21.8665 9.95248
49.1654 22.3177 10.1934
48.817 22.3622 10.4383
48.6538 22.3391 10.3797
48.2668 22.0719 10.2057
50.6592 23.6518 11.1182
47.1372 22.035 10.3918
47.7698 22.3698 10.5944
47.4753 22.6701 10.8581
47.043 22.6171 10.9976
47.1784 22.519 10.8227
46.8037 22.6574 11.0455
47.882 23.2334 11.3658
47.9239 23.4892 11.5591
45.4817 22.3117 11.0879
46.2793 22.7512 11.2992
45.5006 22.5723 11.3104
45.5008 22.845 11.5741
44.0497 22.1842 11.3125
43.122 21.902 11.2309
46.1787 23.37 11.8806
44.8781 22.9751 11.8214
43.1975 22.247 11.57
42.8229 22.2618 11.7124
43.8402 22.5489 11.7197
43.4576 23.009 12.2657
42.8459 22.5569 12.0282
42.4222 22.4183 11.9644
43.695 23.079 12.3616
42.6248 22.8284 12.2629
42.0485 22.6355 12.2729
43.059 23.372 12.7166
42.766 23.2687 12.7072
41.9464 22.819 12.5568
41.2173 22.7129 12.5927
40.2379 22.1701 12.3238
40.425 22.6152 12.8241
43.1275 24.0871 13.466
40.4819 22.9306 13.0155
41.7379 23.8671 13.7123
40.5506 22.8816 13.0392
39.2173 22.5795 13.161
38.1606 21.7155 12.5335
38.6036 22.4767 13.1236
39.0375 22.444 13.128
38.7039 22.3033 13.0302
37.8908 22.4788 13.4113
39.9624 23.3949 13.891
37.3004 21.9094 13.0957
37.9984 22.522 13.5819
37.2946 22.0381 13.2261
39.1006 23.5039 14.1889
38.9519 23.7167 14.5241
37.243 22.6217 14.0021
36.3185 22.1176 13.6627
36.8842 22.6557 14.0694
36.1642 22.2279 13.9036
37.9433 23.17 14.3116
36.5206 22.8074 14.282
37.6401 23.6662 14.9871
36.7205 23.1594 14.7033
36.1737 23.0476 14.7538
34.1722 21.9037 14.3235
36.0468 22.7039 14.5514
36.5055 23.6969 15.4969
35.0601 22.5046 14.7285
35.0306 22.672 14.9473
36.258 23.6683 16.1267
56.8189 36.3975 22.4686
35.5546 23.7161 16.0536
34.2894 23.2509 15.8983
34.4551 22.6155 15.0334
34.0231 22.605 15.155
34.2685 23.1623 15.7738
32.7418 21.7558 14.7977
34.0269 23.2809 16.0769
32.9435 22.03 14.9976
33.3039 22.403 15.3087
33.6031 23.5698 16.5892
33.7057 23.2216 16.1309
32.7142 22.373 15.6346
32.0677 22.4031 15.8614
33.3098 23.2367 16.3536
33.1837 23.4496 16.7621
33.5337 23.7777 16.922
31.1833 22.226 16.0882
31.9763 22.595 16.2924
32.4895 23.3203 16.881
31.9047 22.9224 16.5954
31.7981 23.0327 16.9719
32.4929 23.4666 17.1663
30.6459 22.2919 16.509
32.1882 23.5691 17.4202
31.1565 23.0482 17.1758
31.6166 23.3526 17.4496
31.0499 22.9953 17.1448
30.2387 22.7383 17.1947
28.8319 21.5426 16.4543
29.8704 22.5167 17.2359
30.8712 23.1023 17.5485
30.4118 22.8443 17.3797
32.277 24.9143 19.2089
30.4388 23.242 17.9487
29.4875 22.6419 17.5884
29.6574 23.4456 18.5413
29.4855 22.8829 18.2411
30.4827 23.6346 18.5791
29.4304 22.759 18.0818
29.974 23.4976 18.5686
28.7474 22.859 18.4687
28.4984 22.4898 18.1519
29.7917 23.6132 19.0184
28.0217 22.1497 17.9121
29.147 23.4461 19.0058
27.6765 22.6592 18.6974
28.3009 22.8816 18.847
28.6834 23.2732 19.1914
28.193 22.7835 18.8472
28.8878 23.7614 19.5517
27.4423 22.5373 18.869
27.9482 23.1997 19.4185
28.2333 23.5756 20.0006
27.905 23.0715 19.4025
27.7611 22.65 18.9
27.1986 23.3752 20.0854
26.479 22.2566 19.028
26.285 22.501 19.5448
27.4066 23.2397 19.8869
26.567 22.9541 19.8753
26.71 22.9006 19.8871
26.4544 22.8817 19.9635
25.9252 22.6504 20.0102
25.9743 22.4275 19.7805
26.1614 22.8664 20.4022
26.5004 22.9204 20.3832
26.6308 23.448 20.8934
26.6553 23.0729 20.428
26.8275 24.1613 21.8078
25.9601 22.6322 20.291
25.865 23.129 21.0164
25.5941 22.9178 20.96
26.3882 23.8481 21.6624
25.422 23.1435 21.3935
25.306 23.1692 21.6807
24.7679 22.1644 20.4159
23.9579 21.9256 20.2792
24.735 22.7065 21.0413
24.5259 22.43 20.9041
23.933 22.5877 21.4254
23.8583 22.3808 21.332
24.1879 22.473 21.3266
24.5801 23.1651 22.0868
24.8397 22.9958 21.7137
24.2829 23.0948 22.1105
24.2371 22.7219 21.8226
23.7382 22.7664 22.1313
23.7457 22.6072 21.9189
24.3144 23.333 22.6132
23.1445 21.9417 21.5068
23.4018 22.666 22.1634
23.7784 23.3784 23.1258
23.8323 23.1156 23.009
23.143 22.9876 23.2176
23.0007 22.4684 24.0265
36.9873 35.389 32.1867
23.2647 23.1015 23.351
22.3167 22.5947 23.2083
22.64 22.4753 22.8617
22.3483 21.9448 21.9484
21.4865 21.8179 22.596
22.7633 22.8375 23.1872
22.5082 22.8548 23.5882
22.6045 23.0537 23.7888
22.1973 22.513 23.3276
21.9048 22.315 23.2844
22.4686 22.9752 23.8022
21.6358 22.2131 23.3754
22.0059 22.4691 23.1157
21.9399 23.0051 23.9719
21.5888 22.8977 24.5298
21.4467 22.0069 23.1474
21.8738 23.1083 24.5028
20.7683 21.8782 23.4151
21.5508 22.5808 23.8534
20.793 22.5142 24.3585
20.2857 21.5054 23.3896
21.3739 22.7413 24.5
20.8208 21.9696 23.5697
20.5677 22.238 24.228
20.3412 22.1109 24.3411
20.8987 22.5622 24.8175
20.3858 21.822 23.7901
19.3768 21.3886 23.9565
21.1774 22.8373 24.9394
19.6831 21.7668 24.0938
19.7884 22.2861 25.3906
20.1214 22.14 24.754
20.5267 22.5873 25.1831
19.5255 21.968 25.2574
19.8216 21.9496 24.7425
20.2821 22.8292 26.0896
19.8052 22.1664 25.4211
19.7241 22.2287 25.2732
19.8648 22.8021 26.3541
19.085 21.89 25.3684
19.4024 22.1315 25.7198
19.1239 21.6537 25.0657
19.2245 22.0899 25.5546
18.7644 21.8173 25.7222
19.317 22.3261 26.3183
19.1787 21.9677 25.8141
19.6711 22.8234 26.8796
18.9488 22.3245 26.8311
19.1766 22.0184 26.0142
19.1818 22.745 27.4006
19.1707 22.3371 26.5381
19.0338 22.4069 26.7284
17.7938 21.1782 25.8313
18.591 22.3447 27.347
18.346 21.5073 25.8456
18.1071 21.8275 26.9392
18.726 22.1197 26.534
18.1605 22.1759 27.3594
17.8327 21.771 27.2705
18.8425 22.6704 27.788
17.9792 21.8705 27.1325
17.7989 21.2757 26.1507
17.404 21.6607 27.5002
18.5172 22.8403 28.6757
18.3099 22.4201 27.9399
18.5525 22.8762 28.4562
18.2174 22.3478 27.8101
17.4955 22.0407 27.6187
17.602 22.4258 28.7943
17.6596 22.4842 29.2661
18.0452 22.64 28.9385
17.3473 21.6348 27.6734
17.9475 22.6795 28.964
17.5096 22.1642 28.4073
16.0828 20.3747 26.8321
16.7042 20.9923 26.9554
17.4839 22.7772 29.4443
17.0734 21.9347 28.5114
16.3031 21.2868 28.3803
16.6584 21.1057 27.5321
17.3081 22.5643 29.5116
16.415 21.4578 28.6826
17.1091 22.605 30.0176
17.2081 22.3743 29.9507
17.0967 22.4843 29.7962
17.1308 22.576 30.5816
17.1909 22.4664 30.045
16.8904 22.1467 29.5457
16.4208 21.5306 28.6817
16.1865 21.7568 30.2473
16.672 22.1896 30.2689
17.082 22.0766 29.734
15.8534 21.1511 28.7957
16.5979 22.4312 31.2536
15.7724 22.6532 35.6995
26.4505 33.4924 40.5238
16.175 22.7905 32.4265
16.7586 22.0691 29.8949
15.1617 21.0981 29.8936
15.4968 21.0622 29.9512
16.0542 21.8396 30.4941
16.1477 22.2994 31.0711
16.2199 22.3321 30.615
14.8419 20.8601 30.075
15.9829 22.2538 31.2856
15.244 21.6214 31.0916
15.3552 21.4899 30.5854
15.2602 21.5476 31.239
15.4517 21.6934 30.6106
14.8122 21.3352 31.1563
14.9698 21.0499 30.5042
15.2461 21.6546 30.9845
14.99 21.7907 32.0489
14.9911 21.1184 30.6104
14.549 20.8631 30.3214
15.0706 21.97 32.187
14.8785 21.096 30.8161
14.5918 21.2835 31.323
14.3996 21.1094 31.527
14.6728 21.4081 31.8153
14.3367 20.8775 31.3588
14.8751 21.6559 32.0607
14.8658 21.9374 32.3949
14.3523 20.9271 31.316
14.0452 21.1242 32.3336
14.4697 21.0132 31.7701
14.0365 20.5962 30.9206
14.52 21.5433 32.4108
13.885 20.7894 31.6758
13.8624 20.7112 31.5202
14.1574 21.1828 32.228
13.6162 20.334 31.1444
13.8264 21.0042 32.4489
13.6976 20.4519 31.6916
13.8579 20.8958 31.8261
13.3409 20.6505 32.5011
13.5663 20.688 32.0717
13.6093 21.0305 32.8712
13.5237 20.7546 32.5479
13.293 20.268 31.6827
13.0499 19.9777 31.309
12.9046 20.2162 32.5745
13.5801 20.9568 33.737
14.0129 21.5931 33.9495
13.8942 21.1893 32.5245
12.6018 19.9196 31.8322
13.0358 20.459 32.7362
13.3645 21.1966 33.8034
13.4431 21.2053 33.9989
13.1564 20.7088 33.1616
12.9213 20.4656 32.9792
12.7651 20.316 32.7654
12.8122 20.4722 33.3875
13.0197 20.8132 33.8702
12.7355 20.3256 32.9724
12.5648 20.4149 34.1616
12.8938 20.5503 33.8162
13.0985 20.8958 33.5774
12.3545 19.8725 32.4709
12.2934 20.33 34.1468
13.1355 21.1659 34.3612
12.3313 20.3287 33.7673
12.2159 20.0179 33.6525
12.3576 19.8524 32.8882
12.0865 19.7648 32.9208
11.9643 19.6601 33.0505
12.3652 20.5059 34.7804
12.1495 19.7095 32.9818
12.0303 20.2242 34.4534
12.1513 20.1302 34.277
12.4164 20.2423 33.5732
11.7717 20.0065 34.525
11.8196 19.3533 32.8088
11.7707 19.9228 34.3332
11.71 19.4783 33.3039
11.8108 19.7775 33.7659
11.8566 20.2502 35.4205
12.2123 20.4412 34.3424
11.182 18.8316 33.1316
11.7986 20.1652 34.6147
11.4283 19.8783 35.32
11.8823 20.2815 34.89
11.1127 18.8449 33.642
11.5762 19.7926 34.6853
11.4036 19.3541 33.9269
11.403 20.0753 35.4248
11.2912 19.7221 34.9037
11.1964 19.4371 34.5532
11.1607 19.5919 35.0885
11.2141 19.4935 35.1773
10.9309 19.9336 41.252
17.8505 29.8554 45.6976
11.3509 20.1428 35.5812
10.5368 18.7021 33.7851
10.9754 19.6157 35.432
11.0114 19.5054 34.4188
10.3379 18.8815 34.8846
10.8518 19.2907 34.8974
10.4105 18.905 35.7053
11.494 20.1775 36.8179
11.1938 19.6493 35.8148
11.0187 19.7952 36.7663
11.0186 19.1931 34.5943
10.7326 18.9458 34.4723
11.0572 20.3674 37.158
10.5901 19.0907 35.5199
10.5741 18.9385 34.3875
10.2284 18.9092 35.5796
10.2473 18.6761 35.147
10.4636 19.1992 35.5744
10.0957 18.33 34.8539
10.197 18.4995 34.8429
10.7456 19.8738 36.3163
9.99158 18.7339 35.5575
10.0433 18.7819 36.2052
10.6441 19.1865 34.8913
9.60378 18.3906 35.4342
9.8847 18.0316 34.107
10.0269 19.5033 37.7076
10.0443 18.213 34.5588
9.63421 18.0455 34.8912
9.67589 18.3523 35.8286
10.1576 19.1462 36.8942
10.1835 18.7802 35.4288
9.91057 18.7737 35.7917
9.63564 18.9082 37.6209
10.2283 19.2027 36.3098
9.33341 17.8543 35.2766
9.87366 18.5619 35.9446
9.52749 17.6866 34.3699
9.58541 18.4117 35.7039
9.34321 17.954 35.3027
9.26591 17.8318 35.3052
9.47836 18.3508 36.1249
9.42551 18.1218 35.7399
9.3853 18.0697 35.82
9.25758 18.1166 36.0809
9.11347 17.5888 35.0657
9.07424 18.2553 39.0402
10.9608 20.4998 37.4016
8.78332 17.7179 35.9776
9.03724 17.7097 35.7543
9.05952 17.4263 35.2313
9.33606 18.6132 37.0365
9.09708 18.2663 38.1244
9.29634 17.7884 35.7087
9.21902 18.1666 36.278
9.09987 18.3074 37.5989
9.27693 18.055 36.3164
8.84321 17.9504 37.4247
9.13861 18.0754 36.7375
8.80655 17.5462 36.3047
9.17409 18.487 37.9021
9.10808 18.2447 37.0726
8.53985 17.0156 35.5465
8.54404 17.0728 35.9688
8.9832 18.205 37.2556
8.76946 17.8879 37.8408
8.98631 18.0519 37.3105
9.14982 18.7164 37.7972
8.23264 16.7882 35.6529
8.4483 17.1585 35.8869
8.28659 17.2379 37.3096
9.02351 18.0407 36.4445
8.43929 17.3544 36.3172
8.23543 17.0197 35.9032
8.2634 17.2255 36.5257
8.41774 17.521 36.8039
8.06953 16.8354 37.0654
8.85739 18.5158 38.5619
8.45569 17.4246 37.1636
8.39538 17.6475 37.6671
8.25207 16.7303 35.178
8.12748 17.4434 37.4329
8.15433 17.1209 37.0109
8.23983 17.4962 38.1866
8.41552 17.4439 37.3822
8.2822 17.5574 38.4667
8.61197 18.1489 38.5791
8.18905 17.2118 37.1536
8.07884 17.3303 37.4033
7.78547 16.8803 37.9012
8.10201 16.8405 36.4385
8.02635 17.2452 37.7009
8.09995 17.7439 39.2564
7.79415 16.7437 37.5222
7.7919 17.8781 48.1472
12.986 25.9662 46.8139
7.8742 17.0847 37.8554
7.83637 16.9631 37.2534
7.68923 16.8226 37.55
7.75781 16.8972 37.7431
7.82534 16.9543 37.0763
7.4142 16.5027 37.1862
7.64509 16.6108 37.5613
7.37949 16.1313 37.1421
7.77304 16.8948 38.0158
7.68148 16.5455 37.0953
7.59167 16.521 37.4632
7.6831 16.6818 37.2186
7.44493 16.2678 36.5535
7.42854 16.5678 37.9239
7.55795 16.7047 37.9794
7.33518 16.1532 37.251
7.62093 16.6078 37.3491
7.4674 16.5616 37.401
7.39892 16.3364 37.3495
7.24299 16.035 36.2824
7.22835 16.2691 37.1914
7.21604 16.5476 38.1697
7.18319 15.5503 35.7352
7.19667 16.6687 38.2858
7.14837 16.0255 38.2309
7.24962 16.0183 37.1804
7.18157 16.2109 38.1838
7.50789 16.7669 38.4852
7.30084 16.0945 37.2119
7.28481 16.7192 37.9603
6.99994 16.4496 39.5503
7.13276 16.0157 37.2434
7.02418 16.1367 38.2022
7.05788 16.0327 37.6301
6.93832 15.8262 37.3843
6.84443 15.5223 36.8351
7.03765 16.2465 38.8409
7.05337 15.9446 37.6391
7.044 16.2188 37.3389
6.61828 15.5692 38.2015
6.94105 16.0071 37.8804
6.65413 15.3783 36.8987
6.80862 15.8474 37.5505
6.81912 16.0106 38.3477
6.78716 15.974 38.3728
6.6607 15.4471 37.5767
6.81228 15.8342 38.271
6.76778 15.8579 38.4352
6.56921 15.3181 37.2265
6.64624 15.654 37.38
6.64134 15.8387 38.6704
6.70404 15.6533 38.0388
6.6457 15.5738 37.7644
6.50088 15.5463 38.0426
6.64759 15.6855 38.0312
6.50771 15.7524 39.1676
6.70687 15.8061 38.4349
6.53017 15.1736 36.6712
6.37339 15.5628 37.7623
6.24388 14.8055 36.7278
6.27734 14.835 36.4702
