# pn-170911/RbIIF-72-USN7-1280-1959.psd
# Power spectrum* (dif=0,1,2) (really just |FT|^2)
# NOTE: only the first half! (symmetric)
# weeks: 1280-1959
# 1 clock-days, 0 excluded
# PSD: 1441
192.386 0.0321688 0.0682649
423526 3.56076 0.0414717
809175 12.7843 0.0365632
184133 5.66588 0.0446871
106770 5.59375 0.0403876
164215 16.9843 0.0579614
38972.9 8.84723 0.0511898
159442 32.3899 0.0685627
19914.8 5.84712 0.0599419
9143.38 4.55727 0.0564369
19325.1 11.9478 0.0618547
17364.2 13.2972 0.0396979
43012.7 24.3388 0.0483275
12152.3 11.0149 0.0161429
2826.95 1.75268 0.0567531
18043.7 22.776 0.0238195
30385.3 31.7016 0.117848
5493.34 6.12469 0.0177507
2908.79 3.23325 0.0685939
5612.42 7.85332 0.0189295
3314.2 6.39035 0.0970169
1261.08 4.17746 0.0654868
6159.42 12.4298 0.0119467
11484.2 33.3575 0.152187
17305.8 55.1296 0.212827
1958.22 3.4414 0.0622156
6795.73 17.8139 0.124234
16228.8 54.8644 0.0569924
20573.7 85.554 0.283792
3443.92 10.0021 0.104391
1325.92 4.74448 0.115423
460.682 1.62511 0.0151323
5272.26 30.0015 0.0984967
4240.86 26.7443 0.236935
14177 71.9427 0.622056
5114.66 31.0378 0.0596734
583.404 5.71025 0.070505
118.534 0.293163 0.0565405
3286.44 24.9524 0.348276
1449.95 8.429 0.171582
5469.07 46.8988 0.247986
5041.56 38.9021 0.573683
675.317 4.27241 0.0120243
5153.97 51.7324 0.406338
2227.18 27.4981 0.277357
4261.15 33.0683 0.31216
322.834 1.62968 0.0618079
1139.96 9.46091 0.235008
1830.27 17.4375 0.36418
1205.61 16.1529 0.30985
3045 39.7942 0.78747
1825.12 24.9482 0.169133
427.456 4.22601 0.178931
2089.83 27.2567 0.658664
1287.02 20.0988 0.169138
382.986 3.55265 0.0340868
138.587 2.74636 0.151305
303.786 3.9946 0.0064735
1247.72 19.9059 0.585521
1363.09 29.0685 0.593895
2975.22 42.8137 0.682882
118.14 2.04931 0.00035314
619.482 13.8505 0.38275
786.091 19.0051 0.600031
1440.93 25.0703 0.262188
919.25 21.1939 0.666837
76.3371 3.30063 0.101527
92.172 3.92807 0.0982618
452.535 6.31235 0.190223
150.873 3.57093 0.0187354
517.963 10.4582 0.0836096
141.192 1.53712 0.0314106
3024.92 71.2621 1.35785
256.265 6.85035 0.0967372
70.7506 2.05819 0.106601
62.1796 0.907774 0.0868495
743.89 17.7952 0.710457
2791.54 72.6191 2.52928
700.816 19.546 0.918898
176.444 6.11724 0.401751
543.717 15.8717 0.818857
334.488 12.8774 0.763206
332.832 8.39121 0.126603
342.278 13.5518 0.645277
1102.19 45.5969 1.56209
725.201 18.0173 0.55338
1164.17 42.81 2.08363
87.6129 2.20241 0.254974
177.32 4.44658 0.312124
525.373 15.9342 0.278496
652.502 25.1787 0.607047
40.2902 2.08261 0.0221185
832.021 27.9485 1.33917
116.667 4.43809 0.0512395
84.2257 2.41622 0.05789
565.433 20.4466 1.15038
468.611 19.6822 1.28187
193.202 10.1758 0.914418
1319.94 62.6036 2.35929
92.6607 2.70848 0.0751471
97.3364 6.66248 0.249442
75.8238 6.4037 0.438497
419.058 18.1146 0.694742
455.055 22.2747 1.39249
882.709 43.1365 2.82196
283.173 19.5444 1.55393
22.0828 1.58325 0.364003
362.92 14.1895 0.504291
810.871 45.9097 1.93349
115.106 4.08347 0.36923
166.49 6.69615 0.309732
807.043 44.7541 3.08023
94.1821 6.38311 0.527441
144.545 7.58138 0.243927
285.626 19.4763 0.842402
178.958 12.7792 0.8897
135.59 11.8578 0.838451
177.662 15.0492 1.38411
26.6833 0.450865 0.0574874
61.1349 7.26032 0.618455
249.885 14.1181 0.683663
89.5437 8.45493 0.686246
171.293 16.7339 1.71126
627.008 35.5298 2.05646
584.959 36.9679 3.06051
681.218 51.3987 4.80917
259.969 21.7073 1.64698
66.2857 3.82666 0.524699
60.3789 7.37587 0.986693
154.795 10.1964 0.382937
118.509 6.88495 0.604479
158.228 12.939 0.847292
252.348 19.1738 2.07061
183.984 17.2306 1.63291
130.07 12.3366 1.73499
116.068 12.5235 1.36276
244.508 18.8771 1.09872
750.846 70.2986 5.89
152.683 19.5466 2.10146
276.551 35.2926 3.67224
47.5054 9.56262 1.20293
400.865 26.6718 2.2291
130.506 9.55209 0.897117
19.16 2.978 0.534956
12.6378 0.56786 0.00747832
32.5533 5.22697 0.591622
13.3677 2.68745 0.632222
47.6653 3.44384 0.10602
68.0766 10.0338 1.66701
49.8486 2.51254 0.101906
125.153 11.806 0.628893
202.802 24.8826 2.16833
70.927 12.5141 1.5615
110.084 12.2617 0.942683
93.7217 15.0379 1.9932
81.5639 14.8583 1.84127
105.167 14.4904 1.52376
214.935 27.127 4.01512
214.991 16.7437 1.80955
116.929 14.1313 1.24103
121.17 9.10529 1.00853
9.63213 0.253987 0.079307
256.296 38.2322 6.4859
455.535 47.65 4.31109
19.2705 3.48335 0.819291
69.4875 5.66507 0.288999
45.3567 7.17148 0.803085
302.53 30.0925 3.42976
9.94605 0.954359 0.0396359
58.5889 5.03857 0.844427
102.346 9.14451 1.02735
88.2841 9.68306 1.71606
421.363 54.871 6.93545
43.2428 5.65658 1.09057
163.667 22.256 3.77619
77.3154 14.7945 2.55067
66.8065 9.00534 2.05682
155.808 19.2249 2.18823
75.3962 12.0553 2.55552
55.4113 7.86819 1.83017
35.4914 4.40603 0.32546
77.6712 9.66761 0.815495
47.1697 9.29311 1.31088
140.445 19.5544 2.18411
79.3304 16.329 2.2948
49.3268 6.19513 1.33839
267.532 49.2808 7.60056
69.7314 14.6556 3.31709
16.5105 1.45778 0.624913
41.7671 4.06081 0.880005
107.54 17.058 1.92843
24.6846 7.8529 1.51461
137.014 16.779 2.20417
35.9429 4.79946 1.1719
29.0215 5.14556 0.541978
2.67565 0.00407371 0.0444847
24.9212 2.70154 0.72647
38.4878 4.23143 0.549883
55.4179 10.7595 1.49277
15.0126 5.45265 1.50521
113.168 18.3454 2.8489
257.337 38.1213 6.64312
191.34 36.3675 7.59281
116.576 22.5871 5.48312
363.495 82.576 17.7746
134.322 20.722 4.68689
31.4499 4.71228 0.688564
131.734 19.6496 2.1806
106.761 19.163 4.22126
412.478 88.8845 16.2037
201.31 37.5595 6.96235
1.46276 1.25358 0.294765
15.5907 2.63237 0.417334
126.955 20.8506 3.76304
96.974 20.3576 4.75147
33.9758 7.38517 2.32134
44.5512 7.82744 1.67924
13.2306 2.81554 0.970378
0.84702 0.471667 0.0292403
175.11 41.3333 10.637
1.8602 0.331355 0.556718
5.49314 2.86182 1.51539
118.182 29.9623 6.21782
164.43 36.6848 7.43564
33.3329 5.19299 1.13257
59.0202 13.9876 4.30453
7.08326 4.61697 2.74031
150.347 30.3268 4.94385
82.2089 27.0237 6.59049
61.323 9.6209 2.12785
23.6673 9.4336 2.38068
68.692 12.3035 2.963
64.0257 14.542 4.42056
22.1382 5.01131 1.73133
55.5156 19.6757 7.43285
67.6993 14.5934 2.3445
26.5562 6.17563 2.7815
132.693 28.6006 5.82515
0.494763 0.0264078 0.220298
32.9611 9.67128 2.2671
28.3563 3.98697 0.135504
241.951 64.7897 14.7508
1.03287 0.501832 0.161054
88.7759 32.1479 8.92674
29.1186 5.45507 0.962399
57.9087 13.9002 3.26581
109.765 26.4772 7.73348
21.9997 6.53049 2.80708
140.11 40.3571 9.06261
95.6809 29.1413 8.07627
55.2038 19.7694 7.86104
56.9271 14.9994 2.84254
31.3931 12.1238 3.95243
114.513 33.5013 10.155
10.0086 4.29388 1.516
125.092 38.5685 10.0795
14.9873 2.2837 0.759545
69.6444 24.3506 6.74856
30.35 13.5646 5.36278
6.12967 3.56758 1.41756
34.8883 7.17378 2.01752
38.7204 16.0961 5.71788
15.2422 1.94397 0.634166
7.69394 1.1836 0.338556
31.9551 12.1924 3.13505
10.8027 2.40162 0.761746
66.627 28.4295 8.9302
1.97101 4.77801 2.75852
60.366 15.9557 4.47356
22.353 16.051 7.67831
84.374 16.7214 3.92398
20.636 5.88663 2.41714
4.60662 0.395031 0.0665805
76.3991 25.016 9.35356
82.4704 27.2627 10.9337
15.8336 8.92985 4.84646
41.807 12.2161 2.69236
2.03816 0.642615 1.07393
39.1356 10.9129 2.51603
48.7254 11.079 2.4581
34.8234 9.82311 3.80313
133.34 49.2175 17.3159
21.4914 11.9987 5.06183
47.555 15.8803 5.06647
27.4225 13.4319 4.58911
4.39369 2.03608 0.885983
31.1831 21.7313 12.3604
176.093 48.0478 12.2662
192.865 86.0979 37.9798
49.8187 10.3792 2.76012
44.8996 22.0174 8.33911
18.9317 2.87143 1.15862
71.0864 20.0052 6.3903
12.2762 3.15778 0.940711
39.1276 14.6993 6.7174
21.9373 9.39079 4.09966
20.6584 12.3418 5.49717
49.839 15.5356 5.00677
18.791 7.03658 3.54953
3.53256 2.21506 1.68167
2.10631 2.14267 2.09429
15.7416 5.51053 1.23954
20.9737 12.6078 5.30799
20.3697 6.08216 2.77979
28.1297 14.1718 9.16416
81.1905 35.8114 13.2556
2.24479 3.87517 3.65062
110.187 46.1293 16.0394
3.32551 6.2768 3.98488
0.887296 1.10907 1.5682
32.0219 8.75433 3.54947
7.10491 0.484932 0.151518
13.7388 2.06928 0.144283
37.9356 13.9117 4.8171
34.7616 11.0077 4.01824
22.4622 8.23597 3.77705
17.7802 9.09053 5.37718
62.7695 29.6332 14.2667
9.22799 11.4701 11.3613
76.2702 24.5073 5.74375
30.4571 17.5879 7.54374
18.9738 6.51859 3.44936
4.6448 2.24902 0.435665
0.154627 0.240732 0.670933
70.3276 39.1028 18.0513
36.5101 14.6412 8.12912
30.5747 12.1565 4.53443
36.2489 26.2174 13.9264
14.4167 5.82245 3.54215
52.9113 15.7975 5.03793
20.0125 8.34718 4.07227
36.5524 19.3091 11.6941
7.79683 3.40951 2.31415
32.7955 19.1297 8.17087
10.3397 6.8837 3.86704
67.0315 32.5264 17.3394
31.6462 20.3471 10.1955
2.17159 0.630867 2.11196
71.5103 26.614 10.479
42.8494 16.6106 6.75691
41.294 24.3511 15.5355
1.38837 0.254305 1.43631
91.6314 50.0613 24.8499
8.81603 6.13002 2.53286
46.5009 35.4749 22.6424
18.5897 14.46 14.4557
37.5829 10.8581 2.93053
49.6078 16.4405 5.19901
57.3748 33.357 21.0426
13.9392 4.81619 1.59246
9.69375 5.67772 4.0307
0.625814 0.512935 0.118905
40.4663 27.3124 20.2078
10.6309 1.88126 0.139805
27.9791 17.4207 8.00105
16.2153 6.22892 3.40849
16.4345 11.5948 8.5297
0.961326 0.0285412 0.521891
2.36607 0.8598 1.26253
17.7275 19.7184 18.3771
78.5103 30.5987 8.91074
31.0074 19.519 10.6762
0.821823 0.0814386 0.0119409
2.6261 1.01019 1.09533
8.17545 5.84585 3.23319
29.8321 14.8518 9.05955
10.8429 4.36411 1.45799
55.3482 41.2371 31.4971
6.27049 0.922045 1.45408
19.681 10.6988 5.09959
28.6742 16.1919 6.48595
3.10098 2.1217 0.429852
5.50912 4.2366 1.44959
34.8455 32.2344 20.8474
1.54899 0.832513 2.71986
34.7617 16.0144 8.12213
21.7748 8.47546 3.76837
27.4807 21.3949 15.2529
48.1222 23.5402 12.0423
75.47 64.1719 52.309
22.3488 18.677 24.0737
65.6477 29.0356 12.4117
12.6426 5.90184 3.37386
25.1371 13.4493 4.00498
2.0493 1.48373 0.181161
8.57147 7.19941 5.81886
25.5227 16.5667 9.5112
18.7876 14.176 7.46789
3.69651 1.1198 1.47856
13.4917 7.93175 6.61319
14.3885 9.54935 7.42952
41.4121 27.1544 13.4268
23.0509 15.7299 7.83498
11.6998 11.6722 12.7319
28.2592 14.0654 4.02638
12.1234 9.31587 3.58797
12.0637 12.589 8.83286
23.856 19.1927 11.4378
35.4994 21.0687 7.88844
57.7013 55.997 39.2854
9.17266 17.107 16.2861
7.86803 17.4362 20.2953
7.90693 0.374986 2.30666
10.498 0.83775 0.189471
29.9307 18.7226 15.281
35.4029 16.393 6.10073
17.1494 11.2912 7.88199
3.25791 3.82782 2.60347
0.231765 0.46314 0.749695
6.02424 2.02009 0.944707
11.0683 6.88056 5.83618
14.8398 8.92494 3.78285
43.5013 39.0006 32.6098
2.81911 1.75554 3.6672
36.3239 37.4274 34.1001
11.6017 9.23697 9.65942
36.3366 31.4677 22.2762
6.60021 5.65681 6.96431
21.7994 11.1539 4.74446
3.08884 1.47997 0.857533
9.25212 13.9404 15.0729
19.9025 9.07625 7.42269
41.9248 20.7986 11.9795
33.0175 16.4967 6.58631
30.0483 22.9683 16.0749
5.98259 5.73416 4.996
15.1803 16.1675 13.9587
6.92509 8.75894 8.03674
22.681 16.4279 14.9349
32.3629 23.5932 14.7284
16.3903 10.7446 7.51971
22.7653 30.3917 36.7984
19.5645 6.90172 0.410429
30.9692 34.7326 29.8823
46.7328 34.3303 30.9135
35.8778 27.1681 14.9631
0.202679 0.970488 0.489553
9.94865 18.1903 19.7224
16.2779 4.26977 0.55336
27.5308 25.586 23.7104
56.392 48.4645 43.3162
1.9407 5.63781 14.7566
33.5272 22.899 18.6155
41.6213 34.7117 23.5628
27.8287 22.8202 14.4359
8.51179 5.9141 7.34478
26.6288 22.1894 11.3658
12.152 20.2334 20.1061
4.88649 4.1515 3.946
0.114437 4.29272 9.86306
55.135 42.3444 30.7279
9.38394 11.3804 17.732
39.7394 33.6272 26.3812
6.82968 2.29075 0.252618
9.14735 6.3236 3.30617
7.35635 7.35677 6.84849
14.512 20.796 20.4055
11.8 6.57651 4.37466
20.6611 30.4418 36.3322
0.418004 10.2749 29.0527
45.6072 22.1223 10.678
28.2079 24.2319 16.5456
4.10549 5.15419 10.6772
28.2541 20.1317 7.74716
21.1631 25.5869 19.6176
0.928604 1.85357 2.22798
1.79566 0.874818 0.484551
29.7281 35.5231 38.0286
26.5745 27.986 23.219
1.06119 0.619138 3.04953
3.09788 5.04219 10.1121
36.2933 23.3705 14.9453
1.71202 2.07221 1.43607
7.91703 7.61561 7.06145
3.46788 9.9627 20.0746
48.4396 37.4861 26.5574
0.30048 0.63181 0.989012
20.0474 31.0931 46.2951
27.2009 19.0433 13.7028
2.94292 0.295254 2.49549
36.1579 37.2084 26.6566
1.18512 0.472711 0.607285
5.09914 3.64196 1.63457
6.49329 6.68597 3.69739
38.48 47.6711 39.8687
24.5092 37.8425 45.5418
2.44326 0.398947 3.94587
0.334134 1.90404 8.45944
29.4896 22.1867 18.5468
0.422566 0.129645 0.876973
0.844712 0.336192 0.266103
5.72551 5.86082 3.09386
29.235 43.5836 42.4394
1.09954 10.297 24.7201
26.3942 15.079 9.78292
5.99083 10.8472 13.5102
26.6306 34.1412 43.6805
5.27509 0.0146114 5.77781
21.4909 12.285 4.08221
14.2545 12.4338 8.18905
5.61914 8.52259 11.8168
3.25409 2.72634 1.40137
6.45471 18.0859 30.9211
35.6738 20.693 9.79833
23.0619 36.4183 56.0149
37.8394 28.4805 15.0361
3.88604 5.6692 6.45337
0.206352 1.54473 2.75416
0.636701 0.860135 3.57094
8.04955 9.7473 8.32368
0.973648 2.25856 6.89506
32.2183 33.4953 37.8701
10.9206 8.28721 2.61578
6.02546 13.5241 17.6737
15.6266 9.9445 4.33946
38.3699 59.5407 78.6498
15.4804 8.48645 3.63127
4.66538 9.48611 13.5195
5.32905 7.42089 16.1922
24.4231 23.1808 23.2591
27.6053 43.0962 58.7735
3.55229 5.91265 22.2566
23.4243 11.2443 1.35301
19.8034 23.3906 27.256
6.23323 3.32386 0.389097
16.8246 25.1976 26.0469
14.9315 18.5947 21.9142
3.52767 3.66006 5.49244
11.7226 10.1622 7.50954
4.51824 7.7538 5.83948
2.53686 10.3056 16.0108
3.52442 1.97992 4.78612
14.6063 13.7814 16.3546
13.4965 22.5851 28.9913
11.2826 6.86082 4.85304
3.9584 5.35251 7.43596
3.32219 5.52115 9.87733
32.5086 41.1966 47.0321
0.00659735 3.50601 16.3555
12.0748 15.0439 16.7824
4.73048 2.60095 5.62436
8.5675 13.4205 17.2137
2.20059 5.08549 20.3964
42.1843 43.3602 29.4357
34.5442 57.2462 61.7445
0.285452 11.0843 31.7638
20.4039 15.1268 10.293
5.11227 10.444 14.6795
0.951581 8.92655 20.7399
1.26063 3.09442 18.9995
16.6876 4.8352 0.0848833
14.6567 15.2708 15.5784
0.698661 2.51345 14.1503
22.7985 13.1147 6.09926
9.98174 9.28073 7.94242
7.34769 4.48535 2.29794
2.95852 1.08401 0.0523804
5.60562 4.27189 3.56392
1.09796 2.66725 10.0943
33.8675 33.4637 27.8826
1.69489 3.6447 5.82622
5.28151 16.5695 37.5167
30.9195 28.5316 22.9722
1.77068 4.39457 12.5999
18.7543 17.37 9.59215
7.9449 15.5618 20.386
0.386029 5.36173 20.9945
36.0528 40.8486 42.596
0.445453 0.163589 0.996658
4.70114 14.8286 33.1336
17.81 13.2511 5.4028
3.72193 4.56274 3.68159
11.1768 18.8175 28.0511
20.4995 22.6965 25.5395
4.51493 5.01899 7.6982
7.68842 10.576 12.3999
5.06136 15.9662 38.2336
11.0435 11.533 25.2275
37.6572 57.4038 64.5044
7.01652 2.93471 2.9189
1.19134 2.07403 1.70497
3.13122 7.27538 14.7745
13.0134 15.7675 18.277
3.32515 8.79809 15.7641
12.0137 21.8002 40.1996
21.4769 13.7628 6.89647
9.93778 15.5463 33.1933
34.8159 33.7953 15.4793
39.2931 87.6681 130.189
1.16793 4.01541 28.1132
7.55929 4.17373 3.64029
2.27299 1.9975 4.54168
15.7738 21.6715 28.7061
1.42227 6.00669 15.6425
0.488247 1.02716 9.35011
14.4138 18.8044 25.8127
2.30826 5.24994 15.6385
5.36464 4.79672 6.14176
6.15153 9.95875 9.14457
2.5983 10.4927 26.6162
5.19314 2.92708 0.80373
0.943897 4.19212 9.67953
12.7185 30.216 66.7392
6.63371 1.29324 16.2586
14.7618 11.3509 6.46615
14.7765 18.9031 11.644
2.67933 12.8438 23.5348
5.939 11.3145 27.7079
11.8498 15.728 40.6642
17.2845 11.4115 23.3936
30.0054 28.0126 16.715
13.5374 18.1652 10.0647
8.94322 21.4331 31.8653
2.07993 2.09165 4.93679
1.66381 1.83608 6.99643
7.26535 8.05834 4.21162
3.06579 7.5085 16.766
5.44134 5.0465 0.704163
11.76 25.1022 36.8995
6.42974 8.89083 6.23042
0.85655 5.51932 8.49845
0.387578 7.98553 31.6433
29.0992 29.425 24.5129
28.9149 62.2759 107.555
4.77332 0.873968 2.97064
1.84436 11.3277 42.4982
5.2204 1.11981 19.7873
23.9011 25.5344 13.7149
7.06086 12.1687 9.72129
5.372 9.18321 11.3738
1.14494 1.0505 8.99605
20.5967 30.9161 23.0265
11.0968 30.3243 46.5361
13.3153 29.8716 50.2475
18.2121 36.4095 83.2974
29.9973 30.6511 14.1402
6.5632 19.3234 22.9267
5.37015 25.8265 57.7375
11.6301 11.9557 12.3245
2.67709 15.5305 43.4265
9.195 6.94066 26.3183
25.5467 18.2077 3.94986
21.8304 37.8306 37.4434
5.53359 24.3123 54.2106
3.2294 0.259889 2.74098
3.92509 3.83213 6.23348
7.53955 13.5273 22.9758
0.181311 1.6801 8.98548
0.718087 0.499864 3.05397
0.819018 1.09397 15.2543
28.3084 65.2818 111.629
31.5509 37.4444 44.4417
4.19719 13.0808 50.4958
18.1619 15.2831 3.68536
12.513 32.1273 45.7125
9.61172 15.4931 23.8977
1.47656 3.14243 12.6541
4.8605 6.48582 10.0663
3.32651 3.85753 1.29225
12.8995 42.0916 93.9881
12.3274 8.08883 16.5342
6.92121 8.97166 20.9961
7.52487 7.45598 1.55779
4.9065 14.6681 26.3306
5.70198 6.90994 13.4277
4.87686 8.21282 6.3326
1.92127 8.05383 34.3454
16.9499 19.6387 6.50682
9.72068 34.6774 67.7607
12.1032 14.5408 10.6647
2.21735 10.0319 17.8726
0.0954553 2.64207 11.8534
2.29348 0.546864 0.149501
0.139937 0.467219 2.7876
7.03663 32.6553 99.972
53.0101 77.2438 117.98
39.7647 84.3328 141.083
18.2783 19.0542 28.839
6.8571 12.0812 16.747
6.21018 24.3585 58.8392
14.9778 15.5099 13.4871
6.24838 25.0911 50.1339
2.51624 1.67941 25.9348
22.7799 30.2205 44.8628
15.0112 19.9044 17.4954
3.98724 15.8147 45.4318
5.70342 4.52715 2.66003
1.40687 3.66741 4.04987
1.44553 2.38693 6.44567
0.180165 1.8427 18.9789
13.8086 28.5999 38.2664
7.4741 11.153 19.416
1.30209 3.36983 10.3929
6.76627 12.9573 26.0003
5.40829 8.80954 13.8385
4.92114 10.1377 29.4646
15.9591 31.7859 36.3725
3.42589 6.39149 11.5895
2.31912 5.23062 11.3729
5.93667 11.879 17.123
2.62097 6.65027 6.76551
1.00393 7.54995 22.8394
11.4041 23.6893 34.9386
4.11404 4.55113 12.5752
4.92244 7.79166 2.48314
4.75935 18.4115 27.0205
5.32576 18.0183 35.2474
1.70015 0.0414229 0.354816
1.92024 10.3407 24.5104
13.0232 35.4128 64.9114
3.89171 6.29374 14.7502
2.41973 8.97601 31.799
8.44426 11.0938 13.7346
4.25651 23.4785 62.5574
9.85619 5.48217 1.74605
4.14857 12.5371 22.9317
0.580877 9.78016 36.1649
4.57031 0.486625 3.83592
3.5935 4.09458 6.56574
3.39506 13.4195 49.349
13.4897 24.4602 46.8352
12.107 16.1686 18.5408
0.961094 7.90927 36.0462
7.99038 13.1103 15.7434
2.60083 25.5138 112.361
33.9383 36.3992 30.2701
4.34869 18.0536 45.6468
8.09049 4.9575 9.89459
5.77943 3.72139 0.129375
4.12514 6.96917 18.5308
10.9475 21.8231 25.4704
0.437756 6.01737 25.0883
4.27585 19.528 85.7546
41.6756 74.7777 95.3221
3.72489 4.05925 13.3354
9.08556 24.7052 55.7419
0.711216 5.09517 56.8156
22.9573 25.6392 12.5952
2.45708 8.6529 19.7701
2.58155 5.34873 14.3991
5.3623 23.3215 64.5382
13.1268 9.74407 3.26966
3.82556 8.09088 10.6002
2.19828 16.7613 70.1584
10.7966 12.0545 7.15147
1.05836 5.25352 31.1034
5.79453 2.58699 5.72034
17.6226 52.8938 88.8215
6.65659 7.40758 17.0247
2.06366 3.82596 3.01257
6.58602 55.8239 204.734
40.1665 31.7731 18.9747
9.70932 14.3045 10.8689
3.4982 9.503 33.3385
14.4085 23.7939 32.4848
7.15872 22.553 59.2131
10.1687 17.9103 15.0614
3.24961 15.7661 44.7094
8.97356 13.0255 25.3683
3.63228 10.4658 34.1649
7.68309 14.8143 25.4113
10.0508 20.8378 15.305
4.0248 32.9889 84.2366
6.16626 15.1943 79.5561
18.0642 12.0382 0.165708
6.55114 13.6527 12.7767
0.341775 6.86285 23.5356
3.62866 0.98962 2.63874
2.9945 4.29847 11.2408
8.3689 20.1247 60.7559
16.7412 30.7033 27.2871
2.27696 14.5323 40.1476
2.16588 0.0924058 4.96666
1.35748 1.00356 16.1846
13.005 32.7339 51.3577
4.28774 30.3209 173.361
45.3877 59.6059 25.5722
14.7491 66.6949 134.461
6.8532 23.1823 110.041
16.6283 9.71277 0.457743
2.93018 3.90818 1.91366
0.0258216 1.90348 19.0942
9.54455 15.1206 13.1966
0.621641 4.44322 22.278
11.3541 23.9031 43.3148
1.10162 0.614171 15.2514
6.34715 9.2881 9.0378
1.89533 9.81786 25.8686
5.11398 8.53286 25.9171
9.72221 37.7367 94.6845
9.41824 3.57724 7.97469
13.2217 30.1609 54.7303
2.30685 1.9909 0.113446
0.967539 5.48886 13.8069
3.63436 6.95469 18.6786
2.10167 5.10628 9.29102
3.09167 11.2383 42.2694
8.2117 11.983 9.09424
2.48516 4.49798 2.55845
5.88922 20.1899 25.9081
3.24328 34.0826 109.373
2.38425 11.9984 127.746
21.5739 13.1718 37.9859
18.2816 22.9893 2.60163
11.0887 39.5137 72.7923
12.1217 24.6364 57.8036
13.0439 42.5618 77.1587
4.63961 25.3299 143.052
32.0586 31.2793 11.8014
17.4664 51.2611 100.822
12.6458 31.9599 42.1192
1.08443 15.3211 73.3409
11.6495 26.8239 76.8765
19.3888 51.1774 112.513
6.55726 4.39229 8.79873
3.14049 3.77118 1.32927
2.40627 5.74875 0.652552
7.2772 38.5924 76.6732
1.59994 4.10932 36.4108
7.67353 7.00819 8.10524
0.795443 1.35295 0.332529
0.0203664 0.200184 1.13546
