# pn-170911/RbII-17-TWTF-1280-1959.psd
# Power spectrum* (dif=0,1,2) (really just |FT|^2)
# NOTE: only the first half! (symmetric)
# weeks: 1280-1959
# 2 clock-days, 0 excluded
# PSD: 1441
128.71 1.21613 0.039947
296045 5.32424 0.0250519
4.94015e+06 98.61 0.0392529
477614 23.4851 0.0237968
138846 6.44123 0.0213288
173949 18.3867 0.0241152
24751.5 0.710173 0.0253584
92751.5 15.5424 0.0425735
89553.8 18.5456 0.0265807
20829.7 2.31288 0.0280029
103220 39.0031 0.070293
36824.5 19.9023 0.036559
15424.8 5.38078 0.0428839
56954.3 31.2506 0.076639
23623.4 20.0065 0.00439287
17691.8 13.2372 0.0608771
8970.43 9.08491 0.0577193
12332.2 21.6629 0.0219717
7062.78 13.1882 0.0813472
1688.97 6.21527 0.0255732
2198.89 7.02361 0.0561455
12213.7 27.0033 0.140474
7806.39 8.96618 0.0417306
14135.3 25.5385 0.0877334
3421.37 3.77319 0.00936761
708.03 0.605574 0.0244939
6764.73 14.0504 0.112007
8265.01 17.2712 0.110291
7067.02 15.9515 0.126565
7661.34 18.9214 0.0958116
3042.43 12.5256 0.0521947
3231.45 25.6361 0.127991
947.259 2.44768 0.041172
953.361 9.93302 0.0450077
832.217 2.20734 0.0579386
2959.56 12.3769 0.132683
1403.55 5.32705 0.0249818
2330.53 7.05704 0.103369
3567.57 19.7133 0.177025
3336 15.521 0.0746218
1316.4 11.9929 0.14495
4858.2 36.9969 0.250873
2526.7 28.9711 0.204944
354.752 7.38387 0.0718787
825.543 8.45815 0.167959
4751.34 31.5284 0.435923
2548.89 17.0466 0.295848
660.284 3.53461 0.110396
742.292 10.7015 0.215466
886.032 10.8417 0.0479652
2216.9 32.605 0.43205
333.676 7.91145 0.121309
436.691 13.0379 0.15355
699.528 12.6494 0.246559
1428.85 21.3763 0.296635
1422.56 11.4975 0.179634
1091.51 21.5078 0.307058
886.831 11.6189 0.281319
1652.28 20.6844 0.301859
856.578 26.8591 0.405882
1422.59 15.9749 0.402439
167.447 5.20526 0.158973
1304.09 28.3177 0.729353
698.479 20.0984 0.403583
949.653 14.8421 0.455119
636.385 8.18586 0.28361
890.836 15.6832 0.297724
1311.44 21.2856 0.602168
1426.06 19.904 0.327029
1552.38 28.2346 0.483057
688.081 9.95369 0.243225
392.114 11.2815 0.21845
184.296 4.73354 0.157462
510.14 11.0306 0.450162
482.656 8.46194 0.251711
354.679 18.4408 0.613849
204.546 9.51777 0.414805
140.589 2.58113 0.0208904
383.878 8.90127 0.254277
333.882 5.66062 0.238129
705.065 14.3078 0.389381
51.3604 7.36122 0.237077
217.39 4.38471 0.157962
405.032 10.7613 0.447855
648.915 11.4685 0.288199
1465.91 35.0356 1.29714
466.003 17.1273 0.726843
338.575 13.4304 0.3846
140.636 3.14938 0.226067
144.326 8.17636 0.476116
666.38 12.9673 0.505613
391.886 15.9845 0.535755
419.578 7.08431 0.321133
253.151 7.05371 0.49785
291.899 11.0283 0.287069
147.982 9.8433 0.395499
181.118 13.2936 0.638208
630.899 40.2987 1.90415
196.657 2.52908 0.162862
315.116 7.96942 0.574277
536.329 12.1014 0.552683
345.267 8.58409 0.301312
186.096 8.44935 0.513258
116.258 13.4179 0.604282
271.208 9.2092 0.401212
322.62 21.3001 1.08659
157.848 2.33447 0.112077
558.12 22.61 1.04299
184.277 9.07399 0.521623
209.85 7.93635 0.492661
230.94 13.2087 0.675249
306.377 9.44743 0.678223
401.44 22.7906 1.1438
231.987 5.43791 0.385418
355.423 19.9779 1.45787
79.0403 2.84627 0.137818
475.051 30.7074 2.40496
212.501 10.8259 1.0095
200.104 11.8668 0.474997
265.083 7.56024 0.489815
53.0746 8.55109 0.726724
445.16 28.0083 1.54532
224.643 10.3192 0.899657
309.87 11.4611 0.820276
113.357 7.04061 0.366187
255.381 13.9074 1.2382
145.044 6.19975 0.375578
85.7744 7.74394 0.736353
395.997 19.1386 1.30236
389.012 33.617 2.62617
198.921 13.96 1.00756
188.252 13.1401 1.01454
171.483 13.8308 1.19148
277.819 20.7302 1.78362
45.3867 4.50566 0.268779
154.474 15.571 1.54611
121.781 16.3275 1.49606
160.412 16.6432 1.49177
251.586 9.88184 0.85824
149.077 11.7967 1.38539
301.843 21.9329 2.05729
343.323 26.6092 2.26458
29.6675 7.2872 0.683958
104.98 7.03422 0.560476
93.9692 18.4232 2.11791
566.03 49.9406 5.16755
68.6887 0.606141 0.0481939
279.819 15.9545 1.84537
218.979 14.844 1.42428
259.818 17.1301 1.79282
226.779 21.0094 2.27956
183.914 16.4131 1.64529
133.799 11.3546 1.55705
146.854 22.814 2.14168
127.559 8.31559 0.992965
75.5979 9.22439 0.851184
124.462 7.88348 0.99263
117.851 16.0287 2.04966
46.559 4.85862 0.787377
261.876 24.9206 3.43106
61.8217 2.96014 0.251887
145.973 9.4388 1.32767
93.3073 13.1951 1.86608
173.888 32.6141 3.46124
298.727 50.0541 6.46257
225.252 22.8112 3.15424
379.276 43.5946 6.0609
73.6446 4.24914 0.278997
216.675 23.1594 3.61596
230.763 28.9394 3.73964
80.4703 8.9783 1.65257
222.554 23.8899 3.44385
311.117 45.4434 5.85714
263.888 38.7348 5.46292
132.571 11.583 1.29335
52.5921 9.64153 1.5279
273.204 23.5656 3.21798
269.86 36.2547 5.61217
38.1642 2.46914 0.412434
52.6056 5.47896 1.03478
295.05 48.4128 8.33482
132.061 16.9939 2.0497
155.231 19.1302 3.5264
469.635 68.3919 10.3833
236.034 44.6544 8.10402
10.6632 5.28383 1.07697
87.9929 13.2786 1.75062
306.07 41.4532 5.70317
99.8969 24.5645 4.43504
60.5455 5.61891 1.05046
78.6383 5.82344 1.16051
84.0028 12.397 2.78008
205.211 22.9205 3.61962
24.4072 4.58269 0.612331
189.067 35.4987 6.8813
44.0543 2.62624 0.321615
55.9612 4.18772 0.398966
9.0139 0.873601 0.152288
182.055 22.8855 4.28199
16.6673 4.93877 0.666016
23.9891 4.18401 0.901274
122.931 22.3279 3.93871
37.7261 4.00706 0.924905
18.1669 5.62847 1.23352
255.677 39.8445 8.39007
45.2248 5.66924 1.09714
95.3619 24.5359 4.89583
152.821 17.0151 3.53049
136.861 18.799 3.3203
58.698 11.9608 2.63415
30.6926 3.37328 0.325109
27.0932 4.74543 0.701647
37.9504 12.3891 2.77997
88.3914 9.03123 1.7354
60.8936 8.69211 2.40074
9.85163 3.34657 1.17157
19.1846 3.64875 0.464451
100.196 25.2455 5.91897
121.246 16.0816 2.95259
4.18517 4.13111 0.821962
52.7714 7.15102 1.6779
14.7662 5.15801 1.05484
57.6288 18.7056 5.12689
66.758 13.3238 2.68945
14.0435 6.01592 2.11849
74.431 11.9994 3.49643
75.6239 15.6432 3.28441
54.9328 14.3314 3.27912
75.0599 6.33605 1.20911
109.276 22.019 5.36104
42.305 15.1115 3.32495
32.0024 3.06864 0.904272
47.9996 23.6558 7.19153
61.0817 6.764 1.2987
42.3583 6.15034 1.67348
120.407 23.9496 5.38675
145.83 26.7649 8.04824
157.259 33.2857 7.42783
53.5721 10.9206 3.12329
18.7131 4.81298 1.31583
56.3294 22.9749 5.47034
38.0486 17.4037 4.8838
10.7452 2.78811 1.30366
68.9779 7.80387 2.06638
8.91994 2.33509 0.515536
97.5615 23.4249 7.26765
14.9019 8.24867 3.18214
37.6046 5.23087 1.4751
53.9573 15.4742 5.03215
110.767 14.9402 3.24277
114.456 30.3147 8.70651
98.7755 24.955 7.21126
126.878 31.3838 10.262
92.7822 27.9041 8.09536
47.6926 19.2813 7.50982
42.8751 4.71446 0.56659
112.287 25.2891 6.57097
58.3307 17.1981 4.4057
11.992 8.55269 2.56605
31.9381 3.10148 1.0742
29.2914 14.2606 4.38027
79.5154 19.2237 6.87326
16.7633 7.17333 4.10777
151.14 38.223 8.9336
27.328 10.29 3.1386
14.9322 4.70968 1.9018
42.4812 7.71806 2.60095
21.5572 5.87848 2.06526
42.7808 7.26312 3.08942
36.1479 22.9411 6.95331
23.5669 3.13992 0.989939
39.1505 11.1685 3.35229
31.6622 11.7465 4.89316
18.3648 3.43172 0.854306
10.9148 5.10736 1.52298
24.1375 8.17679 2.46236
9.01072 9.35871 3.83729
13.0357 1.9636 0.750237
29.8592 15.1162 5.80998
55.732 20.3961 8.70749
87.6825 12.9926 3.49511
24.095 1.98024 0.375646
51.6254 9.44531 3.12911
26.9812 7.57691 3.1663
8.07189 9.61968 3.74376
22.7001 5.46699 2.32368
41.7077 8.61979 3.10923
27.6483 9.89946 4.20676
55.3268 13.3656 4.94903
23.3459 8.12537 3.26655
36.6818 8.32331 4.029
58.5431 13.7605 6.47062
85.7601 28.5182 10.6206
4.85285 4.65888 1.7646
55.1788 21.0712 6.98261
3.55085 5.12749 2.50481
17.0365 7.03243 3.30826
118.522 38.8235 15.6929
29.5501 10.5538 4.1236
26.5298 14.9935 7.88687
57.3839 15.314 6.74937
67.3374 20.5032 7.88825
23.5829 6.09775 2.64119
48.2446 15.3694 5.78829
47.8614 23.4879 10.1082
26.9349 6.6186 2.34191
20.2746 7.22361 3.21702
34.7776 11.7013 7.55134
104.678 35.0267 12.431
14.9436 9.60846 5.17316
106.063 37.0074 17.4712
27.592 14.4506 5.30855
54.1659 25.5453 11.5638
31.1424 12.1144 4.98506
25.1419 12.216 5.97653
21.5404 3.13469 0.826434
5.05595 6.02893 3.14051
26.5524 5.87646 2.85395
30.5356 9.93095 5.86987
9.30045 5.29461 2.48445
46.4884 9.79498 4.79675
28.4664 14.7618 6.16258
23.4896 8.9053 4.71635
49.6095 12.9099 7.08042
43.7729 12.5866 4.06529
18.7458 2.43816 0.781676
37.8742 15.5429 6.57443
67.7364 38.7585 24.9301
39.4319 10.912 3.32985
39.3715 10.2252 4.81263
80.7315 33.1447 14.417
17.95 13.8686 5.98848
18.5199 6.2162 3.70286
29.2392 22.2954 11.6245
24.3752 3.3128 0.976134
16.5863 2.09874 0.803788
11.6842 2.22307 1.80362
42.8457 10.3393 4.49268
49.5058 32.0483 17.6613
34.954 10.0535 6.88118
39.3958 14.1302 6.71076
23.9996 9.37132 3.90175
59.7403 24.1301 13.4864
17.2075 11.1799 6.61266
58.8948 20.3565 8.32269
32.9408 17.2008 10.5624
10.044 2.46309 0.747033
11.1039 2.20276 1.72793
13.0257 12.321 8.6476
22.4657 9.09844 3.64468
12.411 10.4094 6.83267
10.8217 1.23664 1.20077
19.2334 16.7279 15.0094
96.0632 28.8074 9.61658
39.901 16.3898 7.36059
25.4979 15.0518 10.2457
16.2171 11.0761 8.34365
11.5522 4.8181 0.982522
20.2715 14.2894 6.9305
12.3277 16.0763 10.507
3.96082 2.73107 4.1811
31.0605 3.85559 0.589667
40.6507 12.7605 6.67289
57.7474 23.386 15.4323
24.5519 12.9527 9.31384
23.2803 14.5153 5.14708
19.9727 19.1291 10.0103
29.9559 17.9119 10.1031
7.20984 8.19559 6.64571
22.795 10.8086 9.70821
41.2136 19.1778 11.2526
28.7126 16.9307 9.79141
7.80304 0.835524 1.58011
40.1834 13.8708 5.76927
25.4435 7.03966 4.50416
46.888 20.618 13.7945
36.2578 24.4813 14.7036
12.2919 9.05445 8.45757
14.9697 10.4802 4.15874
2.65956 2.61974 3.71738
42.3311 20.2994 11.0132
17.743 20.0579 15.1136
54.4968 16.0445 7.66647
29.771 12.1928 6.69055
21.351 12.5463 10.8371
19.7955 12.4196 6.58268
14.0226 6.88951 5.73504
9.21561 10.7907 6.28332
15.3125 10.0883 8.90683
52.3455 22.3436 12.8568
11.7283 14.2329 9.9199
31.1389 12.6477 9.62686
5.79621 5.48146 2.69781
15.4474 15.8521 12.9426
42.8224 26.7109 21.9331
39.5698 20.4733 9.56003
14.0548 10.4855 7.70061
11.6511 2.99859 1.59172
10.5424 9.0863 10.3784
53.692 27.9369 19.6917
15.3827 15.6192 10.7169
15.1643 8.20406 6.35051
22.2594 7.88501 2.99504
39.9436 27.7302 16.5686
16.9461 17.7179 18.3743
29.4132 19.2548 14.4999
40.2989 28.7365 17.6434
10.6633 13.0927 10.2872
25.4262 12.3505 8.04769
6.2902 6.11052 6.25909
27.3496 24.7899 18.7637
28.6418 11.3895 6.98556
7.55992 11.9949 9.22728
12.9805 5.23404 4.78426
27.6161 12.9957 10.7514
18.2418 9.66519 5.97545
15.6324 11.0244 9.89924
10.0831 5.64081 2.84079
19.1621 8.43474 6.60563
13.7014 18.3838 15.2332
16.0588 17.1513 13.9922
15.3494 6.63899 6.86151
5.03203 0.804815 1.83619
28.0492 14.8105 12.5066
24.4265 9.03668 3.68263
45.6366 44.7108 33.7022
11.1798 8.21128 6.43945
6.64783 15.8642 17.2412
34.5428 9.55596 4.9552
18.4296 11.0539 9.70139
5.99915 0.561695 0.480191
23.4714 14.828 14.3471
5.34108 5.07956 8.28887
60.6117 51.5517 38.7657
38.2504 13.2493 8.10334
28.7505 22.8889 17.9371
7.21544 3.32694 5.35483
33.8904 18.2099 14.4697
9.05233 13.7093 11.5329
24.304 12.9307 14.4083
11.2855 6.26812 2.55466
15.2349 11.8311 5.96039
21.0801 30.8455 29.5575
7.76974 3.23287 2.87088
7.40893 3.95331 4.89353
29.8155 17.3119 16.0455
10.3097 3.57365 1.04676
21.9009 9.60008 6.12299
13.5885 14.7543 10.1149
21.2182 27.6847 32.6101
25.2131 14.4674 15.4523
20.2639 5.66142 2.2598
19.3603 14.8662 17.2446
3.29972 4.94587 8.15636
14.9491 4.65733 2.72101
32.2182 15.7032 5.82507
28.1767 28.767 21.3827
13.6009 9.11413 8.48399
25.0996 32.8574 42.5068
37.2178 22.9371 14.7062
7.78788 4.98692 4.42641
23.0722 23.4542 18.1542
7.51586 10.4477 16.2174
17.0704 3.91716 2.33729
29.7828 12.3706 8.43134
11.363 6.768 4.84599
23.4327 13.484 10.429
16.2287 16.0478 21.7412
8.36623 8.15895 3.65332
0.311024 6.70779 9.82128
42.5272 25.82 22.5681
6.66199 5.4907 8.22924
10.6014 13.5934 9.7988
23.0648 17.9936 17.3217
3.38564 6.5685 16.1516
21.8792 14.016 5.97005
20.9939 15.2289 14.4699
17.6425 16.8552 12.3247
6.28059 5.35088 5.47264
7.16618 8.84032 13.3379
24.9057 13.5627 11.813
2.86432 5.2364 5.12919
13.919 11.0482 16.5852
8.51864 9.72901 11.3366
15.2684 18.9549 16.4026
13.7131 17.5297 26.4323
33.9741 19.3088 11.4879
15.2331 15.0296 23.7527
25.8211 11.7036 6.8201
20.2054 12.2189 9.53672
32.7032 22.5478 19.5296
29.2304 39.2272 50.6392
7.89395 5.88106 4.87977
6.07344 7.75265 8.43406
18.1199 26.4143 19.1817
16.1498 32.1676 40.7232
15.4815 5.58379 13.3424
55.5438 38.0052 34.8754
47.1367 36.533 36.0981
14.8113 8.63685 7.19707
7.30166 7.63752 13.9543
16.2827 17.0147 14.2098
9.23184 9.34657 8.68556
13.3555 19.2327 18.5521
6.6748 14.4677 17.1349
12.7823 5.42929 8.66817
20.8718 11.8064 7.54179
12.312 8.84284 10.0991
5.19699 10.5076 16.3973
6.7927 7.73085 6.38713
8.29697 6.65666 8.84566
7.07092 1.81293 5.88017
39.0244 28.834 22.2618
26.6326 22.7399 28.3125
10.4177 7.49614 10.2318
2.34078 2.95099 3.77164
4.81515 6.3842 5.54271
5.31165 8.08363 7.70762
2.59022 11.6731 18.3645
16.0581 7.6361 5.12928
4.09516 2.88966 6.18434
14.564 12.2631 9.215
3.86558 7.01773 7.96658
6.1689 4.16743 8.17228
6.30134 5.82248 4.67802
4.96307 4.6389 7.26887
14.8879 7.18622 7.26146
12.0028 11.579 14.5378
2.67599 1.81934 1.47031
13.0289 15.6727 21.6947
8.26119 12.5595 20.2634
21.7345 22.3618 19.5282
15.9179 11.3863 16.4767
15.1199 14.9604 19.6607
9.10094 18.4402 20.4188
12.6276 12.4696 15.5291
7.8829 7.37511 13.9527
10.0862 10.5574 8.17594
12.9307 5.81241 3.82253
13.6289 16.3882 26.1252
20.3547 36.7944 36.8849
16.2223 13.1603 19.1141
12.5758 23.6555 41.2949
32.9956 34.2401 33.3105
13.6305 7.7642 4.50712
19.4907 30.3024 42.3058
6.3435 1.43562 2.49019
19.4327 21.0386 23.014
4.22282 21.2344 34.9354
23.0874 15.5586 21.4273
12.636 12.7603 20.677
15.0653 4.60567 4.35403
30.3431 34.2736 44.7196
24.7906 26.4439 35.1664
13.6321 20.2914 22.2529
11.1814 8.23331 7.11446
4.72996 7.36908 9.00748
6.81156 4.94046 6.08486
4.11463 1.79581 4.53662
22.2877 23.1513 38.5038
22.6397 28.9189 35.3005
11.0643 6.36066 5.02917
6.29378 5.00822 4.88886
16.2663 14.8144 14.3375
6.52317 3.0708 6.33272
24.489 24.7551 34.0298
7.11509 7.07456 11.99
15.0278 20.0358 18.2458
7.03853 7.57291 14.8491
4.85281 15.2344 18.4673
6.46323 6.36252 15.6825
17.1602 7.19713 5.14047
16.5666 18.3452 20.4556
2.38309 7.00033 17.1968
19.6302 17.9196 22.671
0.747096 2.31174 6.33648
14.3403 12.4397 7.17528
7.30467 15.9568 25.6447
7.26625 4.98115 10.9033
3.92132 9.70632 13.2121
11.4753 17.3582 34.0806
26.2525 27.4783 28.0818
3.59117 9.50787 7.56953
2.66201 7.45995 10.5377
5.11292 15.509 27.8744
5.70666 1.99926 5.85541
13.3526 23.5931 40.7136
25.7355 14.8892 13.6986
11.7192 4.40469 3.57665
16.494 16.0097 24.0273
24.3531 24.6118 30.9347
13.8373 18.1168 26.7698
4.24087 10.9094 15.6568
1.074 5.62108 27.8467
34.8373 46.4367 44.3235
11.5942 13.2009 18.3371
32.1391 45.5353 64.1886
11.8079 13.4071 27.1833
23.8118 25.9696 43.0163
3.53218 4.65909 12.8792
9.0322 6.72889 9.31686
30.7808 30.9004 33.8455
2.78823 0.948574 3.5249
10.4227 10.9053 10.8083
11.9208 11.4098 19.4676
2.33227 3.32923 3.54811
0.671586 4.42779 14.395
27.2998 24.7948 24.0942
8.6279 19.2601 41.6671
3.75615 5.99477 11.0732
8.9314 6.23478 9.25025
12.1318 26.6671 28.3153
3.70138 5.91398 13.8897
11.3808 9.25145 10.2235
8.43233 12.2706 28.8567
23.6894 17.566 15.3149
17.9517 31.9575 41.9287
0.391774 5.70832 12.311
7.2398 9.43258 19.5905
2.34776 3.80595 15.4916
33.3002 37.8837 52.1258
0.143013 1.54584 11.9408
8.84752 8.62652 14.0071
6.17575 10.208 5.88711
1.19966 13.1309 35.6774
30.2717 26.3359 19.4205
6.90035 23.8873 42.4551
10.739 5.67825 13.3783
25.1792 33.3995 44.7215
16.9008 26.8914 42.4827
10.0636 6.04022 12.4223
20.838 34.8833 62.6313
4.54471 8.17043 11.3871
12.2822 27.6892 33.5673
6.29889 23.3458 42.6558
8.34378 13.9969 45.6142
21.1517 35.2448 73.947
28.6078 20.9869 27.923
22.3597 30.1831 28.6938
7.69686 15.8985 25.6594
9.80125 7.25112 7.60952
8.04841 12.7569 21.843
2.62274 1.97205 10.0571
11.3365 15.9453 22.4855
3.59932 13.9588 25.6028
12.3953 9.89845 19.4648
14.9164 15.9901 30.5368
18.7998 36.4105 51.1155
10.1742 10.7864 21.3218
17.5011 33.7144 71.8885
12.9049 9.9492 10.3596
6.69332 12.7241 21.1913
2.35235 4.27122 5.66855
3.17896 12.8857 14.2641
3.25787 4.62042 12.5188
1.67178 8.26702 17.1457
5.26008 9.83498 16.1767
9.84863 8.8605 9.05705
1.31784 5.22814 11.256
3.19477 4.38472 10.4687
7.69407 5.5642 15.2164
9.62317 22.2905 37.3115
14.0478 19.6712 35.7002
7.94288 20.0112 33.0616
12.3542 11.5026 25.376
9.23375 7.85015 11.7686
15.6212 20.7645 41.4351
9.71185 32.3679 83.0208
42.8329 42.006 24.0465
12.3803 29.2736 48.3933
6.47992 12.4186 35.1781
9.03059 17.599 26.9233
11.2648 11.0069 15.6958
7.42553 10.5824 23.2776
13.8751 23.0081 43.336
15.7036 19.7056 57.5017
28.2745 35.6581 45.9659
11.7261 21.0264 34.9639
12.4314 13.2678 18.0739
2.90635 11.4438 47.9126
14.7433 32.3503 33.6473
3.80697 3.7307 9.86377
8.38214 5.79792 11.4941
4.59291 18.1192 41.0239
17.3378 11.3038 11.8582
12.1475 14.1455 18.6739
3.05062 10.4015 35.2908
6.6686 15.0696 48.0341
24.5812 42.4464 53.3353
8.29734 9.59259 11.5085
3.09593 5.08981 15.83
8.33343 15.6379 44.4797
23.1585 29.8876 37.8193
2.98251 1.84075 4.81751
2.24944 6.68175 19.864
6.95495 11.511 23.4435
8.36774 16.6912 36.8969
8.9113 9.80119 13.0694
2.31971 2.2262 1.4481
8.98734 26.3533 67.4182
10.4126 17.1652 41.7828
12.8773 20.3336 30.7157
13.4156 9.45285 4.99891
9.46014 21.7715 31.8376
7.42875 12.0166 28.0443
3.85533 13.8724 32.0455
15.4859 15.0027 17.8572
3.07658 12.7606 41.9891
10.499 7.82971 4.25839
3.88032 5.81753 16.1269
18.9827 37.0129 48.9225
2.67917 8.71172 28.6216
3.58875 6.15749 27.2648
5.5326 3.58773 6.24873
6.1197 3.5279 11.0805
10.7971 22.9369 31.2558
8.21824 19.8425 55.1255
13.2048 12.9763 15.5133
8.9336 15.0825 31.2185
13.1285 21.2069 36.6146
20.7564 66.3241 156.405
21.8666 19.2784 18.8276
1.46356 4.54148 33.8037
8.54941 10.3651 5.5434
3.03283 16.5565 24.4239
2.82006 3.566 17.1357
7.49783 7.43142 19.4
8.03635 13.0374 26.8507
9.46468 13.3142 30.7188
3.17673 6.90129 19.3545
13.2838 16.8949 31.5027
16.4079 25.3202 33.6049
2.64349 10.8632 56.954
19.5115 44.166 53.8342
2.0271 2.41433 16.0935
12.7632 30.2449 48.7881
6.36015 15.3479 58.8812
23.9981 28.1361 36.1445
4.36748 9.90254 22.7401
0.650527 6.46694 17.3666
5.68718 3.28423 12.7632
9.64989 12.8562 16.7187
3.9059 6.45003 9.43395
1.19433 1.72993 7.40528
4.80866 10.1923 16.9098
2.07005 8.42061 13.7565
2.96849 2.04393 1.78163
4.33266 7.37617 16.2395
5.19276 4.14579 13.106
8.4586 16.273 15.7173
1.75773 9.06433 20.6831
8.03165 31.2117 81.7934
6.40715 16.6102 53.2033
8.45943 3.3217 18.3266
11.7465 14.6703 8.05651
5.38599 12.773 31.9154
7.87205 11.5451 24.7511
0.921338 4.07027 12.2659
6.39815 22.5424 69.8734
16.7148 30.4721 30.0392
2.99481 19.9409 70.14
20.0454 23.6361 40.0975
3.30954 6.30423 15.871
5.27577 14.2649 21.5566
0.777515 8.39826 31.2433
7.98467 7.70465 5.58305
1.77129 4.18838 8.61021
2.96596 6.22732 11.8777
2.41815 3.22243 6.69798
4.15446 14.4698 30.364
4.29544 1.92522 2.637
2.00488 7.28076 20.992
6.75147 8.45798 22.5161
7.06497 8.9327 13.792
5.1194 6.67624 7.34219
3.354 24.6508 77.0493
11.2345 4.66381 9.46087
5.97338 6.2529 19.5065
7.59739 8.74813 9.23092
7.29263 18.604 47.1234
3.448 7.69557 15.517
0.337462 6.00869 28.5428
9.73716 15.3903 16.5268
2.70914 13.5854 28.0633
2.80871 5.46779 15.2259
2.82557 13.5851 64.7362
16.8541 15.3408 12.7566
4.64747 8.72626 9.04749
5.96145 19.3909 48.7405
13.3209 28.0815 69.9214
4.90639 3.56148 4.08275
4.94285 13.6409 21.594
1.53936 6.21075 35.0883
3.69206 4.00927 20.7833
11.398 20.1093 32.6257
15.9485 35.6536 65.361
3.90728 21.9019 63.1239
12.9606 20.5826 38.2086
9.36503 12.0398 30.2636
3.60936 8.63227 19.2346
2.45714 3.3382 17.9581
2.16875 4.10781 25.6634
2.42597 4.72596 5.34504
2.52485 17.0088 42.8952
10.1191 29.725 59.7368
10.5611 14.4231 30.2629
5.38261 19.2731 31.7432
4.51633 15.2152 71.9519
26.1885 45.01 87.0167
5.83365 11.1413 18.4156
4.37835 7.00895 20.1954
1.29444 2.32595 13.8642
4.70545 22.6482 62.8894
7.28249 15.5535 37.708
6.83942 15.8545 6.97621
0.414598 14.2982 40.8319
11.1701 24.0879 51.8298
5.50376 16.0331 43.5149
7.08157 9.23583 12.8569
2.14813 3.87156 20.8185
8.37228 21.8996 30.8539
4.36456 11.6724 38.6183
4.7964 2.99668 5.89625
2.42756 11.8795 29.439
2.32019 2.44634 13.8791
7.96174 28.1938 53.9949
2.30082 10.9329 74.6502
