# pn-170911/RbIIA-37-RbIIR-1280-1959.psd
# Power spectrum* (dif=0,1,2) (really just |FT|^2)
# NOTE: only the first half! (symmetric)
# weeks: 1280-1959
# 1001 clock-days, 225 excluded
# PSD: 1441
6003.14 0.171997 0.0203958
227816 3.06215 0.00979215
1.25817e+06 26.7297 0.0102362
131060 3.99982 0.00989454
99181.6 6.63125 0.010209
38761.3 3.59878 0.0100309
28192.8 3.38049 0.0103229
19112.8 3.22572 0.0107638
17304.4 4.02546 0.0110399
13130.1 3.63809 0.0112062
9720.91 3.31797 0.0114901
8718.01 3.46683 0.0116133
6356.16 3.3933 0.0120152
5847.81 3.24793 0.0124001
4680.21 3.25563 0.013006
4311.88 3.17824 0.0135145
3521.52 2.83677 0.0130821
3248.05 3.04676 0.0134847
2788.63 2.97496 0.0138851
2525.78 2.89217 0.0145216
2167.77 2.79219 0.0148374
1911.15 2.93135 0.0162885
1873.22 3.04484 0.0173357
1681.87 2.85593 0.0172768
1519.93 2.87018 0.0183022
1410.87 2.90741 0.018114
1394.67 3.32637 0.0206094
1264.31 3.00758 0.0200181
1178.8 3.13211 0.021791
1078.6 3.12687 0.0229711
1058.7 3.16777 0.0237754
964.502 3.09689 0.0237627
874.864 2.97569 0.0244356
845.437 3.16827 0.0263357
819.744 3.27474 0.027415
765.174 3.27785 0.0293926
734.623 3.17833 0.029498
709.351 3.26252 0.0309946
672.157 3.31617 0.0340805
645.235 3.35469 0.0342089
618.326 3.27981 0.0350516
609.898 3.42037 0.0388309
551.141 3.46512 0.0392094
555.767 3.51166 0.0416473
539.195 3.67736 0.0430733
508.036 3.60433 0.0463463
494.711 3.49143 0.0456017
482.325 3.77304 0.0503589
476.448 4.03351 0.0531633
441.512 3.79173 0.0536133
433.931 3.8673 0.0565298
419.16 3.95771 0.0593066
408.278 4.13456 0.0647091
410.886 4.23773 0.0657335
389.845 4.0405 0.0657809
362.321 4.00307 0.0676753
380.507 4.34056 0.0736941
360.305 4.25338 0.0780678
384.757 4.81417 0.0863398
365.158 4.69506 0.0875946
320.7 4.42572 0.0874756
340.37 4.62248 0.0914703
331.292 4.86082 0.0993387
324.928 4.64802 0.0972834
294.231 4.54476 0.0964098
304.091 4.84261 0.110427
298.29 4.82594 0.108818
293.098 4.89457 0.115947
298.651 5.26045 0.125887
299.021 5.47136 0.135517
269.847 5.06843 0.12726
280.054 5.37665 0.137883
270.463 5.40344 0.141152
277.951 5.59525 0.150558
257.175 5.57159 0.154418
262.314 5.61368 0.163617
257.91 5.60202 0.163152
255.525 5.89629 0.176864
234.47 5.48302 0.169252
239.269 5.76983 0.179997
238.445 5.96658 0.191295
235.072 5.97418 0.197793
236.74 6.20689 0.209112
229.41 5.94517 0.207837
224.028 6.34353 0.22364
224.673 6.315 0.226906
216.317 6.39121 0.238596
229.914 6.88682 0.255922
224.614 6.97301 0.267189
224.953 7.12507 0.279865
203.904 6.57067 0.266003
208.463 7.07897 0.285475
208.327 7.01265 0.292311
214.654 7.16432 0.300755
208.838 7.3745 0.31652
213.312 7.40598 0.324567
205.942 7.56391 0.342965
190.473 7.20675 0.331752
189.366 7.38425 0.349231
198.023 7.58825 0.362828
192.658 7.62776 0.372459
186.494 7.50666 0.374673
193.244 8.11455 0.403353
171.875 7.52285 0.385662
191.719 8.57811 0.446735
177.894 7.93933 0.42826
178.415 8.07873 0.44236
175.468 8.18274 0.461179
172.119 8.39291 0.480935
176.184 8.63899 0.499824
167.776 8.33492 0.480581
165.558 8.29466 0.49978
165.462 8.58971 0.521658
170.349 8.94805 0.550253
166.697 8.71877 0.550065
172.996 9.56394 0.611426
163.214 9.13596 0.598774
164.131 9.60933 0.628667
153.476 8.87695 0.591398
161.386 9.62385 0.653792
155.333 9.29995 0.645496
158.092 9.46104 0.676253
157.461 9.72103 0.693884
153.981 9.887 0.717808
157.58 9.93649 0.735763
159.295 10.5419 0.793174
152.621 10.0881 0.758619
146.797 9.87222 0.776609
156.364 10.7511 0.833675
144.021 9.96633 0.795409
140.17 10.0102 0.817817
146.363 10.4647 0.85458
158.15 11.4826 0.954955
146.635 11.0697 0.942861
139.493 10.4371 0.903084
134.023 10.2887 0.897481
132.284 10.2589 0.903573
138.253 10.7029 0.973509
132.596 10.6251 0.97514
134.398 11.1831 1.03024
127.807 10.6331 0.987103
133.921 11.3517 1.07102
123.176 10.517 1.00863
128.454 10.983 1.07024
135.712 11.7696 1.16896
129.366 11.3541 1.14441
125.381 11.4966 1.1678
127.447 11.7952 1.23304
131.499 12.104 1.26238
118.203 11.4826 1.22238
132.654 12.662 1.342
127.56 12.5875 1.36458
125.279 12.2436 1.33705
114.3 11.6473 1.30526
122.507 12.4772 1.40617
120.4 12.3989 1.41677
123.397 12.9265 1.50057
109.007 11.6403 1.3574
113.189 11.6868 1.389
119.833 12.6594 1.52737
112.219 12.1545 1.48744
107.968 12.3202 1.52461
115.311 12.7022 1.58769
117.2 13.3713 1.67611
110.448 12.6476 1.61735
112.44 13.2089 1.70446
112.983 13.3638 1.75091
110.292 13.1908 1.75128
115.979 14.2691 1.91951
100.469 11.9918 1.63005
105.652 12.8594 1.74739
110.372 13.4512 1.87236
103.32 13.2571 1.83839
103.956 13.7517 1.95816
104.184 13.5517 1.95675
103.409 13.6848 1.9882
108.444 14.1949 2.09304
104.511 13.8857 2.03575
99.3381 13.5822 2.03387
104.388 14.4649 2.17747
95.6917 13.3648 2.06789
97.0582 13.713 2.13392
93.9893 13.5256 2.11193
101.065 14.5817 2.29502
94.2504 13.7763 2.23172
93.035 13.6261 2.17307
96.422 14.2019 2.31032
95.1316 14.5825 2.40665
95.5577 14.7326 2.46943
98.8442 15.3501 2.59056
94.6559 14.6945 2.50288
88.7115 14.3024 2.49225
91.9723 14.6826 2.59487
94.1726 14.9119 2.62283
96.2921 15.1111 2.64717
91.9061 15.237 2.73644
90.3207 15.0283 2.69634
87.9776 14.7604 2.68712
93.0635 15.9556 2.94291
84.8464 14.3906 2.68981
92.8649 15.9092 3.01804
87.3348 15.2028 2.89653
86.459 15.4381 3.00126
85.1641 14.7907 2.86748
87.1175 15.6217 3.0756
88.5354 15.8654 3.12611
86.1539 15.7722 3.13466
93.4411 17.041 3.40686
80.4727 14.9067 3.02943
83.7773 15.6937 3.21588
83.1233 15.7626 3.27039
83.6335 16.1145 3.41302
83.4383 15.966 3.33244
81.5879 15.8533 3.36693
83.626 16.558 3.55775
83.0784 16.3235 3.50859
80.6849 16.1004 3.49521
73.3613 15.2923 3.43453
78.4666 15.9443 3.54954
76.8838 16.037 3.6116
78.7466 16.4764 3.73863
73.5236 15.6162 3.6378
78.7607 16.4329 3.73992
74.3643 15.9926 3.68735
76.9482 16.8054 4.0142
76.3214 16.2335 3.8337
76.4368 16.6691 3.97701
77.6041 16.93 4.0428
75.3014 17.2739 4.24808
79.1167 17.7552 4.31167
75.5781 17.2181 4.27656
77.6525 18.0717 4.47664
71.6407 16.5794 4.16827
73.2714 17.4847 4.45421
68.9978 16.3 4.18243
74.3666 17.5796 4.47427
67.8972 16.1559 4.18032
70.8801 17.5205 4.63698
70.9759 17.1313 4.56394
70.931 17.719 4.73058
73.904 18.0818 4.81458
69.8274 17.5709 4.83755
68.9149 17.273 4.64626
64.3015 16.1359 4.42905
68.8249 17.5157 4.81409
70.4901 18.3022 5.1597
71.2684 18.8369 5.32331
67.1508 17.3456 4.8878
65.8427 17.8825 5.21139
68.2422 18.3073 5.25482
69.3771 19.0962 5.57202
65.0285 18.1146 5.32445
64.3319 17.5145 5.26321
68.0491 18.4916 5.40783
62.5376 17.5363 5.21995
66.525 18.793 5.69751
62.4062 18.0874 5.54204
70.1507 20.2465 6.17387
63.1222 17.5745 5.40649
66.2802 19.2246 6.05066
60.7469 17.6343 5.51862
64.2735 19.1622 6.15188
58.2947 17.3786 5.51684
57.8543 17.6703 5.68071
62.791 18.573 6.02007
60.9487 18.2925 5.95562
65.8179 19.7921 6.3748
61.6463 18.7529 6.24507
59.0424 18.3738 6.08685
54.6106 16.9475 5.67348
57.3098 17.908 6.02401
56.4402 17.9987 6.0911
56.6594 18.6702 6.4891
56.6133 17.9573 6.24999
60.083 19.2602 6.72639
55.604 18.3217 6.39983
52.7908 17.5715 6.30743
54.3226 17.7572 6.22509
53.1574 17.8429 6.49174
55.356 18.1672 6.44927
56.0823 19.0662 6.90344
56.3525 19.3193 7.05503
54.6279 18.7477 6.9425
57.8564 20 7.35163
51.5198 18.0774 6.84636
53.1756 18.3183 6.91003
53.355 18.6067 6.95254
52.5166 18.8768 7.17755
53.3662 19.3949 7.4308
53.3951 18.6812 7.19324
53.4351 19.1716 7.27487
49.2835 18.1346 7.16235
53.2425 19.6543 7.72153
52.3544 19.3055 7.51242
52.4385 20.0224 8.05699
51.6779 19.2768 7.84019
51.5423 19.1574 7.73332
50.3346 18.9882 7.59289
47.0923 18.2464 7.61171
52.0663 20.2721 8.19659
49.9213 19.3492 8.07021
52.98 20.0967 8.3697
47.1249 18.5464 7.8343
48.5582 18.9499 8.03051
49.2265 19.2315 8.11716
50.6337 19.9269 8.56716
48.5403 19.5362 8.33075
48.6562 20.0882 8.77876
46.7471 18.8999 8.1743
48.069 19.9871 8.80644
48.5549 19.5197 8.46079
44.2623 18.2279 8.17248
48.4926 20.3419 9.03637
46.0757 19.6374 8.94211
47.2916 20.5185 9.31787
45.0644 19.0339 8.58748
49.0118 21.0737 9.62632
45.3982 19.6832 9.02152
47.4283 20.5282 9.50407
45.1882 19.837 9.31696
42.5036 18.9713 9.10676
44.623 19.1721 8.95034
42.2546 18.2911 8.6697
46.0897 20.4423 9.67329
42.4031 19.1045 9.21411
44.7519 19.9856 9.52452
44.4409 19.9292 9.589
42.133 19.6448 9.74793
45.764 21.0226 10.2344
40.9621 19.0563 9.6709
40.9641 18.8752 9.3768
41.2816 19.3553 9.65995
40.9452 19.3282 9.76874
40.9684 19.7724 10.1216
41.2576 19.2555 9.69708
41.604 19.8087 10.1154
40.7564 19.5366 10.0671
39.5301 18.9379 9.79762
40.985 20.1157 10.4837
39.3685 18.8859 9.85267
41.1393 20.2476 10.5725
38.7985 19.0159 10.0773
40.4527 20.1009 10.7484
41.5283 20.2631 10.733
37.4186 19.0403 10.4633
38.77 19.324 10.3517
37.2539 19.4023 10.462
36.9246 19.4847 10.7204
37.3069 18.7719 10.2365
37.8538 19.8616 11.0802
39.2287 19.7291 10.9835
39.1093 20.6971 11.5039
37.8466 20.1192 11.3258
36.4077 19.6298 11.2274
37.5925 19.5333 10.8838
35.1673 18.9634 10.9087
35.5202 19.1055 11.125
35.6902 19.1704 11.127
36.6643 19.7564 11.4474
37.6103 20.8386 12.2871
36.3294 19.5853 11.376
36.2026 20.0697 11.7858
36.7714 20.1013 12.0996
34.4302 18.8484 11.1576
37.7008 20.9339 12.4467
34.5231 18.8245 11.2956
33.833 19.6427 12.0535
34.8632 19.1472 11.5992
33.7706 19.4809 12.0368
36.2773 20.1541 12.2842
33.0356 18.8359 11.635
35.6481 20.9278 13.0684
35.2925 20.0649 12.488
35.0508 20.3391 12.6182
33.9998 19.9306 12.507
33.1246 20.4057 13.08
33.0924 19.5699 12.4104
32.5977 19.9446 13.0191
32.1429 18.7813 12.152
33.434 19.8394 12.4042
32.472 19.8507 12.9372
31.0711 19.0511 12.4035
31.8377 19.6046 12.8596
31.659 19.7344 12.9315
32.4694 20.2558 13.3782
32.9048 20.2883 13.4268
31.8369 20.1665 13.5449
31.6125 20.1862 13.5757
32.9314 20.6063 13.9288
31.5541 19.9001 13.491
31.0562 19.757 13.6585
31.5955 19.9438 13.4636
29.6899 19.4803 13.671
31.1333 19.8016 13.4814
28.8465 18.8133 13.2376
29.8713 19.2318 13.4683
30.2194 19.3837 13.3073
29.9593 20.019 14.0687
29.3858 19.6847 13.9535
28.8764 19.4298 13.9282
28.9588 19.5928 14.2708
29.9127 20.24 14.5392
29.8661 19.9439 14.3753
28.5335 19.4247 14.0239
29.4365 19.9993 14.6532
28.9169 19.9878 14.6779
28.7315 19.2124 13.9852
28.8814 20.0679 14.7394
30.1746 21.1006 15.5979
30.3743 21.472 15.9198
28.1866 19.3376 14.4167
27.0924 19.2063 14.3719
28.3369 20.5455 15.9027
27.9712 19.5672 14.9119
27.5486 20.0241 15.4797
27.5481 19.8283 15.2328
28.0225 20.1286 15.4626
27.6267 19.9388 15.3826
28.609 20.31 15.7339
27.2431 19.8255 15.526
29.433 21.6239 16.6258
26.8434 19.766 15.5726
26.4227 19.7442 15.715
27.4864 20.4696 16.2502
26.7917 19.4681 15.2491
26.4259 19.9378 16.1938
25.7435 19.3369 15.4464
26.2974 20.0881 16.5382
26.8558 20.1755 16.4657
26.913 20.2952 16.3669
28.4496 21.8956 17.5293
24.4077 18.7839 15.4507
25.4865 20.15 16.9471
25.1643 18.9937 15.729
25.0227 19.5815 16.2271
24.592 19.178 15.9289
26.5663 20.669 16.9013
24.3015 19.4646 16.7728
26.3852 20.5944 17.0208
24.5963 19.6808 17.0732
25.0882 20.1141 17.4004
25.124 19.9384 16.8217
23.0818 18.859 16.5774
24.8387 19.3914 16.2516
23.6616 19.6925 17.5477
24.9327 20.1068 17.1092
23.4838 19.5834 17.1856
23.8135 19.3148 16.7719
23.7169 20.2656 18.154
23.4839 19.3695 17.2839
23.7819 19.5187 17.4828
23.8224 19.8337 17.766
23.2862 19.1837 16.7589
21.8925 19.2722 17.7137
23.1348 19.2656 17.3921
22.688 19.0066 16.9259
21.8036 18.8695 17.5086
22.2241 18.9219 17.3544
23.498 20.4575 18.6894
23.2942 19.9473 18.1817
22.1609 19.5919 18.7657
23.5034 20.5081 18.9248
22.578 19.6595 18.6471
23.0578 19.8125 18.2294
21.6683 19.1303 17.9843
22.3671 19.8643 18.4338
21.8369 19.6484 18.9514
22.8289 20.3824 19.3094
22.3687 19.9742 18.7287
21.5793 19.4235 18.7526
20.9718 19.1677 18.4742
20.6939 18.9805 18.8142
21.4787 19.8524 19.1467
20.3263 19.0863 18.9667
22.1498 19.6454 18.823
21.0779 19.5527 19.6864
22.6953 20.2554 19.5383
20.7533 19.1027 19.1358
21.9857 20.0878 19.3643
19.048 17.9376 18.0875
20.696 19.7052 19.6289
20.4479 18.7726 18.8008
21.0358 20.0411 20.3161
20.4484 19.1402 19.0394
19.845 19.3982 20.1812
21.0945 20.2825 20.586
19.9247 19.0964 19.5296
20.6279 20.2587 20.8415
20.1039 19.7582 20.6466
20.9343 19.6466 19.6157
19.3338 19.6824 20.9527
19.8575 19.2187 19.9147
20.3345 19.6593 20.3764
19.5212 19.1619 20.1078
19.4462 19.3147 20.2383
18.8777 18.6445 19.9491
19.1008 18.7531 19.839
18.5482 19.4988 21.8405
20.736 19.4566 19.9847
19.8726 19.9277 21.8231
21.0572 20.6901 21.4943
19.4979 19.6007 20.9199
18.3989 19.0943 20.7058
18.4355 18.2251 19.7707
18.7838 19.4741 21.3506
17.6987 17.922 19.7078
18.4214 19.1285 21.0381
19.4684 20.2308 22.2287
18.9126 19.7426 22.14
18.4085 19.114 21.2194
18.2891 18.9225 21.2204
19.2824 20.2267 22.6792
19.0048 19.3512 21.6932
19.3448 20.5231 23.243
17.8572 18.9907 21.683
19.3211 20.5847 23.2795
16.8638 17.2725 19.4365
18.101 19.663 22.3485
17.5474 18.946 21.933
17.7584 19.0528 22.1263
17.6653 18.5926 21.3244
17.5445 19.2608 22.6409
18.0317 19.821 22.7957
17.4895 19.0823 22.2822
16.9232 18.2115 21.8022
17.3944 18.4513 21.059
17.0026 18.7584 22.0164
17.0867 18.9209 21.8551
16.5638 19.2259 23.0319
16.5472 18.042 21.3507
15.9577 18.2852 22.0162
16.8931 19.1093 23.431
17.0087 18.6892 22.8998
17.2604 19.0006 22.0913
16.3578 18.7964 23.0923
16.2033 18.5129 22.6939
16.8633 18.8604 22.3762
15.5994 18.3896 22.8873
16.2649 18.4592 23.321
17.1803 19.187 23.6009
16.2296 18.4161 22.5433
15.916 18.3991 22.7848
16.7184 19.6732 24.2251
16.2353 18.8763 23.4319
15.5276 17.87 22.4046
16.466 19.0819 23.8112
15.7088 18.77 24.0683
15.8599 18.3265 22.5292
15.4304 18.5648 23.6507
15.1818 18.2202 23.2342
15.7868 19.5587 25.1259
15.6953 18.1784 22.9419
15.9874 19.6418 25.542
15.7518 18.6408 23.9991
16.1043 20.2046 26.3098
15.5382 18.5234 23.9612
15.0565 18.2865 23.7271
15.2735 18.6258 24.8994
16.1542 19.2014 24.5984
15.3181 18.5553 24.1532
14.8093 18.3772 24.185
15.5823 19.5675 26.0936
16.1401 19.6603 25.6055
14.7644 18.5422 25.0155
15.2638 18.8912 25.1492
16.0319 19.4574 25.3811
15.2737 19.5849 26.2712
14.1535 17.7533 24.6403
15.3115 18.7344 24.3239
14.4698 18.2556 25.1299
15.4583 19.5083 26.1994
14.696 19.4203 26.7419
15.4593 19.0995 25.4593
14.0099 18.0576 24.9639
14.7074 18.851 25.9698
14.2003 18.1371 24.9274
14.5991 19.0159 26.2495
13.7174 17.5043 24.2439
13.1993 17.6248 24.771
14.0989 18.7343 26.7626
14.8006 19.0138 26.2731
14.8767 19.5904 27.5568
13.5298 17.65 24.7989
14.4623 18.7992 25.8866
14.0448 18.5481 26.4391
14.119 18.6975 26.8328
13.3661 17.4729 25.2418
14.0694 18.4852 25.9529
14.1834 19.4806 27.676
13.908 18.6616 27.2103
13.8249 18.2197 26.616
13.8781 18.8027 26.954
13.9736 18.8542 27.3139
13.2668 18.147 26.5477
12.5547 17.4062 25.5653
12.8137 17.4098 25.6792
13.5268 18.6536 27.0674
12.85 17.1888 25.3077
13.3905 18.7197 27.543
13.0149 18.4289 27.6613
13.8072 18.311 27.0193
12.4732 16.8199 24.9493
12.9508 17.7844 26.4515
13.5207 18.6599 27.7184
13.157 18.2202 27.6638
13.3627 17.6806 25.8418
12.4977 17.6754 26.8662
13.2431 18.4462 27.5649
12.6489 18.3681 28.4365
12.8667 17.8608 27.17
12.834 17.9234 26.4771
12.4421 18.3246 28.5999
12.6409 17.9673 27.0313
12.2901 18.1373 28.742
12.5799 17.3949 26.6793
12.1893 17.624 26.7669
11.7666 16.9929 26.8321
11.9012 16.9484 26.946
12.3479 17.5739 27.0782
11.933 17.3593 26.973
11.6399 16.9172 26.9575
12.4627 17.6751 27.106
12.5078 18.6696 29.1588
11.9894 17.6471 27.5398
11.6835 17.7949 29.1259
12.7301 17.9211 26.8908
12.0278 18.601 29.82
12.106 18.3847 29.7122
11.8331 17.2814 28.1636
12.0144 18.006 28.9947
11.4912 17.3092 28.3246
11.6188 17.5372 28.2701
11.7061 18.1897 30.0821
11.994 17.5243 27.8726
11.4318 17.3906 28.1939
11.4019 17.5837 28.5916
11.6371 18.3351 30.7886
12.2255 18.6523 30.3608
11.7139 17.7318 29.4237
11.5101 17.8894 30.2651
12.2374 18.3089 29.4854
11.7076 17.7991 29.1276
11.0805 16.9954 28.8456
11.9322 18.628 30.67
11.7305 18.2697 30.576
10.967 16.9489 29.0462
11.4061 17.2101 28.799
11.176 18.0313 29.8929
10.9636 16.991 29.0493
10.9726 17.0794 29.2505
10.8591 16.8076 28.0218
10.8204 17.6282 30.1498
10.818 16.965 29.5471
11.5089 17.409 28.0333
10.9331 18.1157 30.6908
10.4456 17.2826 29.8708
11.1304 17.3891 29.3855
10.772 17.3986 30.1045
11.2453 17.6812 29.5893
10.63 17.8086 31.9625
10.6281 16.573 28.5767
10.6388 17.1334 29.5051
10.206 16.2764 28.3876
10.2217 16.8406 30.1583
10.292 16.4625 28.6445
10.2155 16.6878 29.089
10.2156 16.826 29.7845
10.1482 16.3455 28.5487
10.0438 17.0628 31.0071
10.3264 16.585 30.0115
10.5719 16.4527 28.1994
9.44543 15.8492 29.8191
10.3201 16.2897 28.4212
10.1095 16.7232 28.6512
9.17157 16.0755 29.9065
9.93305 16.1343 29.1038
10.0935 17.2309 30.6641
9.53227 15.8805 28.8256
9.96698 17.0137 30.4523
9.37666 16.2303 29.991
9.50013 16.3962 30.6286
9.86127 16.2301 30.189
10.3104 17.1606 30.3483
9.42985 16.2621 30.5061
9.49934 16.1493 30.0539
9.6382 16.3613 29.7288
9.0052 16.3061 31.2931
9.75749 16.2765 29.9521
9.28436 16.0967 30.0591
9.10457 16.2176 30.5313
9.63951 16.1046 30.3532
9.25282 15.5354 29.0552
9.37903 16.3069 31.059
9.49465 17.1144 32.6365
9.65092 16.4429 30.4139
9.31535 16.7558 31.6881
9.44957 16.5887 31.7494
9.80005 17.2519 33.356
9.93749 16.8806 31.2808
9.57379 16.9756 32.1344
8.66126 15.5844 30.5256
9.34576 16.4368 31.7927
9.48744 16.8455 31.5678
9.70687 17.2713 33.0838
9.4236 16.903 32.657
9.69191 17.6115 33.9056
9.17899 16.5127 32.6669
10.0337 18.0723 34.1568
9.32521 16.7323 32.7991
9.3228 16.8058 32.5194
8.98094 16.5402 32.7197
8.96159 16.064 32.3665
9.14933 16.2838 31.386
8.89321 16.504 32.7069
9.28024 17.0217 32.5655
9.01182 16.931 34.4064
9.17768 16.3287 32.6315
8.99227 16.7407 32.2929
8.84589 16.5003 33.0783
8.98791 16.218 31.7747
8.63101 16.9967 33.2142
8.79687 16.512 33.9301
9.36175 17.4176 34.4975
8.96234 17.0598 35.0318
9.19596 16.195 31.7736
8.60098 16.3011 32.582
8.89685 17.0688 34.5333
8.93359 17.4382 35.204
8.34333 15.7831 33.2397
8.65971 16.419 33.6129
8.73093 16.5229 34.1527
8.82993 16.2622 32.5231
8.63461 16.8693 34.9499
8.44583 16.192 34.4769
8.96881 16.7801 34.6407
8.93901 16.5423 33.3573
8.75061 17.4014 36.4531
8.67586 15.8511 32.6581
8.31514 16.1081 33.0018
8.57092 16.9945 35.3467
8.27845 15.7446 34.5006
8.3995 15.6873 32.6142
7.96738 15.2376 30.6632
7.61119 15.4807 33.0209
7.96991 15.5515 33.2927
8.1595 15.7446 33.2874
8.1267 16.3765 35.1982
8.69053 16.9936 35.2831
8.22903 15.91 33.392
7.8253 15.6743 33.8272
8.31526 16.4683 34.3122
7.52572 14.9469 32.7879
7.80302 15.8523 35.2909
8.30967 15.3626 32.7775
8.61529 16.8813 35.0359
8.13561 16.1216 33.7344
7.72772 16.1642 35.6296
8.63774 17.3039 37.0385
8.01888 15.4747 33.3494
7.89691 15.8589 34.7607
8.06895 16.5691 36.3175
7.92794 15.2923 33.0545
7.94225 16.6085 36.2633
7.85783 15.9162 35.1221
7.94411 15.7271 33.5667
7.38396 15.6493 35.3206
7.66471 15.1748 33.8884
7.79984 15.4676 33.1162
7.69227 16.2311 36.1342
8.04524 16.1567 35.6421
7.91979 15.9161 34.8418
7.76571 16.1112 35.1217
7.53734 15.7646 36.3477
7.70927 15.4082 34.3355
7.4717 15.2856 35.0545
7.57002 15.0101 33.3879
7.54357 15.3658 34.3792
7.34793 14.9426 33.1079
7.28173 15.0017 34.3435
7.23257 14.2978 32.4426
7.37063 15.1845 33.0679
6.97903 15.3645 34.4047
7.17013 15.631 35.9201
7.36078 15.5311 36.2315
7.45364 15.4536 35.5854
7.46016 15.2072 34.705
7.31953 15.7427 37.037
7.64393 15.5135 34.7958
7.32257 15.2981 34.3281
7.25862 16.0669 37.0974
7.59951 15.6179 35.2475
7.30272 15.7317 36.0586
6.86381 14.9205 35.0384
7.24366 15.2085 35.2361
7.18823 14.9967 36.2766
7.46429 15.5258 35.6078
7.38114 16.2519 39.0565
7.58752 15.7883 35.7879
7.13781 15.0093 34.8135
6.88858 14.8789 34.2538
6.68213 14.2224 34.1647
7.00901 14.9608 34.4384
6.66977 14.7562 35.9304
7.02728 14.8759 34.7007
6.9904 14.676 34.6584
7.16419 16.0023 38.5205
7.45977 15.8845 36.0721
6.72968 14.7602 34.906
6.82076 15.639 39.4495
7.62419 16.184 36.0781
6.78731 15.4052 36.4784
6.92188 15.1502 35.7284
6.64535 14.7746 35.981
6.7308 14.4348 35.2301
7.07017 16.1809 37.837
6.70603 14.8655 36.8583
7.06737 15.7408 36.7673
6.40307 14.1789 34.2481
6.48932 15.0588 36.9174
6.58014 14.8318 36.8906
6.66804 14.4816 34.9892
6.83008 15.6057 37.9172
6.66601 14.7554 37.0862
7.05315 15.6279 36.7599
6.41683 14.6973 37.0741
6.65515 14.6797 36.5219
6.75476 14.7313 35.6542
6.33496 14.6318 36.1212
