# pn-170911/RbIIR-48-RbIIA-1280-1959.psd
# Power spectrum* (dif=0,1,2) (really just |FT|^2)
# NOTE: only the first half! (symmetric)
# weeks: 1280-1959
# 2837 clock-days, 47 excluded
# PSD: 1441
8764.77 0.262557 0.0328
628466 13.0168 0.027696
1.97571e+06 37.3222 0.0284611
374469 11.9489 0.0301479
224179 12.5968 0.0297252
115030 8.26532 0.0290977
75600.7 8.46287 0.0305808
51490.2 7.50342 0.0313302
40747.4 7.53223 0.0299514
30706.2 7.22352 0.0302426
25587.8 7.18388 0.0319536
20805.3 6.90376 0.0324748
17326.1 7.01151 0.0337078
14447.7 6.8939 0.0343792
12654.1 6.98406 0.0345088
10603.5 6.51508 0.0351292
9885 6.98591 0.0369923
8436.01 6.77315 0.0362852
7531.15 6.63439 0.0394092
6454.3 6.44477 0.0380404
6088.53 6.7877 0.041569
5643.71 6.80843 0.0415493
5106.23 6.95559 0.0446859
4560.67 6.76569 0.0430672
4326.82 6.74322 0.0459465
3909.31 6.7777 0.0480499
3538.3 6.42291 0.0491449
3302.12 6.65556 0.0503202
3196.05 6.92554 0.0542428
2950.16 7.00245 0.0556097
2812.7 6.99052 0.0588052
2652.68 6.97858 0.0605292
2431.46 7.03458 0.0623899
2293.41 7.13444 0.065355
2173.59 6.80961 0.0670227
2063.33 7.06609 0.0716898
1975.31 7.32894 0.0756372
1882.55 7.38517 0.0768378
1758.32 7.2923 0.0774424
1674.21 7.29817 0.08236
1619.18 7.37872 0.0864023
1521.1 7.3758 0.0868021
1458.94 7.5466 0.0940196
1464.09 7.80926 0.0991117
1363.97 7.63173 0.0992867
1320.32 7.74768 0.101601
1260.93 7.91075 0.109725
1257.13 8.15826 0.115411
1211.55 8.27087 0.120932
1168.42 8.42276 0.125193
1097.13 8.20166 0.129103
1074.38 8.36543 0.133117
1028.45 8.58918 0.136349
1025.79 8.80393 0.148656
998.246 8.78339 0.151786
957.452 9.09859 0.160082
947.705 9.21558 0.165393
920.327 9.12075 0.168357
863.856 9.11308 0.176811
845.712 9.15279 0.178387
877.549 9.92999 0.195845
812.187 9.59095 0.197531
791.716 9.74058 0.20853
780.583 9.80933 0.216876
763.024 9.7613 0.220367
740.396 9.98596 0.22932
713.944 9.99853 0.235162
704.891 10.1671 0.245514
662.061 9.99263 0.251596
687.956 10.7897 0.275899
657.197 10.1151 0.266249
643.435 10.5102 0.282536
623.478 10.6555 0.294863
599.852 10.4289 0.295386
615.893 11.0103 0.318399
601.443 10.9803 0.321291
581.387 11.0005 0.332012
571.842 11.0913 0.339542
550.898 11.1836 0.355978
534.236 10.8614 0.349368
539.871 11.4666 0.378126
527.686 11.3783 0.383592
534.878 12.2092 0.424007
511.263 11.7666 0.416096
497.611 11.9829 0.428616
484.292 11.8618 0.436951
469.658 11.7736 0.445246
466.978 11.9029 0.45375
458.77 12.0692 0.472668
444.754 12.0439 0.479108
454.875 12.7344 0.516012
447.362 12.6587 0.519241
426.549 12.6642 0.534154
438.78 12.8683 0.55878
417.951 12.5794 0.555149
415.817 12.9561 0.58555
462.635 15.0611 0.68745
409.74 13.4231 0.626496
377.265 12.5701 0.599741
386.907 13.3566 0.64621
382.985 13.185 0.654489
384.575 13.4838 0.678898
378.301 13.8091 0.706823
368.8 13.5254 0.703801
363.952 13.6804 0.730272
365.144 14.1957 0.765111
351.745 13.8101 0.765774
334.335 13.5972 0.768938
335.812 13.9548 0.797482
344.202 14.2785 0.834757
334.773 14.4232 0.861984
329.316 14.0327 0.848865
317.117 14.1677 0.86912
317.143 14.5657 0.906378
326.664 15.3507 0.977863
307.358 14.6444 0.950764
305.828 14.6299 0.950865
299.937 14.7512 0.982541
299.603 14.5513 0.982984
296.581 15.0178 1.04277
298.197 15.2789 1.05932
290.849 15.4679 1.0979
278.599 14.7136 1.06105
282.743 15.4084 1.12587
293.655 16.3608 1.22315
280.152 15.6738 1.19585
274.261 15.5666 1.19703
267.298 15.1544 1.17484
255.656 14.9678 1.1899
269.585 15.7473 1.2537
257.53 15.4212 1.26469
257.291 16.1417 1.34879
249.313 16.0922 1.35195
248.548 15.6893 1.33262
249.041 15.932 1.3764
243.235 16.1185 1.42608
245.252 16.4822 1.46766
235.608 15.7982 1.42669
240.066 16.6368 1.52069
231.05 16.2037 1.50877
239.965 17.1217 1.62158
233.689 16.9177 1.62433
223.466 16.5338 1.597
227.906 17.0618 1.68122
224.581 17.2683 1.71748
219.332 17.0584 1.72713
215.731 16.8219 1.72491
216.112 17.1041 1.75989
216.714 17.4725 1.83334
218.946 17.7995 1.89515
220.881 18.3188 1.95621
210.17 17.3165 1.86613
205.868 17.4321 1.92421
213.136 18.7809 2.10432
205.402 18.1063 2.04893
210.593 18.658 2.13705
198.414 17.9629 2.09159
198.369 18.0922 2.11287
201.962 18.5584 2.20276
189.715 17.8492 2.14736
195.179 18.3643 2.23784
191.896 18.5168 2.30534
187.623 18.2697 2.28494
195.682 19.2007 2.43172
188.407 18.727 2.38098
181.859 18.3115 2.37409
181.279 18.8316 2.46173
186.184 19.6792 2.60335
173.164 18.1896 2.45071
178.843 18.8421 2.53878
174.45 18.7952 2.5856
180.184 19.5682 2.71967
171.719 19.4436 2.73019
168.555 18.9897 2.69666
170.493 19.242 2.76914
172.729 19.7408 2.85691
166.947 19.5611 2.85361
165.81 19.4155 2.88533
169.185 20.012 3.01094
163.743 19.9228 3.00923
162.457 19.8267 3.04596
157.041 19.4594 3.00476
160.507 19.4463 3.05948
157.237 19.5761 3.13689
160.833 19.9866 3.18581
156.12 20.4008 3.31977
159.901 20.747 3.36356
154.609 20.4488 3.35634
156.243 20.9107 3.50577
155.2 20.4924 3.42481
152.47 20.6174 3.51892
149.518 20.5425 3.55181
172.889 25.1598 4.35893
144.109 20.1479 3.52309
149.406 22.0091 3.91559
142.609 20.832 3.75277
143.059 20.536 3.69988
147.205 21.8625 4.00997
142.432 20.9459 3.88567
142.241 21.0866 3.91366
131.509 19.9671 3.79855
140.631 21.3071 4.03648
137.524 21.1492 4.03424
133.111 20.9169 4.07462
139.742 22.523 4.38613
135.855 21.6942 4.30082
137.504 22.0685 4.36259
134.074 21.8023 4.39821
132.346 21.3565 4.32637
132.141 22.1518 4.56344
133.111 22.119 4.59079
129.197 22.2567 4.65044
123.705 20.7033 4.361
121.385 21.0413 4.53005
125.885 22.1864 4.78669
128.017 22.5057 4.88022
129.187 22.9721 5.01357
123.913 22.7858 5.0295
121.071 21.8591 4.89209
120.538 22.1493 4.9743
122.765 22.342 5.09238
118.549 22.0462 5.05217
122.775 23.2069 5.36227
121.033 22.6742 5.26803
116.219 22.5702 5.30232
118.021 22.8986 5.42907
119.577 23.4454 5.60083
115.384 23.5169 5.7058
122.119 24.0578 5.8809
118.225 23.4994 5.76687
112.513 22.7539 5.57404
111.878 22.9186 5.71485
113.389 23.1421 5.80033
114.168 23.7747 6.05318
114.843 23.7684 6.02753
112.329 23.6559 6.11286
108.594 23.6366 6.15966
107.697 23.0443 6.04069
110.625 23.7373 6.27874
107.155 23.662 6.31654
109.289 24.0313 6.43928
106.125 23.4688 6.36721
106.815 24.2083 6.62875
106.663 23.983 6.62658
102.397 23.564 6.5085
105.849 24.3733 6.81456
103.405 24.0822 6.79797
105.001 24.8713 7.10337
102.95 24.3188 7.00218
101.275 23.6344 6.79948
103.09 24.9253 7.2238
101.394 24.6918 7.25939
98.9837 24.5037 7.22327
103.313 25.396 7.63092
99.7277 24.8739 7.40727
97.186 24.476 7.44745
96.6718 23.9823 7.27416
98.3487 25.515 7.86409
95.428 25.0672 7.74045
96.589 24.9368 7.75096
96.1933 25.2305 7.96625
97.8675 25.2135 7.85304
93.3071 24.8078 7.9289
92.2552 24.8898 8.01868
91.4476 24.8514 8.04107
96.8024 26.0981 8.46812
92.3235 25.1945 8.22619
91.9096 25.1501 8.35144
89.3162 24.551 8.1682
87.1817 24.4616 8.17301
90.5383 25.3758 8.63144
91.3245 25.2596 8.46952
88.089 25.1147 8.64847
88.9731 25.0016 8.65592
88.5992 25.8422 9.03498
87.1159 25.1292 8.79344
91.8268 27.1648 9.53548
86.7943 25.5649 9.13435
86.1428 25.3139 8.99706
84.7021 25.5222 9.05469
80.4845 24.7902 9.11052
84.9928 25.8811 9.4145
83.8811 25.6057 9.39711
83.3436 25.4497 9.41638
85.8633 26.6851 9.94252
82.4586 25.8751 9.71265
83.1032 26.3161 10.0772
79.9771 25.592 9.8827
105.647 34.4517 12.7076
82.2195 26.826 10.3926
76.6643 25.3791 9.90968
79.9405 26.3123 10.3072
78.1418 26.0863 10.3022
81.3634 26.8919 10.5654
80.3514 27.294 10.9444
79.7864 26.621 10.6563
78.3459 26.4231 10.62
74.5533 25.4856 10.3983
76.1537 26.0846 10.5907
75.0393 26.007 10.8193
76.8612 26.2794 10.8186
75.329 26.4854 11.0728
75.341 26.71 11.195
74.5841 26.8794 11.3577
75.2307 27.0664 11.398
74.0232 26.4472 11.3703
75.6539 27.6335 11.7866
74.1995 26.7135 11.5116
71.7213 26.5904 11.6005
71.7135 26.4883 11.6654
72.7114 26.7883 11.8384
73.0736 27.2991 12.1674
70.1266 26.2975 11.7085
71.4121 27.2943 12.1858
71.3983 27.4396 12.3784
71.6104 27.4913 12.5208
70.7738 27.323 12.5132
70.7487 27.6784 12.5634
66.1587 25.6022 12.0068
67.1544 26.1746 12.2448
67.2801 26.3065 12.3487
67.8729 26.9505 12.6317
65.608 26.0544 12.3573
66.5507 27.0515 13.0312
66.7345 26.8676 12.7983
67.7184 28.0036 13.6005
67.6825 27.4409 13.394
65.9517 26.4342 12.849
64.8978 27.0664 13.4156
65.78 27.3861 13.4588
63.7952 26.9112 13.4607
65.3039 27.5378 13.6835
67.0477 28.6129 14.4535
63.9118 27.2222 13.8316
63.9427 27.0586 13.7618
65.8252 28.4446 14.4987
61.7066 26.331 13.5311
64.392 28.4162 14.7318
61.9413 27.2176 14.2339
62.491 27.9851 14.6579
62.9769 27.8359 14.5183
63.1225 27.9533 14.7375
62.4745 28.3444 14.9335
59.7582 27.4443 14.812
60.6806 27.7617 14.9612
61.1649 27.6727 14.9124
61.5196 28.0299 15.2333
61.1616 28.4402 15.6275
61.3118 28.4962 15.7254
59.3635 28.0106 15.4852
62.0906 28.925 15.9337
58.4083 27.5656 15.5381
58.8157 28.1757 15.8748
57.1734 27.0558 15.1763
57.6794 27.253 15.4544
58.9776 28.1374 15.9804
57.8454 28.1892 16.1987
58.672 29.192 16.8742
56.847 28.0473 16.1488
54.945 27.3422 16.0531
57.2665 28.6328 16.7923
57.8834 28.7146 16.8723
56.2666 28.5541 16.9156
56.6202 28.1228 16.7273
57.1881 29.1248 17.283
56.1807 28.8862 17.3587
52.9488 26.7937 16.3242
55.1262 28.5422 17.3741
53.5196 27.869 16.9035
54.7484 28.6811 17.623
54.1996 28.0187 17.3178
54.2562 28.7917 18.0284
51.3969 26.8048 16.813
52.3272 28.0566 17.5796
52.7641 28.783 18.1587
52.1117 27.6732 17.5026
54.6433 29.5933 18.8279
52.4556 28.7128 18.4366
50.7936 27.5165 17.604
51.2711 28.535 18.5063
50.4654 27.9533 18.2762
49.5392 27.0966 17.6971
50.9313 28.3584 18.7531
51.5772 29.1202 19.6341
63.8436 37.8169 24.0365
50.4254 28.5911 18.9704
50.1263 29.1132 19.5273
50.0875 28.6947 19.3578
49.7671 28.7102 19.3919
49.6026 28.1413 19.1351
49.7438 29.0564 19.9698
49.4381 28.55 19.5982
48.9925 28.2673 19.2307
48.276 29.0011 20.1899
46.8088 27.0855 18.9242
48.5716 29.2013 20.3948
48.0493 28.382 19.9197
47.0827 28.1404 19.9377
47.1442 27.9053 19.7399
48.185 28.6361 20.2637
47.9404 29.889 21.4522
46.0202 27.8836 20.0001
45.2295 27.4226 19.7916
46.5043 28.3146 20.6399
46.9376 29.226 21.1222
46.5986 29.7731 21.8378
46.051 28.6673 21.0408
45.2555 28.3638 20.9358
47.0669 29.4101 21.6862
45.3504 29.0121 21.7096
44.9021 28.2443 21.213
45.7586 29.0814 21.8718
45.2442 28.9313 21.6535
44.6395 28.7106 21.9809
43.5811 28.2541 21.6753
44.3859 29.3639 22.4645
44.4096 28.9469 22.3631
43.5011 28.5917 21.9915
41.8934 27.7423 21.5568
41.6702 27.5936 21.7138
44.2428 29.4099 22.9479
44.2435 28.8989 22.4794
44.5239 30.1895 23.771
43.2743 28.6762 22.8503
43.0038 30.064 24.0174
42.066 28.8393 23.4954
42.7218 29.0665 23.0347
42.0552 28.9446 23.3587
42.3588 28.545 23.0465
42.3632 29.6058 24.106
41.2492 28.6881 23.6656
41.7336 28.3425 23.1637
41.7164 29.2251 24.351
40.9495 28.2335 22.9948
41.2372 29.4846 24.536
41.0057 29.153 24.3268
39.8334 27.8672 23.4718
40.456 28.9688 24.279
41.2307 29.2815 24.7107
39.5773 28.3499 24.2871
40.4409 28.887 24.6305
39.3197 28.6379 24.5403
39.0381 28.5605 24.7718
39.0927 28.4324 24.4623
39.0558 29.0165 25.0883
37.8209 27.7496 24.1864
39.4394 29.7512 25.9834
39.8287 29.5142 26.1254
38.1181 28.4275 24.9651
37.1552 28.2041 25.4161
37.6895 27.8767 24.6282
37.5467 28.6146 25.8405
38.6158 30.3695 27.4874
38.2567 29.4098 27.2799
41.5382 33.1848 31.2676
38.0396 31.6092 37.3095
120.17 96.5086 73.0444
36.667 29.4071 28.7334
42.223 33.7312 30.9372
36.6258 28.9312 27.1174
37.9501 30.0442 27.635
37.1586 29.5149 27.494
35.8232 27.7761 26.0372
36.0086 28.5745 26.9284
36.0051 28.2742 26.6541
34.7018 27.2918 25.7165
36.5154 29.676 28.2645
35.9466 28.8578 27.4875
35.3247 28.3639 27.2402
35.1836 28.9775 27.4445
34.7401 28.4485 27.7436
35.2314 28.585 27.4204
34.5452 28.1216 27.3377
35.2972 28.8529 28.028
33.3815 27.9598 27.6794
34.4511 28.222 27.6199
34.2145 28.328 27.9932
33.7291 27.894 27.5081
33.8341 28.7727 29.0986
34.736 29.3383 30.7233
47.0542 40.2729 37.3885
32.8046 28.0067 28.6793
32.5772 28.1169 28.9075
33.7997 28.8121 28.8203
32.7665 28.0039 28.4054
33.5544 28.7366 29.238
32.3832 28.4764 29.5185
33.6092 28.8896 29.224
32.8236 28.5159 29.351
33.1147 28.7944 29.8066
32.488 28.8255 30.0322
30.9596 27.0538 28.2703
32.3341 29.428 30.7901
32.5868 28.8052 30.4582
32.6781 29.0248 30.4477
31.1194 27.6091 29.2155
32.0147 28.568 29.895
30.2404 27.3586 29.4394
30.6031 27.7391 29.7934
30.7265 27.5332 29.525
31.138 28.552 30.9472
30.4969 28.0255 30.3826
31.2942 27.9895 29.9819
30.3427 28.215 31.2396
31.1036 28.7073 31.0418
30.0466 27.5992 30.2011
29.6772 28.0385 30.9485
30.3855 28.2583 31.0733
29.6515 28.0654 31.2119
29.9472 28.299 31.549
29.3514 27.8105 31.4057
29.9226 28.17 31.2365
28.6105 27.3151 31.3003
30.4918 28.4413 31.3109
29.5313 28.2614 32.1364
28.8519 27.2663 30.9377
28.6955 27.3684 31.2512
28.7069 28.5491 32.7833
29.5336 27.7653 31.6223
28.587 28.0557 32.1842
28.6658 28.055 32.7617
28.9688 28.0935 32.4658
29.1469 28.3639 32.5916
28.0903 27.4846 32.1388
29.0072 28.2988 33.0652
28.9455 28.8155 34.0197
28.4937 28.552 33.9025
27.9499 28.0675 33.2281
28.8172 28.9651 34.2568
28.2557 28.0869 33.2506
27.9377 27.3551 32.6029
27.348 27.923 33.8176
27.6546 28.3492 33.9804
27.6431 28.2737 34.3025
27.7183 28.1176 34.0421
28.2568 28.3663 33.9519
26.2821 27.3575 33.8274
27.3216 28.0653 33.4111
26.3839 28.0805 34.9647
25.871 27.3443 34.2588
27.282 28.1126 34.7705
27.142 28.2492 34.6225
26.5526 27.9284 34.9311
26.7167 28.722 35.7839
26.8874 28.4525 35.6128
26.461 27.6608 33.9435
25.5626 27.6188 35.0332
26.3481 28.0061 35.4031
25.4979 27.3996 34.5396
25.8776 28.2283 35.7094
25.4836 26.9101 34.5254
26.0226 28.1096 35.5376
25.3186 27.7773 36.2279
26.0075 27.6503 35.0109
25.2238 27.8315 36.4181
25.1704 27.6847 36.2519
25.5371 28.08 37.1041
24.4618 26.6387 34.9941
25.4119 27.6641 35.8841
25.1362 28.0205 36.6458
24.8952 27.5509 36.3275
24.4017 27.0797 35.9639
24.5203 27.4609 36.3515
24.5628 27.7256 36.7806
24.0237 26.7058 36.5841
25.4202 28.3154 37.5741
24.8191 27.5355 36.6585
23.8179 26.8332 35.83
24.0077 27.2693 36.8314
24.2212 27.5996 37.1911
23.7092 28.1358 38.0856
23.504 27.1088 37.2987
24.1724 27.4884 37.4015
23.844 27.2791 37.6104
23.3344 26.9417 37.4333
23.719 28.302 42.0187
31.1175 37.3695 47.6071
24.1606 28.06 38.8169
23.6295 27.5106 38.3366
23.6353 28.1916 39.3887
23.6807 27.8539 39.2849
23.8524 27.7562 38.9359
23.1445 27.02 37.7231
22.1519 26.0822 37.0916
23.6982 29.0099 40.7775
22.6703 26.679 37.8098
22.1734 26.3904 37.2738
23.094 27.6593 39.1273
22.9579 28.0502 40.7098
23.0666 27.3393 39.3787
22.3039 27.0944 39.3252
22.4545 27.0695 38.5196
21.3697 26.6763 39.1523
22.3498 26.9882 39.208
21.6189 27.2872 40.173
22.0862 26.9844 39.5482
21.5531 26.0881 38.2205
21.622 26.4927 39.2106
21.8339 27.0331 39.8898
21.8096 26.904 39.8672
21.7198 26.1432 38.2634
21.6422 27.2865 40.0119
20.9007 26.682 40.719
21.2561 26.3081 39.5886
21.152 26.9106 40.171
21.6794 26.7937 40.5406
21.4622 27.3879 41.0348
21.3151 26.9286 40.597
21.3407 26.0449 38.9641
20.6855 26.69 40.8218
20.5375 25.6228 38.9878
20.5226 26.6306 40.7781
20.8921 26.4887 40.0175
20.1563 25.9476 40.5316
20.5672 26.4773 41.5093
20.7902 26.6386 40.559
20.3838 25.969 40.2884
20.3168 26.2959 41.2581
20.5317 26.3596 41.1043
20.7594 26.6727 40.9786
20.3277 26.705 41.6586
19.6471 25.6157 40.124
19.8759 26.5126 42.5222
19.4094 25.5317 40.7963
20.3982 26.9547 42.285
19.6599 25.7681 40.8498
19.1492 25.3814 40.6777
19.6821 25.8177 41.4006
19.4211 26.2098 41.2136
19.4975 26.3666 42.1785
19.3752 25.901 42.162
18.8562 25.4501 41.6652
19.7894 26.625 43.0565
19.404 26.5011 42.395
18.9632 25.9289 42.3696
19.0738 25.6405 42.2389
19.7191 26.7931 43.1339
18.6671 25.6062 42.3324
19.088 25.9264 42.9025
18.8624 26.1712 43.5382
19.528 26.388 43.2724
19.0783 26.4021 43.1789
18.337 24.659 41.0435
18.4348 25.5622 42.5027
18.6628 25.9652 43.3984
18.5212 26.6428 44.9572
18.9241 26.6932 44.9204
18.7374 25.9906 43.7953
18.7278 26.6148 44.9397
18.1379 25.3271 42.9764
18.5689 25.6793 43.7688
18.5523 25.99 44.1962
18.6666 25.7364 43.5449
18.156 25.8147 43.6094
17.527 24.8046 42.8245
18.1096 25.9622 45.1783
18.0441 25.8929 44.1866
18.0217 24.8481 42.9622
18.3613 26.7548 45.3942
17.8158 25.7382 45.1478
18.4084 26.2395 45.4727
17.5944 25.9376 45.3395
18.5769 26.7571 46.1943
17.4865 25.6705 45.8141
18.0219 25.3197 43.9949
17.5395 26.0072 45.4015
17.407 25.8704 45.5089
17.5665 25.5632 45.4771
17.5592 25.4139 45.255
17.1567 25.9728 46.3716
17.5548 26.0136 46.9123
17.069 25.7897 52.0145
24.2042 35.1132 54.7247
17.0867 25.3801 46.099
17.1423 25.5782 45.3487
16.4042 25.0134 46.388
17.2009 25.3964 45.0755
16.532 25.3426 46.5851
16.6209 25.2896 45.8701
16.681 25.222 45.6376
16.9275 25.4841 46.0245
16.5798 25.3441 46.124
16.5099 25.0624 46.864
16.5248 25.0245 45.3074
15.8329 24.6822 45.6779
16.2678 25.0499 47.6322
16.6989 24.6684 44.8195
16.3683 25.2158 46.8881
16.1443 24.523 45.7942
16.1951 25.2278 47.3813
16.3659 25.2226 46.6234
16.0452 25.1949 47.1809
16.0739 25.1904 46.8861
15.8649 24.6803 46.5474
15.7137 24.7642 47.1141
15.8944 25.0917 47.9567
16.0449 24.2678 46.0385
15.8637 24.5378 47.1035
15.8782 24.9605 47.1385
15.9379 24.8771 47.0509
15.7633 25.0572 48.5233
16.0353 24.6961 46.5026
15.3568 24.5927 48.1803
15.6895 24.379 46.6345
15.5539 24.9182 48.0103
15.3343 24.6559 47.608
15.8424 24.7408 47.8424
15.1349 24.1776 47.8012
15.6505 25.2981 48.2893
14.8018 24.116 47.9736
15.2344 24.2168 47.1154
15.3669 25.1069 49.3629
15.1435 23.7599 45.8706
14.8205 24.506 48.3844
15.0453 24.0499 48.4985
14.7339 23.3728 46.4355
15.4566 25.6559 49.5797
14.4476 23.799 47.927
14.6894 24.2056 48.2782
14.386 24.1121 49.3744
15.0024 24.1995 47.8564
14.8806 23.9342 47.9497
14.6238 23.824 47.8365
15.0017 24.7779 49.5248
14.526 23.5394 47.483
14.5443 24.2327 48.2021
14.5422 24.7852 51.4109
14.9001 24.0317 47.0264
14.5535 24.4908 50.3079
14.6049 24.4185 49.6196
14.3439 24.1717 49.5145
14.3688 24.4848 49.9824
13.9847 23.4315 48.7527
14.1845 24.0936 50.2644
14.127 23.5987 48.7594
14.2855 24.6131 50.3411
13.8932 23.695 49.1337
14.1871 23.8197 49.6165
14.2361 24.2359 49.4152
13.6141 23.3109 49.0391
13.9712 23.2899 48.5242
13.8421 24.1475 50.5185
13.7538 23.3848 49.4192
13.7179 23.9956 50.5121
14.3566 24.7804 51.4992
13.77 23.5689 49.6687
13.7646 23.9057 50.2431
13.4048 22.9463 48.7038
13.8254 24.2557 50.8567
13.1028 22.737 49.462
13.8869 24.0679 51.047
13.6934 23.0732 49.2974
13.5013 24.2078 51.0312
13.0929 22.6049 48.7374
13.4684 23.5331 49.9847
13.3384 23.4549 50.2055
13.163 23.7117 52.0344
13.6472 24.1852 52.1254
13.4105 23.3438 49.6378
13.1218 23.3176 51.0497
12.9993 23.0558 50.2024
12.5008 22.1983 48.9397
12.9476 23.3293 50.9724
13.1326 23.5283 51.2535
13.0236 23.2004 51.6234
13.0182 23.0409 50.9297
13.4312 24.1817 52.5228
12.5924 23.7663 62.0131
18.0048 31.6051 59.4903
13.0835 24.0462 51.5361
12.6384 23.0363 52.274
13.0858 23.3467 50.877
12.8377 23.6568 52.6137
12.6261 23.2445 51.9636
12.4966 22.8084 50.9222
12.293 23.0613 53.2688
13.0933 24.0686 52.9521
12.7522 23.0556 52.7618
12.9517 23.5793 52.4892
12.46 22.8955 51.2073
12.7772 23.4154 53.1884
12.4266 23.1235 52.5511
12.7942 23.4907 53.5924
12.7077 23.1258 52.443
12.3839 23.3778 53.0902
12.5644 23.4478 53.5925
12.5893 23.2773 52.8724
12.2478 22.9885 53.5965
12.23 22.0468 51.2503
12.2584 22.6023 51.832
12.2649 23.0875 53.3564
12.5243 23.4291 52.821
12.0112 22.612 52.661
12.4621 23.3585 53.5782
12.2814 23.1269 53.5095
12.031 22.2848 51.9694
12.2182 23.2646 53.3614
11.7839 21.9736 52.6621
12.1183 22.3323 52.6536
12.78 25.2039 58.2521
11.9808 21.9916 51.7865
11.7533 22.4317 53.3369
11.7585 22.1952 51.9154
11.7237 21.8552 50.7092
11.4617 22.3658 53.2572
12.0077 22.8367 54.0909
11.5726 22.1631 52.4409
11.0235 21.3637 51.7214
11.8167 22.9818 54.8971
11.469 21.7835 51.9277
11.583 22.6853 54.2585
11.4525 21.5187 52.0112
11.5409 22.1071 52.9987
10.9681 20.9658 50.3524
11.336 22.1782 55.1692
11.9967 23.0746 54.14
11.6953 22.9486 55.4659
11.3527 22.2052 52.6075
11.1799 21.8125 53.5535
11.6761 22.5002 54.0586
11.1273 21.6285 52.7976
11.3849 22.2053 54.5474
11.2713 21.7847 52.9599
11.2637 22.7094 54.9026
11.301 22.3767 54.1953
11.2448 21.6802 53.525
11.0288 22.4651 55.564
11.3982 22.2728 54.4435
11.2157 21.9429 54.7666
