# pn-170911/RbIIR-51-RbII-1280-1959.psd
# Power spectrum* (dif=0,1,2) (really just |FT|^2)
# NOTE: only the first half! (symmetric)
# weeks: 1280-1959
# 335 clock-days, 2 excluded
# PSD: 1441
59971.7 1.11255 0.026497
2.09658e+06 53.0056 0.0442324
2.85129e+06 49.4543 0.0496063
807659 16.5244 0.0407636
577112 20.2739 0.0460529
329956 9.0553 0.0452254
216408 8.82532 0.045842
159080 8.53094 0.0449832
125458 8.4892 0.0514019
100903 7.77116 0.0492754
72581.8 6.53443 0.0502638
74375.9 7.44508 0.049
49670.4 6.78655 0.0515015
50752.5 6.36127 0.0526947
40682.3 6.59103 0.0570137
40401.8 6.9735 0.047927
30202.8 6.05585 0.0534576
29695 6.67416 0.0502443
27266.9 6.2359 0.0633299
24078.2 5.70553 0.0584056
16171.1 6.45029 0.0623911
25107.7 6.94857 0.0579102
19345.8 6.19501 0.0630243
15116.2 6.15869 0.0572781
13009 6.17452 0.0590165
13268.4 6.65609 0.0636524
10275.9 7.17798 0.0771039
11145 5.97113 0.0650164
10778.8 7.15328 0.0680856
9682.78 7.7673 0.0785345
7580.11 6.44477 0.0720877
8812.55 7.77327 0.0856738
8325.34 8.4994 0.0859907
6717.04 8.17359 0.0887026
7616.8 7.94915 0.0874909
6891.27 8.26674 0.0939532
6224.36 7.67973 0.0858651
6351.2 8.08867 0.0876583
5890.87 9.1903 0.103561
5722.46 8.87522 0.117582
5336.79 9.97297 0.120966
4723.43 9.49188 0.110481
4831.56 10.1744 0.119907
4538.44 10.0933 0.147851
3942.73 10.0534 0.138647
4341.05 10.7758 0.1489
4235.56 10.0795 0.145484
4476.02 12.8137 0.178852
3480.02 11.3685 0.176419
3764 10.0409 0.167073
3615.57 10.7246 0.172752
3698.32 11.848 0.19103
3222.11 12.2422 0.205051
3232.79 13.5136 0.238339
3284.31 12.3552 0.202345
3260.62 11.1404 0.207206
2967.69 10.9322 0.224162
3292.03 11.9125 0.242057
3236.94 13.0534 0.255474
2729.24 11.851 0.250653
2860.65 14.4057 0.281678
2807.51 12.5865 0.275268
2725.58 13.1751 0.305818
2882.96 14.4402 0.323879
2779.86 14.7102 0.356795
2666.79 14.6759 0.350916
2419.32 14.6899 0.359086
2795.58 15.7518 0.400556
2372.01 15.5344 0.41989
2430.41 15.1981 0.394264
2005.17 14.1914 0.403995
2057.82 15.4307 0.447743
2032.88 14.3169 0.427182
1936.76 15.495 0.457101
1930.92 14.3695 0.43218
1911.35 15.7798 0.502738
1789.26 13.9736 0.445377
1661.76 14.6587 0.484645
1746.89 16.7297 0.540579
1727.78 17.0385 0.600293
1667.77 15.4817 0.558481
1585.4 15.9122 0.558536
1524.4 14.6579 0.545193
1436.74 16.4274 0.611943
1445.78 16.9555 0.618161
1589.76 17.558 0.659443
1324.01 16.8985 0.659311
1241.16 14.8129 0.608271
1263.83 16.4823 0.647965
1262.44 16.9846 0.693259
1060.35 15.4715 0.645488
1356.34 16.6807 0.725053
1281.26 17.6504 0.743918
1142.52 16.1053 0.712908
1239.68 17.2485 0.7878
1370.52 17.7116 0.823627
1100.63 18.7741 0.881877
1217.36 16.2232 0.775809
1144.4 17.7673 0.854672
1043.61 17.9415 0.913178
1056.26 17.687 0.894237
1261.92 17.917 0.931761
1073.36 17.0338 0.907325
1013.67 15.8833 0.859364
1137.25 19.3026 1.03759
1046.13 19.1305 1.03951
843.671 15.2373 0.857834
1012.42 17.4025 0.998899
947.697 19.0149 1.0681
941.589 18.3985 1.08919
913.159 20.3936 1.2271
1018.75 17.8382 1.07526
939.68 15.898 1.02786
762.402 18.2869 1.19954
827.969 18.2182 1.17514
903.616 16.8846 1.07108
703.655 19.014 1.28505
697.45 16.1455 1.09168
740.376 16.0064 1.07816
716.566 16.4274 1.13645
823.766 15.5784 1.10281
707.903 19.0495 1.34676
660.263 16.0854 1.19359
847.208 17.8532 1.32062
741.823 17.4573 1.32903
737.596 16.8964 1.31675
666.581 15.8937 1.22422
587.878 16.779 1.27102
670.997 18.1739 1.43828
627.652 19.2362 1.60136
614.365 17.1058 1.40711
627.925 15.9588 1.35644
598.212 17.3318 1.55495
591.652 15.8348 1.35171
619.29 17.4684 1.47877
623.508 17.0402 1.52082
634.224 17.9342 1.67687
555.803 19.2214 1.78738
545.672 17.7405 1.61123
579.136 17.5638 1.67609
560.495 16.6463 1.63239
561.386 18.5989 1.76518
497.384 16.8705 1.69019
516.069 17.4769 1.73792
546.543 17.2582 1.7726
543.175 17.0939 1.76748
429.205 15.2207 1.58201
527.197 17.7936 1.89285
471.609 16.5951 1.70999
527.949 17.3874 1.85243
459.194 17.4021 1.87393
485.036 16.2882 1.8286
539.278 18.3546 1.99252
524.238 18.3282 2.05362
475.69 16.9613 1.93039
500.038 17.4944 1.98375
429.638 17.131 1.98718
462.153 16.2743 1.94778
424.049 15.5962 1.86657
403.271 17.492 2.16017
404.685 17.021 2.11184
376.101 16.6466 2.07523
414.572 15.8402 1.97441
378.947 17.599 2.28108
476.646 17.3044 2.23065
462.112 17.2753 2.28082
370.448 18.7706 2.3866
361.45 17.8225 2.38967
454.552 15.4047 2.04621
370.961 17.1063 2.26302
380.894 16.3206 2.20664
308.504 17.0614 2.35454
316.97 19.1384 2.63647
383.581 16.4261 2.3554
337.882 16.4834 2.33476
323.927 18.7883 2.77177
345.641 17.0432 2.49489
345.501 15.8894 2.43812
335.98 18.5642 2.792
319.83 16.0119 2.46077
345.947 17.6022 2.75715
386.473 18.4036 2.87195
284.55 16.8641 2.63535
336.274 16.8458 2.69073
325.634 17.6099 2.83886
344.637 16.5856 2.73598
361.678 18.7575 3.01404
397.698 17.265 2.93126
299.902 16.3 2.7618
271.16 15.7278 2.63292
314.552 17.2613 2.90583
344.001 18.1591 3.12217
284.501 18.3115 3.12892
348.159 17.8127 3.12238
282.733 15.8631 2.8115
289.773 16.553 3.01461
270.739 15.2714 2.84468
343.399 16.2045 3.01167
260.975 18.5831 3.36469
261.276 16.9653 3.20034
286.505 18.2923 3.37311
267.305 16.6594 3.14918
252.659 18.5556 3.54743
311.573 19.574 3.79736
281.16 17.8068 3.47441
260.215 18.6782 3.65574
285.23 17.4163 3.51651
288.492 16.8847 3.43802
237.998 16.3371 3.26844
247.393 15.7946 3.36761
241.31 16.7305 3.45417
280.78 19.3374 3.99245
266.879 17.2727 3.63395
270.731 18.9237 4.05486
254.897 17.4884 3.73551
237.211 18.5422 4.11211
254.281 17.2445 3.74137
247.535 17.2553 3.82802
231.237 17.6325 3.93687
261.103 17.9036 4.03555
227.583 17.6326 3.96105
265.461 19.4247 4.50785
256.236 17.9029 4.21704
272.981 18.4308 4.27737
261.543 15.6837 3.75548
245.243 18.3493 4.40702
237.124 17.4634 4.26575
226.946 16.6544 4.0165
227.017 17.9519 4.36197
217.702 17.8734 4.44705
203.562 17.6041 4.37898
215.774 15.8169 4.05551
205.948 16.8002 4.31723
222.495 16.7411 4.22272
210.57 17.9161 4.6595
196.349 17.7223 4.56521
198.778 17.7123 4.71291
202.056 17.2401 4.49107
218.342 16.8897 4.45806
197.693 16.5843 4.46575
177.881 16.5946 4.47125
204.115 19.1305 5.28378
192.126 16.7313 4.55979
190.384 18.2292 5.02726
169.574 17.8601 4.84689
185.702 17.4513 4.91189
186.441 17.3329 4.93044
192.302 19.916 5.6658
174.796 17.6173 4.99675
197.566 18.0648 5.28104
172.323 15.8827 4.6704
183.813 16.7057 4.93676
175.58 17.0596 5.08523
175.59 17.8125 5.32371
180.606 17.2153 5.20235
156.868 16.6771 5.13617
180.166 17.6983 5.44054
182.791 18.3324 5.78295
179.202 21.0093 6.49724
160.899 15.9973 5.12767
180.503 15.7763 5.02066
155.116 17.1081 5.33205
138.011 16.9145 5.32427
161.148 18.6476 6.04029
159.235 17.6492 5.76934
158.2 18.0772 5.99377
192.391 16.3405 5.29053
193.84 17.2655 5.69763
131.405 17.2422 5.80292
170.56 17.0036 5.72621
158.971 16.4259 5.71014
159.122 18.6994 6.3248
150.176 17.4513 6.03415
153.074 16.6724 5.94983
154.008 17.2962 6.03855
158.28 15.1197 5.1218
136.815 17.4195 6.08521
168.644 18.968 6.80977
142.373 19.1098 6.84708
145.307 17.5917 6.38255
135.072 16.0421 5.85662
150.278 16.8987 6.15141
141.434 17.6348 6.4262
130.393 17.2184 6.60411
126.612 17.3852 6.50848
109.643 17.2667 6.61311
103.85 17.6455 6.67764
157.907 18.0058 6.94904
113.26 18.6227 7.31551
107.718 18.493 6.87053
124.635 18.4361 6.98893
110.63 18.5325 7.33227
132.423 18.4902 7.14819
131.809 16.7905 6.65469
124.136 17.3166 7.03349
132.156 17.041 6.44676
136.734 20.6969 8.49151
122.547 16.9358 7.11868
127.077 18.2548 7.44317
141.046 17.7676 7.27546
115.318 16.9074 7.2412
141.008 18.9726 7.80852
116.861 18.8519 8.04984
132.81 18.4741 7.54999
116.642 17.284 7.40053
122.455 19.0682 8.21441
120.996 18.0048 7.69351
110.056 19.2336 8.25443
104.905 18.0807 7.91514
146.953 17.6355 7.84273
140.436 19.5556 8.75393
116.917 17.0237 7.54683
106.678 17.6427 7.85367
104.989 18.042 8.10743
106.887 17.3428 7.96444
100.738 16.3738 7.51676
110.621 17.9092 8.27308
112.01 17.0934 8.06709
103.238 18.562 8.82539
123.239 17.1023 7.78837
108.497 17.2101 8.31141
104.157 17.5619 8.4079
129.614 18.3139 8.6985
114.643 16.4923 8.21909
107.525 18.4137 8.52599
112.695 18.147 8.99819
110.045 18.814 8.86216
109.378 18.9588 9.74665
104.648 17.6756 8.9017
91.3632 16.9176 8.33851
103.532 18.9765 9.20119
93.932 18.5264 9.38891
89.7611 17.4149 8.82388
95.7341 19.3408 9.50097
90.8876 17.5805 8.93319
107.536 17.7443 9.25286
81.9083 17.3476 8.96967
95.3903 17.9288 9.30976
104.875 20.1375 10.3421
107.736 18.0869 9.82414
82.7716 16.506 8.70477
88.8176 17.2899 9.15372
91.146 17.9012 9.40181
96.5057 18.5555 9.94593
91.1311 16.8505 9.07724
104.827 18.6964 9.9411
103.196 17.4788 9.6202
91.9791 15.9992 9.00919
98.878 19.407 11.0726
101.743 17.9581 9.7798
101.22 19.4097 10.7279
102.129 19.0664 10.8301
91.3328 16.6409 9.34415
108.901 18.5568 10.6235
100.019 18.0719 10.0967
118.193 19.7879 11.3593
96.0264 17.8551 10.4143
96.7434 17.8748 10.4275
101.244 19.1777 11.32
99.422 17.5463 10.213
95.9186 18.6847 10.9132
82.3894 17.0695 10.0766
101.662 17.2151 10.3381
98.8596 16.6881 10.0313
90.7068 17.9829 10.5439
80.8347 17.9153 10.7009
89.46 16.8236 9.99434
94.6147 19.2491 11.812
82.9092 17.4127 10.6579
79.0336 16.8938 10.1714
79.6385 17.6334 10.7129
86.2886 20.3016 12.4763
83.0797 17.5361 11.0242
91.6335 17.5696 11.0161
67.4264 19.4439 12.047
87.3817 19.8999 12.9367
83.088 19.6652 12.5545
83.3998 16.6219 10.5664
74.395 20.3617 12.8723
81.172 17.6246 11.6854
84.3905 21.4099 13.3448
79.0273 17.3308 11.1473
86.374 17.5293 11.6529
79.3653 16.7025 11.1457
71.7717 17.3852 11.338
84.3074 17.6705 12.0265
82.6335 17.2237 11.4402
71.1324 17.6128 11.9136
76.4121 17.436 12.0428
96.4599 17.84 12.0955
80.6957 18.6647 12.9014
88.6734 19.3512 13.1641
72.6307 17.6999 12.2481
79.2069 17.2489 12.1543
66.6333 18.7511 13.5332
81.6302 16.2986 11.1673
69.5168 17.6765 12.051
76.0777 18.5364 13.5817
75.5577 17.8993 12.9146
88.5816 17.2171 11.8135
81.9306 18.0071 12.9706
64.0474 16.5599 11.6316
76.1075 19.1552 13.9271
85.3156 17.951 12.7048
70.8897 17.9244 12.8106
69.6189 18.7428 14.1329
78.5894 19.2415 14.1531
74.8982 18.1968 13.4069
73.6302 15.8356 11.9094
66.8407 17.0756 12.6362
72.3639 17.654 13.3938
73.698 16.4 12.6525
69.0095 17.6821 13.3866
84.4954 17.7111 13.6401
68.5778 17.1286 13.1917
63.8992 19.2834 15.0158
68.2902 18.1639 13.7781
68.0111 18.1665 14.0901
65.1177 18.5729 14.3502
65.4162 17.3824 13.5261
60.8416 18.5382 14.8231
66.4176 18.6005 14.1792
62.0655 17.5091 14.1615
60.7641 17.4095 13.6496
69.56 17.6661 13.9081
59.1206 18.577 15.084
59.7766 19.3894 15.2762
63.8948 19.3074 15.6032
65.7734 18.0204 14.6249
63.3345 17.5214 14.4066
54.9647 18.6624 16.2451
64.2783 16.0849 13.1887
68.099 18.8807 14.9824
70.3979 20.6552 16.6894
64.7985 18.0411 15.2333
62.2 17.1342 13.9783
57.8571 16.0923 14.1735
62.9146 15.7923 13.4728
60.3742 14.9157 12.5407
66.0975 17.7559 15.7423
68.8769 18.5121 15.2698
71.6126 19.3597 17.0984
66.6411 19.4854 16.8956
66.4943 18.4091 15.7221
59.5332 17.8163 15.7977
68.9678 17.0085 15.2015
61.8533 19.7855 17.4
58.2014 17.3739 15.5673
57.6529 17.9319 16.0582
54.4741 19.7373 16.9636
59.1751 17.32 14.7551
54.7059 17.8672 16.0139
71.2668 18.5895 17.1556
66.6841 19.4654 17.117
54.0485 19.195 17.4873
54.311 19.4301 17.7739
73.6786 17.9882 16.5553
56.7232 19.2046 16.7948
57.5081 18.8588 17.1357
47.0224 17.5397 16.0378
48.136 17.5291 16.6649
68.6244 17.7176 16.7296
54.1474 19.1332 17.8119
51.427 16.5759 16.158
55.2539 18.3818 17.109
55.35 16.218 14.9903
52.2008 17.288 16.2667
49.0465 17.1741 16.2145
55.9661 18.3669 17.5078
63.0767 17.1567 16.724
46.771 17.2004 16.8492
57.5673 17.7065 17.4403
55.1716 18.0316 17.5519
55.345 19.22 17.9441
53.2186 18.5623 18.0777
55.7328 18.3495 17.6331
50.3616 17.1443 17.473
52.7439 18.5923 18.0307
53.9561 16.3215 16.5334
58.2263 18.478 18.6292
45.0607 17.4779 16.816
53.4426 17.9954 18.8165
59.6518 17.3396 17.5726
49.9042 17.7003 18.0693
55.6933 16.6108 16.5694
55.035 16.3113 16.2417
48.7913 16.1372 16.5372
54.4042 18.5177 19.5852
49.8761 18.3634 18.0453
52.9475 17.2957 18.2465
47.1274 18.4059 19.6629
55.7788 17.623 18.6307
52.4799 16.3482 16.5444
51.0361 18.2552 19.2689
55.641 18.8643 19.7847
54.0343 16.5288 17.8606
48.0406 16.019 17.5502
55.105 17.7702 19.3551
51.3641 19.0139 19.9237
55.6433 18.1704 19.4482
51.0591 18.7516 20.8729
52.0045 18.9434 20.5513
49.0796 18.9098 20.1714
46.0327 17.9822 19.5122
48.2046 17.3546 19.5567
49.4565 19.0569 20.967
44.8009 17.4254 19.1996
45.606 18.3385 20.186
46.9628 15.8498 17.834
50.5695 16.9483 18.8662
45.2236 18.1877 20.2102
55.0866 17.4458 18.8496
50.4774 18.8111 21.0253
48.3459 18.4737 20.9446
50.1522 18.0149 21.2588
45.1347 17.8871 20.303
50.3845 17.8332 19.9863
46.0966 16.4713 19.0146
44.6734 18.0368 19.7859
45.1115 17.5143 20.8515
47.041 16.2672 18.6019
53.1323 17.8082 20.3178
44.4893 18.2042 21.0042
42.2926 15.9452 18.7911
44.9389 15.9225 18.3934
46.4654 14.7654 17.6937
45.2864 17.9053 20.8141
47.121 15.9759 19.0355
44.7459 16.8393 20.4437
47.7985 17.5651 20.7266
41.2154 16.709 20.2099
43.3582 17.89 20.6022
43.8926 17.7061 20.9201
40.8074 17.0525 21.8487
44.901 16.346 19.7225
43.8193 18.0986 22.0635
47.4214 18.358 22.9628
48.619 16.9268 21.2168
40.3684 16.3752 20.6388
49.1233 17.82 21.799
43.6354 16.4401 20.1559
40.3015 15.5519 19.4705
43.1866 17.7731 22.6116
37.7805 16.3315 20.5118
42.0102 16.9876 21.147
46.2054 17.2612 21.9919
46.6518 16.5582 20.9636
39.4104 17.9854 21.255
46.1242 17.3289 21.0837
37.7404 16.0628 20.8249
33.3743 14.9688 19.8779
46.4284 18.0406 22.7026
37.882 17.1428 22.1409
34.7168 18.6661 24.0127
48.1709 17.9466 22.1437
44.0261 16.2094 21.0813
34.1823 17.174 23.6611
47.31 17.8907 23.1951
43.9465 17.7633 23.1241
42.4759 18.9587 24.4807
36.9169 17.2046 23.0496
43.8297 16.7684 22.2755
41.3214 17.6842 23.7403
46.8374 18.1132 23.8424
38.7261 16.1449 22.0309
44.7464 18.4617 25.4186
41.5211 20.2932 26.7736
41.8809 17.9494 24.2642
39.2242 17.8884 23.2866
40.7033 17.6392 23.8554
39.4607 17.533 24.5596
37.7406 16.151 21.8303
35.2648 17.7679 24.2626
29.8459 18.4915 25.0364
29.5088 15.1766 21.4691
54.7321 17.4045 23.3072
31.8059 18.1428 24.4154
32.9368 18.6208 26.9143
40.6712 17.4827 23.7577
33.6734 16.9146 24.0895
39.463 18.388 27.172
38.7741 16.5003 22.7318
36.6273 17.2977 23.5299
36.3635 15.9664 22.499
37.2607 17.2739 24.0522
33.174 17.5975 24.1515
36.9114 16.8819 24.4082
36.0207 17.7272 26.0451
30.8398 16.955 25.0445
34.9881 16.9651 23.1648
34.7856 17.1885 23.6065
36.2554 14.1859 19.7979
32.7233 15.5223 23.6156
35.3109 15.2961 22.2794
31.3401 16.7255 25.4665
30.4873 17.6339 24.3147
31.9319 17.3104 26.1381
37.985 17.5492 25.3909
34.6452 14.0855 20.8406
35.0539 15.8014 24.1779
31.7416 15.4575 23.5789
31.329 16.7418 25.3761
29.8041 15.9922 24.3
35.0374 17.0583 25.3279
37.9264 16.8966 24.2049
31.5624 16.0451 24.402
25.2375 16.716 24.6789
35.3939 16.1178 24.2939
32.6321 16.5763 25.7254
35.7855 17.0874 25.2673
34.0299 17.0146 26.9826
37.9693 17.4047 26.3368
31.6377 15.7245 24.1867
31.6524 16.5157 25.4538
32.2465 18.3033 27.9276
31.9125 16.4608 24.2531
29.3324 14.434 22.507
30.2345 16.1002 26.2576
35.5975 17.4304 25.9906
29.1105 15.764 25.157
30.8032 17.2921 26.9839
33.3355 15.5585 23.7197
31.2033 15.3122 24.3321
32.6017 17.4724 27.6864
30.1382 17.3505 27.8025
32.4192 16.6103 25.2332
31.3667 16.4481 25.8089
36.6723 15.0394 24.7958
32.5873 17.5376 27.391
28.7342 15.5636 25.0285
31.2976 15.6619 26.4144
32.4789 16.1999 24.5885
28.2164 14.9207 25.1045
31.1052 15.7346 25.18
32.0485 16.692 27.8147
32.6243 17.6533 27.6405
31.8947 15.6715 25.7466
33.9903 15.2739 24.4888
29.03 16.2133 27.6626
32.2173 16.2638 27.9871
30.2276 16.2237 25.8236
32.8875 16.9342 26.8779
31.6838 15.9088 27.3688
31.6699 16.3784 26.0845
33.6215 15.9104 27.1264
35.9316 15.5364 25.7298
30.1943 15.873 25.9763
33.4819 16.6416 28.7955
33.4834 16.4093 28.9635
26.8675 15.4568 25.4446
32.6491 16.1352 27.2134
32.2366 15.6751 26.1897
28.7237 14.9729 25.7663
27.6479 14.9913 26.4054
30.4088 16.3691 28.4556
28.3191 14.4598 24.5432
32.1581 15.4312 28.155
27.1221 16.7801 28.2988
29.4705 16.34 28.4256
31.8146 18.071 29.8071
29.2722 15.814 26.1797
28.9957 15.6424 28.1496
28.4453 16.4344 29.7813
33.1321 15.5262 27.2588
30.279 16.625 28.7374
27.7519 15.2463 25.8482
28.341 17.017 31.3925
32.6809 15.0395 25.3005
26.4575 15.7899 27.6094
27.1854 16.0782 28.6109
29.601 15.0984 27.68
30.8929 15.3681 26.5104
26.3075 15.5383 26.3629
29.3232 15.4966 27.9245
31.1379 16.6281 30.8982
24.4778 14.4191 28.2356
31.132 15.6187 27.2099
30.0374 15.8989 28.0699
25.3099 16.0032 27.4189
30.2303 15.1719 29.2092
28.2089 15.0455 26.6615
27.77 16.0404 29.1097
25.9267 16.2376 28.6914
27.0675 15.3077 27.761
26.8346 16.7076 32.1642
28.5582 16.6471 31.384
26.3318 16.1523 28.8717
33.0274 15.9558 31.9039
33.1628 16.9416 30.8733
28.7798 15.9811 28.7354
33.5482 17.4391 31.9416
26.9996 14.4399 27.5362
26.5913 16.1044 30.1312
28.1655 16.6804 29.715
26.7702 16.0567 30.5359
24.8859 16.3235 30.8372
25.6781 14.7965 28.3924
26.1588 15.2253 29.7809
28.5916 15.842 29.1964
27.3614 15.82 31.3024
25.8485 15.0358 29.3632
27.5233 15.1846 29.3313
26.2724 16.1177 30.0433
28.0591 15.8777 29.2454
25.7975 15.7608 30.4901
26.3485 15.4599 29.4789
28.1282 16.952 33.6517
27.2452 16.2167 32.3126
24.8781 15.9224 30.6972
26.8718 14.3911 26.3973
23.6844 15.9133 32.2947
27.6739 15.4467 30.7839
26.8021 16.5642 32.2897
22.4979 15.1962 28.5662
23.729 15.1311 30.1213
26.5909 15.5255 29.4971
27.2821 14.0308 29.8119
27.9884 15.9468 32.1691
22.6992 15.4073 30.2942
28.0536 16.4965 31.1821
25.0273 15.3496 32.0576
25.0441 14.315 27.3775
27.8462 16.2828 32.9131
21.5008 15.3619 30.2244
25.4434 14.2006 28.2689
23.8622 14.0309 29.2435
25.8132 15.1129 30.3988
25.3329 14.9614 30.2965
24.0839 17.436 34.0538
29.8928 14.6413 30.8391
25.648 14.9818 31.04
25.4604 14.7595 28.6274
24.6759 14.2154 30.7931
30.3921 16.1316 31.7814
26.0395 15.6581 31.8431
24.0677 15.2583 31.5464
20.7793 14.8447 32.064
23.9746 14.072 29.0897
27.525 14.8392 31.337
24.8743 15.9464 32.6289
27.9611 15.0209 29.281
24.7235 15.3049 32.8554
23.0993 15.0094 30.5044
24.2123 15.7063 32.4283
29.7185 14.7462 31.3631
22.0123 15.9509 32.6873
23.8004 17.0826 35.8922
21.4578 14.2429 31.6373
22.164 14.4754 32.3666
22.1981 15.2794 31.0103
23.5479 14.8473 31.0757
21.3077 14.93 32.2633
19.9006 14.3059 31.7899
23.4917 15.5727 32.6504
22.4982 15.0314 30.4135
23.304 15.175 33.9619
24.4388 14.0905 30.3906
24.5351 16.2462 34.483
20.3211 15.675 34.4371
21.9743 14.0383 28.5338
22.5142 16.7956 35.1398
23.9584 15.1007 33.4504
21.4898 13.0236 30.0003
22.3398 16.2275 34.5082
23.8537 14.6679 31.7662
21.6282 14.103 31.0301
22.4973 13.6657 29.714
24.8077 16.252 34.343
19.8197 14.4614 32.5301
26.0204 13.8575 31.1397
23.5563 15.3945 35.4199
22.1954 16.3788 34.2648
22.6149 14.2084 32.7741
24.6988 14.8216 31.8205
23.3647 15.6421 35.6061
22.2492 12.893 27.6789
20.8768 13.4345 31.3766
22.0166 14.7672 34.4944
20.6008 14.0116 30.6544
24.8469 13.7651 32.5714
23.2466 13.7025 28.817
22.1463 15.2735 34.4833
27.0406 13.4039 32.6132
27.3409 13.7199 29.389
22.3004 14.3927 33.47
28.3597 15.2812 32.4496
22.4392 13.5709 33.5044
28.5573 14.1572 32.2822
21.2023 14.2718 31.6017
21.3445 14.4823 33.2901
22.8698 13.3 29.3571
21.4288 14.4088 34.9232
22.1642 13.8008 32.124
23.5928 15.2643 34.9491
20.6548 14.7404 32.6736
22.2188 14.7178 35.5904
19.5056 12.916 32.4727
20.3141 13.7896 31.5271
22.6554 13.4791 31.032
20.6064 12.6181 30.0858
20.5888 14.1511 33.4156
22.1949 15.944 39.7505
24.2459 14.2682 32.1325
19.8493 13.7662 30.8379
20.391 13.7398 32.3988
21.6098 15.2171 34.0673
19.9198 13.9852 34.3534
18.2883 13.9035 32.9904
20.9474 14.3037 34.8028
25.2111 13.8746 32.0931
19.5058 13.0229 31.6164
22.5166 14.696 35.7299
20.1583 14.1325 35.4984
24.578 13.1975 31.4476
20.304 15.3962 37.2803
21.3607 13.0866 30.5573
22.7488 15.1558 35.7256
21.1072 12.7233 32.0958
20.0293 13.948 32.9238
22.4905 13.5484 33.4179
18.8212 14.6282 33.464
18.7014 13.5831 33.6146
23.6495 13.4345 31.5097
20.3059 13.3153 32.1873
20.5669 13.7212 34.1489
21.6568 13.591 33.8338
20.6798 14.4287 37.5034
24.9964 13.8644 33.5821
21.7753 14.5211 33.9118
19.5753 13.8603 33.2261
19.9649 14.1168 36.1632
