# pn-170911/RbIIR-60-RbII-1280-1959.psd
# Power spectrum* (dif=0,1,2) (really just |FT|^2)
# NOTE: only the first half! (symmetric)
# weeks: 1280-1959
# 332 clock-days, 2 excluded
# PSD: 1441
68440.7 1.17547 0.024725
2.09121e+06 52.6773 0.0389976
2.75592e+06 47.5158 0.0441188
815717 16.1825 0.0408127
518461 15.0165 0.0449773
334293 9.79996 0.0391297
229911 9.4101 0.0430254
162328 8.85515 0.0400788
135751 10.5429 0.0494004
105572 9.366 0.0492025
73413.4 7.40305 0.0489269
76348 8.17617 0.045733
52303 8.30443 0.0512219
53269.3 7.72897 0.0501878
41866.4 7.72492 0.0552403
41865.2 7.94893 0.0446151
30778.4 6.67354 0.0519804
30597.7 7.2889 0.0559511
27922.8 6.63263 0.0587886
24184.9 6.40723 0.0543362
15865.9 5.9643 0.0557237
25386.2 6.96702 0.0548551
20669.1 6.73083 0.0652541
14837.2 5.80334 0.057224
13385.1 5.5634 0.0572304
12204.1 5.8318 0.0595507
10506.3 6.8751 0.0748919
11033.4 5.41691 0.0585854
10264.3 6.1667 0.0660077
9442.58 6.66524 0.0714383
7720.67 6.05758 0.0695744
8446.06 6.2701 0.0691489
8080.11 7.02464 0.072473
6663.11 6.6246 0.0756046
7494.66 6.3688 0.0784507
6643.55 6.34476 0.0741897
5979.24 5.93564 0.0761683
6074.75 6.57307 0.0812845
5459.47 7.13514 0.0864267
5555.5 6.42134 0.0935573
4858.17 6.07967 0.0904694
4240.22 6.8438 0.0867239
4541.89 7.03688 0.099829
3944.17 6.45555 0.114308
3752.29 7.01413 0.110808
3730.58 6.57922 0.102264
3947.37 6.53572 0.0966628
4042.02 7.83586 0.139148
3073.8 7.09371 0.130817
3320.04 6.80077 0.121189
3396.38 6.23039 0.120862
3337.92 6.7924 0.123521
2828.82 7.46618 0.142788
2911.14 7.44434 0.152391
2788.94 7.10057 0.13633
2932.64 6.19906 0.12335
2752.51 6.91266 0.157397
2986.54 6.72998 0.156164
2849.11 8.3055 0.174265
2486.44 7.42295 0.17034
2544.25 7.97669 0.178064
2558.83 7.11768 0.166626
2438.83 6.9568 0.185508
2476.96 7.19148 0.191954
2433 8.36149 0.217056
2300.38 7.42516 0.207297
2075.68 8.19845 0.248214
2469.83 8.90518 0.243629
2050.07 8.50524 0.259742
1972.54 7.89322 0.220857
1886.42 9.2751 0.279902
1818.44 8.06734 0.262004
1716.22 8.38215 0.277138
1513.21 8.28807 0.279362
1668.89 8.59293 0.263534
1748.94 8.69453 0.287583
1649.56 9.45893 0.31197
1601.72 8.21477 0.293608
1479.11 7.90906 0.293984
1484.46 9.49862 0.35591
1348.8 8.5206 0.342853
1264.8 9.0196 0.338904
1355.07 9.5772 0.409407
1176.47 8.63211 0.368068
1256.36 9.45978 0.36726
1390.52 9.66469 0.371482
1023.71 9.97298 0.417245
1136.84 9.37389 0.423281
1097.49 9.15994 0.405038
1097.11 9.74602 0.423895
916.804 10.4771 0.467309
1214.12 9.77948 0.469669
1131.91 11.4807 0.509966
1013.61 9.80498 0.436609
1089.13 9.01144 0.442109
1115.04 11.1978 0.565054
931.493 9.64408 0.470206
1099.68 10.8101 0.532304
1012.86 10.8551 0.549603
839.691 11.4193 0.592782
868.862 10.8716 0.568862
1147.6 10.8881 0.618945
960.202 10.3261 0.551587
987.792 10.6585 0.567392
909.666 11.5797 0.640636
957.291 11.168 0.632352
723.732 10.3496 0.585299
948.803 11.0276 0.638893
786.286 10.9388 0.640623
857.519 11.1537 0.686803
714.95 11.7332 0.730152
831.392 11.726 0.719732
821.084 11.2246 0.724033
631.889 12.2407 0.791722
756.358 10.8237 0.70257
786.161 11.1685 0.756809
589.238 12.3781 0.860428
596.653 11.5849 0.789632
681.869 12.2581 0.844848
614.314 10.8384 0.743743
743.346 11.4069 0.811519
544.231 12.226 0.887421
645.984 10.9999 0.818683
805.682 12.4606 0.941972
688.881 13.2923 0.988879
641.581 12.7136 0.962474
635.245 13.0998 0.995111
549.892 12.314 0.972173
556.829 11.665 0.954564
533.078 12.7576 1.05054
550.824 11.9281 0.997432
573.072 12.8726 1.09994
514.513 13.3264 1.21205
561.361 11.5263 1.0418
559.391 12.2726 1.07427
574.409 12.5248 1.11701
547.727 12.6698 1.17706
516.965 14.2277 1.31905
485.623 12.7846 1.16154
541.758 13.3882 1.22413
523.08 12.7679 1.25254
520.902 12.2621 1.20784
465.017 13.471 1.35218
505.648 12.1378 1.21313
521.857 14.18 1.44269
492.292 14.2289 1.44292
418.632 12.6911 1.33887
472.76 13.4176 1.45456
456.393 13.8864 1.47916
455.36 13.3821 1.46492
450.497 13.9793 1.54924
422.588 13.8172 1.56042
453.238 13.1849 1.48994
492.49 15.5585 1.75551
413.682 13.58 1.58086
428.022 15.6974 1.79093
388.81 14.2729 1.65427
449.45 13.7984 1.64511
403.471 15.4386 1.8224
372.478 13.4601 1.72852
376.938 14.4427 1.80995
371.048 14.8115 1.89843
378.682 13.2972 1.64434
392.292 15.5157 2.04101
438.016 14.512 1.88688
427.584 12.9901 1.6678
369.292 16.8744 2.19112
316.783 14.598 1.96265
451.375 14.4666 1.93015
336.657 14.5244 1.98545
361.574 14.9515 2.02017
288.504 15.7964 2.26603
304.024 16.761 2.29732
389.688 15.6331 2.27052
325.211 14.0893 1.98428
272.658 14.6896 2.13755
326.895 14.5083 2.14818
339.387 13.9994 2.15939
317.561 14.6136 2.20073
297.45 14.6104 2.25913
328.266 16.1124 2.47915
384.489 14.5487 2.34645
285.497 14.3614 2.28347
342.839 15.8002 2.51879
327.171 15.0075 2.45294
346.887 15.0034 2.44195
317.336 15.2491 2.50126
366.724 15.2274 2.58081
311.241 16.6328 2.8173
262.988 16.0705 2.70755
285.829 13.1417 2.2621
321.127 15.7594 2.68759
284.13 15.9785 2.80381
330.314 16.648 2.89789
287.094 15.2666 2.73393
276.295 15.9042 2.81908
280.404 12.8822 2.27159
331.225 15.9149 2.92332
245.467 15.7543 2.92867
264.378 15.9989 2.99541
277.75 16.2501 3.03307
266.49 16.2749 3.18441
225.112 16.3006 3.13967
305.088 16.9775 3.40318
258.327 16.1993 3.14047
239.096 15.7362 3.11762
276.445 16.267 3.3078
261.569 14.5847 2.89331
243.915 16.9919 3.43969
267.648 15.9798 3.28025
241.686 17.6503 3.64772
267.599 16.2318 3.39587
256.554 16.2228 3.34339
265.464 16.882 3.63745
247.01 15.8186 3.36898
226.838 17.8995 3.90132
259.511 17.3569 3.88216
257.714 16.7551 3.62095
226.792 16.3333 3.73572
247.688 16.4495 3.72659
232.185 16.2395 3.68067
266.043 15.937 3.66277
219.961 16.1127 3.78826
241.103 16.866 3.86896
253.1 16.7474 3.97535
226.967 16.7651 4.10961
216.477 15.9666 3.74319
216.315 15.837 3.8746
215.151 16.5958 4.20207
212.668 17.4028 4.20969
221.73 16.5249 4.20013
210.5 17.5671 4.52342
218.684 17.7723 4.45629
218.256 17.0513 4.29311
198.727 16.2919 4.2441
214.404 16.1222 4.28329
178.354 14.6377 3.76853
206.248 15.9591 4.20205
215.999 16.4942 4.49977
205.546 17.6421 4.72064
177.051 16.0138 4.39494
201.84 15.3432 4.10248
180.817 16.5911 4.63495
191.639 18.4813 5.12459
172.843 18.8109 5.14944
195.213 16.2622 4.61429
191.156 17.7655 5.1371
170.261 16.8332 4.7357
189.697 16.9549 4.91228
192.965 18.2843 5.34331
180.79 17.839 5.21198
186.119 17.3 5.14232
186.624 19.9247 5.91924
157.27 17.4493 5.29759
191.601 18.0979 5.42256
158.116 17.1333 5.20597
187.294 16.5249 5.04569
173.874 17.4975 5.42704
176.903 18.6607 5.82309
159.553 17.6393 5.54247
174.02 19.798 6.29173
168.549 16.9854 5.38656
143.061 16.8017 5.399
162.333 18.0443 5.85906
161.785 20.0199 6.43623
148.807 18.1452 5.98106
196.794 19.9092 6.38938
192.063 19.07 6.29751
142.379 19.5234 6.62444
176.028 15.435 5.20409
174.107 17.1539 5.903
150.731 19.4448 6.7261
149.919 18.1368 6.22612
158.016 16.7928 5.78841
144.591 17.3702 6.20706
159.826 16.0124 5.60539
143.196 17.5925 6.22761
164.652 18.1091 6.3501
140.893 18.1949 6.59245
146.982 16.9363 6.09515
132.943 16.3282 6.21138
149.136 18.5598 6.96614
143.043 16.8983 6.07995
134.937 17.8615 6.62585
128.563 17.1753 6.56915
101.689 16.1947 5.90741
103.069 17.2567 6.62475
153.021 16.5484 6.38677
117.952 17.6971 6.91385
103.736 17.2841 6.69315
124.381 18.5638 7.06802
114.43 18.1205 7.12591
121.665 19.8146 7.74448
134.765 17.8602 7.06373
124.301 18.4769 7.40453
128.433 18.6765 7.45921
136.637 19.0157 7.71537
125.686 17.2928 7.19585
111.855 16.8015 6.83316
140.361 19.4644 7.9201
114.278 18.385 7.62792
134.796 17.4302 7.36593
112.785 17.26 7.41512
126.031 17.6996 7.31623
131.854 21.1774 8.91887
127.498 16.7858 7.01451
131.449 18.0837 7.78882
109.379 16.6786 7.3602
112.466 18.6064 8.10076
153.75 18.5262 8.10452
138.896 17.6422 7.61948
117.913 17.2688 7.69313
108.458 18.7203 8.22747
108.26 17.8163 8.21631
106.425 19.3694 8.49379
112.989 18.3258 8.30083
114.439 19.5417 9.09375
111.8 18.7555 8.85643
105.984 17.97 8.46209
122.239 19.9401 9.25665
110.543 18.114 8.5217
106.07 18.1893 8.60948
128.806 18.932 8.94774
103.391 18.6367 9.41905
112.807 19.4219 9.09768
112.776 18.4781 9.0329
99.6212 18.2294 8.74454
110.276 19.5406 9.60016
111.266 21.3111 10.4867
98.5699 17.9769 8.89858
106.498 18.4531 9.15086
96.1377 18.9215 9.71609
95.8026 19.084 9.18341
96.9284 18.9615 9.80727
87.8751 17.9806 9.28242
105.137 17.3834 9.08573
82.5396 19.4887 10.0619
86.1119 17.0502 8.58436
105.812 20.2031 10.8065
111.499 18.6356 9.79585
89.6171 18.0639 9.38344
95.9384 18.7777 10.1085
95.9601 19.1444 10.4289
105.422 20.7001 10.8387
89.6219 17.9916 9.4757
101.618 16.8967 9.14662
110.891 18.3094 9.98746
90.517 17.4805 9.43848
99.5655 19.9418 11.3093
101.353 15.7038 8.56395
106.837 18.5745 10.6453
106.707 19.6376 10.9527
93.9565 17.9472 10.089
111.337 18.4595 10.544
95.9539 16.9598 9.70615
121.936 20.9438 12.0002
93.7798 18.1833 10.7093
104.342 17.1421 9.74403
102.806 18.2952 10.5176
95.8788 17.4635 10.4447
95.854 17.5142 10.147
87.9664 19.7379 11.4542
100.773 20.141 11.9032
95.9352 18.7049 11.3113
88.5069 18.1943 10.9111
85.5268 18.0798 10.5542
90.203 18.7661 11.7326
87.661 17.1368 10.284
89.7514 19.6553 11.7851
81.4356 18.8669 11.61
78.5371 17.3435 10.7009
77.8007 18.5567 11.9188
85.6529 17.1381 10.8718
92.5848 19.0156 11.8824
73.9152 17.8475 11.4258
81.6583 19.6476 12.6155
79.8606 19.8491 12.1104
76.7592 17.647 11.4471
71.6121 17.357 11.591
93.6878 19.3058 12.1128
76.8832 20.7651 13.1744
77.2505 18.6434 11.8488
81.9326 18.2691 12.078
82.0437 17.84 11.6023
68.0919 18.0659 12.1895
91.7351 19.0284 12.7708
86.3583 19.0918 12.5482
67.0951 18.4242 12.6628
78.1864 17.7006 11.833
93.1918 18.4851 12.6658
80.2272 19.4869 13.3413
82.3415 19.1908 13.0763
81.1285 17.8183 12.1919
79.914 17.0266 12.0768
70.7755 18.8838 13.1318
80.2766 18.0989 12.7045
72.0744 17.5326 12.3212
83.7716 19.1962 13.9504
74.5813 19.0379 13.1085
82.6009 18.7858 13.6546
80.0129 18.1465 13.1045
64.8141 18.69 13.4263
72.8793 18.8972 14.0872
86.3491 18.6814 13.1112
63.6631 18.1058 13.2671
64.9545 17.188 12.7005
79.2539 19.0119 14.0877
72.0225 17.3549 12.9912
78.1066 19.4166 14.2627
70.9149 18.6887 13.9722
74.1331 17.8595 13.2989
77.443 16.796 12.8484
64.8073 18.4385 13.8023
78.0277 18.0441 13.8453
69.6603 16.9756 12.641
64.2591 18.3083 14.6295
67.4159 17.7991 13.6555
68.7176 18.0075 13.9532
66.2561 16.6751 12.9172
65.3629 18.7981 14.6819
61.7126 20.2002 15.1333
64.6099 18.9635 15.3021
58.9847 17.9614 14.5723
62.7976 18.2382 14.6961
64.0683 17.6992 13.8319
62.4645 18.2485 14.3383
56.3488 19.03 15.5478
59.5548 17.135 13.802
71.1001 19.1658 15.6563
68.7747 17.3589 14.3544
55.6035 18.9248 15.3951
63.7864 18.0421 14.7906
66.3384 20.2433 16.693
62.7219 17.4668 14.3803
61.8982 17.7798 15.0429
72.973 19.2363 15.8834
60.3504 17.952 15.3036
61.636 17.0861 14.0379
63.6853 18.3909 15.5426
64.4621 18.7113 16.8383
67.5706 16.7987 13.5764
72.3911 17.5638 15.0095
66.253 18.7182 16.4751
65.4078 17.7181 15.6146
62.7198 19.8819 16.6352
64.0823 16.7758 15.2348
63.2902 20.2893 17.3095
57.3389 17.9753 16.337
59.8761 18.4663 16.3234
55.0671 18.9814 16.9251
58.7668 17.5703 15.0171
56.235 17.1013 15.4306
75.9572 19.1732 17.0594
67.3 18.5794 16.6532
53.8759 19.5842 17.4458
55.1254 18.1305 16.4525
70.4712 18.5845 17.5649
53.412 18.4292 17.0161
59.0311 18.9508 17.6714
51.4165 17.4337 15.0075
48.5491 19.0886 18.2324
68.0069 18.4123 17.1645
51.7041 17.9869 17.2319
53.7329 17.5589 15.9673
51.6109 17.8029 16.3888
52.6682 17.2782 15.7013
54.1784 17.6404 17.2125
54.4274 17.1128 16.0587
53.8261 18.2538 17.1771
63.6121 17.909 17.3015
47.2032 16.6952 16.2028
57.5698 18.7974 18.7163
56.0373 18.9885 18.1785
57.099 17.7419 16.9711
55.2045 17.5455 17.4879
57.0385 17.4185 16.9688
53.8987 17.7206 16.5669
52.1662 19.2379 19.3283
51.2322 17.7776 18.0739
59.8235 17.5339 17.5842
46.8361 18.7563 18.5084
57.3345 17.0202 17.34
56.5384 17.7981 18.3883
46.6822 18.1848 18.5808
53.4492 17.1895 16.9343
61.0679 18.3043 18.6839
50.5347 18.7784 18.4717
51.6231 18.4791 19.4719
50.903 17.472 18.393
48.6474 17.9886 18.5434
48.1968 19.2897 18.9103
54.8667 19.6207 20.2737
50.467 15.8218 17.0801
46.3577 17.2824 18.2733
56.2225 19.83 21.1188
56.6756 17.7844 17.9696
47.6429 16.6162 18.2752
57.7136 18.2496 19.1747
53.9217 18.4335 18.9561
56.3504 17.7241 18.373
49.2808 17.0623 18.8053
51.2018 17.8923 19.2078
47.7963 17.4831 19.2001
43.049 17.3559 19.404
48.7177 18.764 21.0156
45.4604 16.6507 17.947
43.9636 15.6736 17.5558
48.6155 18.8398 19.9339
45.3869 16.4237 18.8644
46.7759 17.4265 19.4727
44.3366 16.9482 18.7831
53.9467 17.0814 18.8757
50.093 18.0185 19.6983
51.08 19.0919 22.6043
50.7175 19.4389 22.4277
45.15 18.7242 20.5981
47.7006 16.7828 19.0407
46.5803 17.663 20.4673
43.5829 17.5928 20.0997
44.3234 17.492 21.139
43.951 16.4454 19.5086
56.5772 18.0462 20.141
42.1865 16.2656 18.8335
44.5191 18.4902 21.3367
42.9584 17.4672 20.9423
48.2807 16.5697 19.5576
43.7701 17.2882 21.0683
49.4424 16.6479 19.7892
43.4722 16.8357 20.2595
51.0772 18.0516 20.3267
44.5352 18.5749 22.1244
42.8546 18.4942 22.0454
44.7682 19.4343 23.0559
43.4138 15.7712 19.4256
39.5607 14.6767 18.2877
41.9129 16.7051 20.4998
44.5062 17.7138 21.8559
50.7471 18.0046 21.8786
43.9258 18.4541 23.3041
50.9112 17.293 20.5157
45.6985 17.6534 21.8462
40.0394 15.8686 20.3716
43.1046 18.4318 23.5835
38.6715 16.3555 20.0091
42.7101 14.9666 18.9591
42.0732 17.5271 21.866
45.054 16.7368 21.126
40.4458 18.8195 23.6306
46.1112 17.4654 22.6514
40.2371 15.239 19.6218
36.3962 18.2815 22.3613
41.3041 16.2177 21.03
37.0514 16.6817 21.3274
36.0843 17.3211 22.8799
47.0673 19.505 24.3336
42.681 16.3203 21.3636
35.6912 20.1269 26.155
45.7745 17.5677 24.1069
43.9283 17.7108 22.2911
41.1319 16.3728 21.873
38.5663 16.814 22.155
40.5767 17.0234 21.8199
42.1822 18.1962 22.6946
44.9666 20.4174 27.7331
41.3001 16.8672 22.6853
37.4745 16.7949 23.0934
42.1317 18.8536 24.4411
40.9719 17.2609 24.3394
37.3441 16.9348 22.9238
38.1566 18.0439 24.005
39.8285 20.1718 28.297
36.4265 16.9597 22.7743
39.6723 18.2306 24.4866
33.8151 18.2733 26.3446
33.0393 18.8478 25.2631
53.9621 17.0767 22.577
32.2102 18.4057 25.9802
35.5991 19.872 26.335
37.0815 17.0241 24.5553
35.4734 16.9007 22.5553
38.5088 18.1106 25.3469
36.9571 15.7089 22.687
36.2977 17.5724 25.1928
38.5074 16.6081 22.5621
35.4928 17.2566 25.4368
32.0515 16.8934 23.713
35.3595 16.8445 23.6285
35.2334 16.9238 24.7065
32.2368 17.5173 25.1491
36.9558 17.7899 25.3687
33.2966 19.0222 28.2243
33.6347 16.8272 24.0145
33.2596 15.8087 23.0414
35.6419 16.4278 24.9178
34.6367 17.8333 25.2107
30.5574 16.7517 24.243
34.6878 19.2515 28.1118
37.2186 16.4246 23.5604
35.3497 15.3549 23.2307
37.1233 17.0886 25.5593
33.4128 16.5706 24.388
33.2075 17.4258 24.9786
32.4902 16.5294 25.7483
35.3796 18.3145 27.4815
37.3945 16.8413 25.0258
34.1764 16.7966 24.6143
24.7005 15.8072 23.7112
32.7161 16.4989 23.8529
29.8238 16.6028 24.5154
34.5343 15.8335 25.6405
36.9131 18.7451 29.2266
36.628 16.6153 25.104
32.7992 17.854 26.1098
30.7455 16.4237 27.4682
32.069 15.7558 24.4691
31.9199 15.5086 23.5218
30.7248 16.6444 26.2574
31.7094 17.6631 27.5803
36.5394 16.8246 27.0072
28.7733 16.3473 25.1821
29.8312 15.9085 25.6242
33.5151 17.009 25.4984
29.5556 15.8667 24.4719
31.2986 17.0629 26.3739
28.2788 16.3169 25.4858
29.4831 15.8424 24.895
29.8232 16.2523 26.9404
37.6535 16.9845 26.7897
30.9798 18.6069 29.6049
29.7193 17.2802 26.6769
31.134 16.5783 26.7114
32.4126 17.8784 29.5127
28.1801 16.0038 27.0851
32.0589 15.7944 25.3784
35.8721 18.1785 29.8397
31.3783 16.6628 26.3714
33.1995 18.5268 29.9011
34.6884 16.3661 26.3299
31.01 16.2511 28.2278
33.2952 15.9896 25.5541
27.9089 14.5411 24.0105
31.8919 16.0285 26.5586
31.0256 16.182 27.2715
32.7417 17.1983 28.6898
32.2599 16.6654 27.3695
31.3646 16.2807 26.9597
30.2808 16.8524 27.2854
32.8463 15.7519 28.166
32.3073 15.8436 28.0278
28.342 15.1952 25.8341
31.5965 16.4063 27.6813
33.4414 16.5034 28.3001
32.3882 15.9202 28.9895
27.678 15.6333 26.7624
32.6324 18.0211 30.3959
28.6811 15.7757 27.5432
31.6898 15.3534 25.8143
29.2029 15.9207 27.8008
32.0255 17.1535 28.1017
31.013 16.1475 26.3167
29.4108 15.6543 27.0095
28.7822 15.2517 28.5007
25.4057 15.0019 26.9692
33.5635 17.5078 28.9667
28.9938 16.4805 28.336
29.1378 16.4847 27.7264
28.9155 18.3658 33.2105
33.7251 16.8263 29.7039
27.1685 18.3969 32.0188
26.4929 16.7794 30.9692
31.5479 15.1247 28.5767
30.5513 16.5911 29.2352
28.3482 16.5327 29.4249
28.0299 18.9096 31.605
29.9676 16.8907 31.3032
26.5564 16.0242 27.9589
30.3834 15.1198 26.9917
30.9007 15.4286 28.5301
26.6233 15.7354 27.8342
28.8434 15.0542 27.7057
28.9523 16.2281 31.1051
27.21 16.0596 30.9418
26.0343 18.4236 32.1758
27.735 14.4765 24.8729
25.9139 15.637 30.7086
32.1347 19.1011 33.1817
26.1018 16.1831 29.9553
33.2495 14.1284 26.6094
31.3977 15.9502 30.4981
27.9816 16.2389 29.5403
32.1306 17.4828 32.8892
28.8484 14.6519 27.0456
25.8077 15.1543 27.2744
28.6744 17.4002 32.035
24.7165 15.4725 30.2317
25.7849 15.7561 29.4266
24.8376 14.5156 28.7034
27.4348 16.2196 28.8434
27.1652 15.4026 28.5482
29.5535 16.0861 30.8219
22.9188 12.262 25.5617
28.9373 14.1459 28.1644
27.3083 16.3632 32.0875
29.142 16.6524 31.6177
24.4503 15.8181 29.1441
26.5896 14.9174 29.7486
28.5463 15.0404 26.9576
24.6933 15.8698 32.5766
24.8739 14.0851 26.9567
27.4825 14.8055 29.0723
24.504 16.3772 30.005
27.3474 15.8183 30.4039
23.8133 14.7467 29.0013
21.6104 14.5031 28.3843
23.5825 13.8554 28.6773
24.2582 15.6829 30.0988
28.0275 14.8325 30.2635
24.6438 15.504 32.7578
21.6681 15.2325 29.4992
28.4606 16.126 32.8698
28.1934 17.6567 35.1299
28.3285 16.3141 31.3103
27.5876 15.5572 30.8595
24.1671 15.8805 31.2732
22.9671 16.1445 33.2088
26.1576 17.3307 35.0288
24.4332 14.0582 27.5305
25.3292 15.1589 30.4736
23.46 15.2559 30.9552
28.8138 16.5828 34.402
25.0163 14.302 29.8147
26.0185 15.7426 30.8647
24.8654 15.8108 32.9558
27.9869 15.6851 32.5381
27.0538 16.0236 32.1484
25.6952 16.2571 32.624
22.4283 13.8211 29.4515
25.2544 15.6813 32.0148
25.7989 15.1514 32.1393
22.04 14.7467 31.6659
28.6906 14.8391 30.3527
27.0135 14.7184 30.2458
21.3926 14.5345 29.9174
22.7793 16.4697 34.1764
29.9365 16.089 34.7437
23.694 15.2076 32.4403
23.3561 16.3014 32.0297
22.3508 15.3233 31.5433
21.0172 14.4684 31.5071
21.0621 14.724 32.5571
24.4253 15.4529 31.5401
24.0509 15.4941 35.1396
20.1632 14.923 32.812
24.4095 15.7861 33.002
24.036 15.0348 31.0764
22.6707 15.4215 35.3187
26.424 16.1514 33.3122
24.884 15.54 34.2583
21.5237 15.6123 32.9281
23.1903 14.6496 30.606
21.7332 15.8353 35.6595
25.3486 14.3125 30.0286
19.9986 14.5023 33.9728
24.3967 15.7735 34.3937
24.3422 15.4141 32.8051
22.1297 15.727 33.6546
22.2883 15.3633 33.2007
24.6176 16.5916 34.5105
20.3211 15.378 34.0638
23.8138 16.3895 35.2371
23.1414 16.1485 35.7794
21.4008 14.5752 31.8068
23.6343 14.8883 33.161
27.1148 12.9988 29.0296
24.1442 14.6051 33.0354
22.966 14.3414 31.9922
21.3167 14.5612 32.3505
22.993 15.563 36.9445
22.0609 14.8939 31.5169
26.6242 13.4448 32.9111
23.9606 16.03 34.3482
22.3695 14.397 31.4282
27.6973 14.7718 33.2829
26.8442 14.8167 32.6192
22.5551 14.6445 33.1618
25.5245 13.679 34.1
24.6312 15.1851 34.4435
27.2972 14.1819 31.8056
20.9994 14.1725 31.3778
20.4 13.8602 32.2255
23.4709 14.4475 34.6712
20.9337 15.484 34.9554
22.2369 14.5855 33.0014
22.3145 15.1034 35.0814
18.8227 14.3511 33.293
22.8414 14.2393 33.6928
20.5368 14.3057 35.0769
22.9201 15.667 34.352
21.3741 13.8203 31.2421
20.7505 12.7139 30.3356
20.4811 15.0098 34.1501
22.3204 15.3185 36.9389
24.6149 13.9349 32.6147
19.7827 12.8451 30.1736
19.7219 13.3839 32.6325
23.5063 13.4903 30.8264
21.3598 15.6799 38.2231
16.9835 13.7077 35.4617
23.0175 15.6827 35.2038
23.6409 15.055 37.211
20.0667 14.1628 32.0902
21.6253 13.6106 31.6138
20.3163 13.0046 34.4759
24.0304 14.2638 33.7076
20.8017 15.9673 36.8713
21.3979 14.3372 35.3386
23.7636 15.8344 35.5718
22.7594 12.8218 31.6274
19.3151 12.4338 30.6677
21.9453 13.8818 34.4117
20.4529 14.0701 32.8039
20.5675 14.5908 34.5029
26.2628 14.9049 35.5259
20.0725 13.5341 34.3523
19.5002 13.6841 35.0555
21.4797 13.9471 35.4966
21.924 14.4798 33.7805
24.8046 14.642 36.9044
21.8915 15.4836 39.7508
