# pn-170911/RbIIR-51-NIST-1280-1959.psd
# Power spectrum* (dif=0,1,2) (really just |FT|^2)
# NOTE: only the first half! (symmetric)
# weeks: 1280-1959
# 1 clock-days, 5 excluded
# PSD: 1441
47.4168 0.0345779 0.0144084
12001.3 0.0408815 0.0173479
108503 1.71106 0.0855453
10521.2 0.562478 0.00341833
3613.15 0.474944 0.150645
2618.58 0.468333 0.110549
3741.56 0.368481 0.132592
427.316 0.122008 0.315411
11941.6 3.26927 0.0959942
2395.49 0.608348 0.452671
263.561 0.082006 0.264186
559.007 0.190448 0.335284
355.146 0.221619 0.531897
493.95 0.569391 0.234513
779.939 0.500425 0.632986
1172.28 1.80152 0.316147
540.361 1.04367 0.379809
2492.42 3.50651 0.505707
1044.08 0.957543 0.207231
628.68 1.01042 0.446921
351.651 1.21259 0.18198
244.881 0.591899 0.250478
1300.6 2.42183 0.198517
2986.86 6.93422 0.11481
571.135 2.15725 0.287917
843.324 3.02002 0.0449891
3171.28 9.51182 0.0208425
573.476 1.79777 0.013237
1410.42 4.60869 0.0502977
4651.29 16.8276 0.0438245
1114.51 3.55489 0.132599
928.725 4.9444 0.0721487
1582.64 9.00268 0.0346073
1269.53 7.10001 0.0414662
1518.19 9.97739 0.0766251
1532.64 9.8083 0.235584
53.2218 0.668015 0.149289
4172.87 29.6464 0.240392
979.281 6.60445 0.178468
958.042 5.34351 0.431289
1570.7 11.2036 0.971416
1995.04 15.8725 0.635576
1374.63 12.4867 0.189398
127.37 1.60317 0.54658
1152.09 12.1301 0.229733
127.562 1.19859 0.647482
2155.68 20.6245 0.0518687
43.3148 0.551174 0.600518
637.625 7.2502 0.609696
28.9862 0.220723 0.193817
601.795 6.94003 0.115926
805.49 11.1775 0.241738
182.247 2.29046 0.415487
2234.72 28.5881 0.171395
1241.78 18.236 0.0657173
1672.22 20.0746 0.244946
964.748 15.7855 0.179613
2865.05 43.7159 0.430329
4055.53 58.4986 0.98137
1506.27 24.6864 0.233273
2549.27 47.6322 0.606292
268.908 5.76992 0.0277448
485.346 8.54894 0.320914
803.144 14.7256 0.526433
486.268 8.27973 0.000341989
1483.48 27.6398 1.45744
1002.5 17.5547 1.28335
1477.79 35.032 1.16971
27.0598 1.63027 0.240498
2569.36 59.4825 0.935109
477.363 9.11392 1.1467
3670.13 92.4708 0.719175
718.756 16.9445 0.0223358
24.4394 0.687035 0.874023
804.794 19.3857 1.09875
1399.89 40.6829 0.311907
4914.69 141.931 6.87798
1772.51 44.7172 2.1179
153.527 4.34211 0.11318
206.517 5.9345 0.231949
658.314 21.4778 0.1619
596.703 18.3424 1.10701
222.602 7.28566 0.193548
661.169 17.8456 0.491515
678.13 24.7146 0.763909
347.606 13.271 0.710812
730.961 22.7982 1.02574
307.475 11.4432 0.749306
401.792 18.3328 0.671606
93.3862 3.57949 0.0888729
751.872 25.0048 0.849203
855.486 41.4244 1.50954
723.297 26.7156 2.11046
817.441 30.1886 2.1042
558.929 23.6261 0.638969
236.518 11.459 0.53494
27.8698 2.46934 0.107023
830.921 36.1948 0.965742
25.8311 0.565586 0.445162
87.2116 5.11452 0.136753
919.713 40.3781 1.00211
221.192 12.4024 0.461486
250.138 12.3882 0.0687139
536.545 27.2891 2.91876
279.792 12.9042 2.20185
211.59 10.4576 1.06579
471.787 26.8333 0.33438
191.116 8.02224 0.760325
221.63 11.045 0.688331
342.964 19.6047 2.34178
269.313 16.3311 0.844062
11.6188 0.309245 0.102538
200.332 13.353 0.621524
4.56626 0.321751 0.102685
83.108 7.41859 0.426656
67.2418 5.34986 0.282085
167.83 8.1749 0.525555
536.458 37.1363 2.23948
14.6906 1.17602 0.019966
227.648 12.0679 1.21775
221.003 21.2366 1.45378
976.949 70.153 4.73794
224.699 20.7185 0.542792
155.876 8.43293 0.269969
673.052 49.5099 5.79977
715.129 50.9633 6.21821
682.23 56.0944 4.46818
17.1607 1.65876 0.941218
640.75 43.5539 2.77528
67.9692 3.67231 1.34545
220.027 18.682 0.509141
10.953 1.58813 0.197757
135.903 13.9736 0.464598
127.082 10.9113 1.52625
2.82218 0.92306 0.114909
193.144 13.7935 0.609402
12.3116 1.38104 0.0307221
444.926 37.1966 2.4101
146.733 15.4824 1.91498
94.3767 12.1726 0.852322
287.647 20.0141 1.37407
437.337 42.6078 4.25238
108.196 6.78884 0.336624
583.163 65.4168 6.31542
30.2769 1.81033 0.0747365
78.6951 6.01389 0.405779
44.7802 3.88449 0.77177
47.8337 8.19652 0.752313
369.519 45.5461 4.29716
324.026 35.4796 3.53007
6.77522 1.51878 0.0524398
5.28949 0.199985 0.306883
70.7198 7.02295 0.363975
57.8462 5.26381 2.07153
22.0319 3.42703 0.10147
14.8146 1.44332 1.44872
310.233 32.9557 6.00397
114.967 10.3683 2.5087
3.74675 0.0647849 0.444598
150.744 18.0916 1.58054
92.8174 9.09507 2.39768
53.3952 6.50037 0.739651
12.3512 0.6962 0.577989
149.428 17.9696 3.44402
5.16985 0.976317 0.107057
99.0834 14.4227 0.921449
127.475 15.9299 1.22858
24.1381 4.47687 0.820708
88.5884 9.31564 1.94489
3.66407 0.699215 0.113616
20.7143 5.4455 0.963501
48.9478 7.00144 0.588521
46.8318 8.08572 1.2582
552.592 66.0839 9.1877
16.7561 4.41985 1.30334
64.2551 10.1377 1.28396
7.07168 0.7942 0.608356
201.239 23.026 2.80561
69.4921 15.2064 1.49593
119.776 19.157 1.37227
17.6451 5.88892 1.81676
55.9694 4.4798 1.65632
71.0428 12.7622 1.26606
105.764 21.0985 2.9654
109.793 24.0347 2.195
88.7859 13.6922 1.21469
152.624 23.1501 5.61805
21.3911 4.06922 1.76398
135.36 16.2524 4.43755
99.6739 20.4529 2.28292
82.7 15.9995 2.69496
83.1622 17.9147 1.63864
188.857 31.1685 3.82712
365.109 64.8786 10.0271
144.419 37.3145 6.2573
19.9817 3.03325 0.904883
288.711 41.3502 8.17559
34.3391 6.41808 1.03702
28.7574 8.01492 2.21361
45.9199 12.3011 2.84972
175.661 31.5433 5.62995
340.408 65.4621 12.3054
17.4437 5.73767 1.28239
133.64 26.4285 5.07417
37.053 2.28586 0.371758
137.87 29.519 5.1065
56.9988 10.6205 3.35071
19.5273 1.93992 1.23729
2.2919 0.506703 0.0297943
25.9398 2.50647 0.327457
23.2808 6.20392 0.738832
50.4082 8.97788 0.789944
143.21 28.4076 6.43904
45.9367 7.12425 1.35933
67.3857 20.5536 4.74056
18.7458 5.4425 0.790678
102.51 14.3046 3.48241
138.539 37.2816 6.87771
34.6663 11.159 4.90938
103.41 19.4027 6.39041
20.6343 8.91959 1.86713
21.0511 4.35728 0.473114
74.0149 11.9852 4.04256
2.96122 0.585778 0.0628471
78.7211 15.608 3.91911
56.0594 20.3957 5.30093
102.2 21.2706 4.51494
51.894 11.4589 3.88396
145.495 31.7237 7.26062
74.0898 23.5068 5.71118
18.9198 6.24113 1.09976
77.4119 15.4214 2.84741
12.4479 3.25489 0.830054
74.7425 18.8693 3.02961
2.42164 0.0795352 0.240396
178.368 56.4917 16.1386
42.7528 9.3035 3.0148
1.75746 0.885225 0.601312
23.5419 4.14483 1.72504
30.6886 6.36621 0.974803
33.4656 14.2565 2.21433
19.7826 3.87468 0.15553
114.561 28.4853 11.747
65.8941 13.1902 3.379
13.7874 2.24226 0.450343
77.7202 29.9962 5.5689
132.347 37.2206 7.96304
24.5962 3.77116 0.287408
33.3707 6.83539 2.91269
83.2486 30.6918 7.92085
9.1982 2.56275 2.88009
71.7584 17.4415 3.98365
92.7169 33.959 9.90882
92.546 17.7642 4.53587
18.0048 7.33854 2.58225
50.8462 19.9577 5.60275
74.0522 21.158 5.14218
80.1542 29.8005 11.9456
146.415 30.9621 8.16457
4.3758 3.9837 1.95776
89.1332 24.7058 8.67765
330.324 99.0185 34.9315
69.3597 16.2807 5.26288
75.5762 21.1195 2.84773
112.892 34.2616 9.14593
3.43069 6.97974 4.30452
20.0035 2.30388 1.0783
45.0906 10.7343 2.02209
5.67256 7.17638 2.7796
84.7341 31.0799 8.60214
15.58 5.54542 4.14973
105.177 25.6267 7.46277
49.0362 21.1131 5.98346
12.8487 5.62881 1.73346
51.0314 22.6238 6.69606
24.1286 11.3773 4.66342
126.228 37.9689 7.74557
79.5097 32.0441 14.2844
50.573 14.4518 8.72145
136.957 41.3485 15.5048
4.72906 1.85317 0.438946
50.4779 27.6716 9.16195
22.3015 7.1197 3.04117
39.3428 7.1142 1.8082
90.0625 31.6733 10.9692
40.4218 12.5319 3.8037
22.1374 11.9792 5.15731
49.2919 21.0807 8.5345
3.84051 1.79299 0.361829
9.24741 1.211 0.279809
52.3214 34.2205 19.0764
117.204 45.7418 14.472
55.1225 27.0474 16.6631
59.3365 12.514 2.59821
115.995 41.5284 10.9148
31.9917 11.8302 4.42569
282.768 119.845 39.3604
3.91729 1.75113 1.60025
20.1211 16.185 8.23312
146.118 58.6883 28.4809
26.0287 21.5678 10.8223
5.467 2.95052 4.88915
15.5777 1.40786 0.325549
37.5188 21.8638 13.3055
119.71 42.2272 10.5594
4.24343 0.978624 0.0481307
15.8215 17.1955 9.53366
54.964 17.3857 4.08203
147.62 54.7997 20.9607
55.0965 18.6269 8.06403
127.02 57.1625 22.9544
214.575 98.1215 45.2826
3.3503 12.036 10.3933
53.1231 15.6824 4.59093
41.3026 19.7839 6.66467
19.9717 11.9069 6.19735
59.1588 31.1478 15.7177
62.0972 37.5671 20.5881
140.581 53.205 20.9344
2.66925 2.17724 1.47149
106.538 54.405 30.5222
21.7658 16.0934 12.0634
48.0735 18.7547 3.57339
45.6076 26.1169 11.4743
2.10362 2.75764 6.44196
52.5652 10.5588 2.90396
34.6253 12.0222 2.18862
36.8989 14.2046 7.89744
17.5631 11.7949 3.98479
18.3548 10.604 7.52473
66.8097 44.1873 20.3252
10.4611 10.087 9.29814
16.2618 5.12305 4.91604
17.2243 7.31286 3.2815
36.6312 25.2686 12.3766
31.0417 12.4842 1.98794
59.1644 30.9583 16.2023
32.8703 26.1724 12.9026
68.3355 43.7271 31.8391
121.198 56.0268 27.6374
10.232 13.7739 18.2806
82.3321 26.8905 9.01327
1.77362 1.55096 5.37765
100.138 49.198 18.7998
90.5601 48.8775 23.7216
59.1397 25.1293 12.738
25.8757 16.0688 8.00415
2.75157 3.15847 3.94636
116.28 53.696 26.0569
42.765 41.619 28.2074
4.40017 1.18382 1.08396
23.3504 11.1371 5.6223
9.88924 1.45211 0.258075
127.875 61.0579 36.0066
33.2454 12.4366 4.18209
9.36683 8.0008 3.4986
38.6664 26.0615 15.8973
32.5876 12.4065 5.68182
72.0868 48.6307 25.3098
3.62572 3.05817 1.24451
0.501145 1.87913 1.32897
31.5914 24.583 15.6011
0.740625 0.991317 1.32907
14.3154 16.4922 13.4038
77.1345 35.0344 15.8324
12.4964 14.3285 9.88843
55.5124 30.7463 23.2442
103.427 56.6599 29.7243
17.0785 6.53766 3.55414
32.322 31.1449 24.0621
10.3582 2.53627 1.35927
41.2671 20.2333 13.4345
10.1072 15.3646 19.2582
24.2098 6.78906 3.21485
215.155 110.911 50.6652
4.70423 10.2132 8.8435
2.38035 0.805481 1.69852
35.9561 29.0854 27.0807
117.387 89.283 50.7626
3.21573 1.39975 1.70908
2.48103 5.15083 4.30978
9.88917 5.47919 4.869
16.3185 22.3233 29.6968
79.2947 43.7484 22.4685
82.7865 74.8697 47.2399
9.43553 2.98506 0.192207
23.6749 14.3901 11.4656
68.4396 73.56 60.7789
107.321 53.2865 19.5463
12.1647 12.7573 14.2594
44.2572 23.4305 16.8452
34.2924 18.5953 12.7064
65.6326 54.5209 40.4415
80.378 58.6703 35.9355
18.887 8.87334 2.87194
8.4413 11.8683 12.609
52.2261 35.0802 14.4277
34.7973 26.7405 22.3667
40.0987 33.8701 30.1363
37.0343 22.0943 12.244
4.93529 12.6785 16.5423
2.3509 10.9763 24.2731
93.9628 34.7663 7.80764
44.5791 27.9483 14.1057
8.78561 12.0427 8.15975
11.183 4.41164 1.63619
42.5349 26.5413 13.8597
24.5574 23.5088 25.4073
7.86971 1.15313 0.503674
2.07003 6.5298 6.38826
6.65829 14.1639 12.5848
5.63206 0.644725 3.65112
15.171 4.7621 2.77963
14.0562 12.2976 12.3158
112.518 58.1352 33.576
11.5926 12.3082 14.1286
0.801464 3.81304 6.94473
25.7514 15.5918 3.6063
17.2863 6.41772 1.28384
41.096 46.924 34.5696
87.9794 76.9759 49.0658
14.8817 13.2844 9.27062
1.82951 3.94393 2.39968
24.9102 24.4999 21.2938
32.9675 26.9265 15.4032
22.274 25.313 29.3368
2.00631 7.33674 20.257
165.775 125.553 87.9532
21.3365 6.68174 3.34113
7.67969 11.7755 16.7934
17.1512 10.4253 3.64171
4.0135 2.05252 1.72117
5.58383 1.24847 0.227665
8.91665 5.45922 6.67187
6.34282 6.59258 4.15961
13.5745 12.1666 18.4274
73.9183 47.2097 29.9133
33.6296 22.9731 15.5364
50.9865 43.0562 39.3161
25.2678 8.88817 8.30272
31.3998 33.3679 26.0525
3.32119 2.92 5.10444
11.599 3.14925 1.36785
46.8992 57.4699 48.9754
24.9929 11.7165 2.5378
20.8553 16.8772 19.382
10.3399 1.89087 0.072236
30.1387 37.7532 34.7016
3.14166 12.5972 26.722
132.673 106.114 70.0604
2.50275 0.373722 1.58245
0.147946 1.8351 3.10801
6.00025 7.74021 10.8601
15.69 7.66846 5.91475
3.80524 0.183507 0.860645
23.9561 20.9062 12.8115
31.3605 25.9194 18.1557
7.78815 20.3952 25.8531
6.69419 9.57903 22.7278
49.8039 24.2481 7.73559
5.40285 6.67437 4.36163
0.10886 0.76595 1.7256
26.9041 27.8052 29.2188
55.8342 39.4597 33.3213
13.0639 6.00376 2.15688
0.0718319 1.36954 2.66786
24.4366 26.8844 33.6585
16.5997 5.87742 2.16026
2.49903 0.0875075 0.538262
2.81913 0.045057 0.223163
12.7306 9.56868 4.42623
5.51806 4.11462 6.25169
8.1417 13.5486 11.4349
26.047 42.2436 74.2041
107.545 67.6574 44.3985
3.79952 0.422253 0.174873
13.6513 26.4113 36.4619
9.76297 8.40776 11.6743
29.9212 25.6143 13.2773
19.1543 26.6285 39.7244
29.6876 14.9106 9.22291
7.4889 2.828 0.119726
13.6164 11.0139 6.77234
52.1025 50.3633 39.757
3.09018 15.2726 19.3854
0.130454 0.316208 2.51546
54.4444 97.6985 121.209
28.9068 10.4954 1.02457
25.5429 13.7683 4.58297
7.89396 15.3444 9.79166
31.4396 52.3316 80.5931
103.971 73.4351 55.0576
12.8955 4.10334 1.2778
2.19141 6.38801 9.98999
6.99934 6.35214 3.29693
0.00875192 3.31011 11.1083
6.79878 6.11902 6.60998
13.3874 6.40513 7.43277
43.593 62.2382 70.1726
44.6975 35.3003 29.0682
5.58349 10.5176 16.6068
12.7859 11.8709 18.4783
48.5628 52.0144 40.3066
37.0576 50.3568 45.4626
1.07784 5.80097 9.32228
18.7824 38.7397 50.8302
14.7739 23.7778 38.944
15.3436 7.02395 3.24002
20.5836 21.7351 18.3664
6.53072 1.48406 0.289831
13.8352 22.6855 23.4839
22.8744 36.2301 50.893
26.3081 23.212 32.9629
73.3174 86.9877 81.5021
7.37606 10.8671 14.7851
29.5805 38.8961 57.9198
15.1924 5.25556 8.83297
8.58533 9.76737 14.4065
35.9763 25.6616 22.0909
13.3889 10.1625 4.33339
16.5215 36.9639 53.3761
11.407 6.74683 2.23813
10.4862 7.48207 11.8588
20.8386 21.9466 26.3641
15.3062 16.7128 25.8558
17.6902 26.2507 30.7454
50.5456 53.5042 35.4123
5.96103 11.7399 15.5987
6.85194 23.9928 32.4006
7.95473 6.39677 13.6351
16.5492 8.4732 5.88888
2.4334 5.75079 8.41684
3.3847 6.47723 6.08386
4.35716 12.8007 21.6337
14.825 16.5681 11.2775
3.19583 3.64205 3.21553
0.437155 3.51552 8.24507
5.27528 7.30222 5.67171
2.71372 3.77896 6.84571
1.76429 0.352815 2.51842
36.247 41.4228 40.9558
3.99754 12.6216 21.3642
2.03933 2.5582 5.12601
3.94927 2.30471 0.38803
2.85793 3.24348 4.97427
7.70965 5.85932 8.16054
9.71305 13.9017 34.5066
72.1425 67.8698 57.5527
22.8956 28.0261 31.0653
24.6168 23.8336 16.9253
11.5011 30.8838 43.4692
13.5541 38.0856 49.3648
5.32548 24.6554 59.2262
33.5065 16.381 7.61697
17.0739 36.8007 66.6281
7.08225 2.68062 25.7654
14.2572 10.0291 1.39957
11.7202 8.80855 4.93858
10.8057 18.342 38.6854
19.7048 7.193 0.373584
20.6205 21.1896 16.0131
6.7002 14.8187 18.3391
0.927238 4.70377 17.0712
34.3165 54.1324 51.5635
4.81701 27.0403 65.6499
25.4393 11.3638 5.36994
27.4154 22.3363 13.2335
24.7808 57.6924 89.0576
12.1275 7.70363 11.5787
38.6736 46.2551 61.1066
22.1772 18.8213 8.70253
16.4751 31.9934 41.4102
1.8454 6.1127 23.6572
16.5371 21.0741 19.9769
18.4515 33.9835 64.1065
20.6788 12.7893 16.8325
16.495 23.4139 50.8977
33.5304 26.5548 17.9054
4.12821 3.40334 1.38504
14.1442 15.7251 8.19993
19.2355 40.3447 78.107
56.143 50.1127 43.6226
0.00222853 1.43947 6.11393
3.63632 1.49507 4.88604
3.9434 11.041 12.0518
2.8707 9.09104 26.875
26.4058 22.0316 18.473
42.8804 51.1719 52.1003
1.15329 4.00135 11.3473
0.672039 3.57678 12.8651
8.7285 7.38414 1.23943
28.6454 46.6383 67.3969
10.4172 5.92891 6.84282
5.85785 25.8735 63.9231
30.2244 50.221 77.8171
18.469 17.5205 16.4952
14.1349 17.2463 14.1778
7.18223 16.2391 29.0073
1.58187 11.6819 35.6104
11.3392 25.2355 53.1167
23.2235 17.2238 16.1484
16.0342 37.0058 80.2263
29.8573 13.9743 5.5245
2.40242 3.60657 7.33849
8.16049 6.35526 10.0976
23.2806 31.9741 44.0194
0.697097 9.65862 40.8698
4.64687 15.2489 56.7446
40.6411 20.4804 4.69835
15.5964 15.5809 3.78015
21.2307 29.9842 26.9864
4.97464 5.07123 8.6662
0.669481 1.49469 0.729388
15.8285 18.277 23.0127
0.415364 2.43091 14.0593
16.0274 14.3398 10.046
4.87652 7.84767 16.4548
6.24617 1.70651 8.48623
17.1399 15.7284 17.5743
7.22392 9.56056 32.4208
22.4201 13.101 9.98566
8.52684 6.89168 0.691342
23.4575 21.256 8.29516
23.2896 60.8091 82.3404
2.74739 14.6311 41.1672
14.9369 15.6117 18.9963
0.157218 3.73707 9.82791
3.06044 2.9237 7.52688
10.1395 20.742 44.4099
11.866 9.71882 12.4232
3.60259 3.80043 0.148431
7.73331 7.14697 8.882
4.99521 3.61674 2.68716
21.8948 44.5478 62.4758
7.91611 14.4438 42.199
23.4269 32.1381 25.9609
36.1063 63.69 98.0593
35.2288 53.6212 52.5914
11.4264 24.1842 55.2962
34.6238 53.3423 88.5025
24.3855 16.285 8.16447
1.65178 12.2869 18.282
6.36896 19.3996 40.6615
7.15078 1.37517 1.33777
3.18821 13.4691 32.6226
14.6707 15.3754 21.2679
4.3487 18.7409 54.4247
6.61885 1.9511 9.71878
17.5524 24.8314 47.4104
10.4115 11.6655 8.01195
2.21028 5.65443 15.9338
9.40749 8.48809 10.3018
1.96697 1.37521 0.872131
6.87442 12.1311 23.8767
6.63683 14.8904 29.9631
11.1823 24.3875 50.7808
24.192 55.9418 101.905
10.0762 0.692789 11.3087
30.6833 49.1031 45.4116
6.06843 13.0066 22.5727
10.7395 30.3947 64.9347
7.63075 8.31778 8.95473
10.735 14.9959 20.6372
4.76979 1.09213 0.119569
1.31428 6.26093 10.4572
3.09608 8.9825 14.255
3.19012 8.12322 33.6511
11.6013 7.14189 3.50687
0.0524991 2.66384 7.71287
0.657844 3.32172 7.63953
2.04662 8.99441 26.8963
20.8772 67.7321 138.713
16.3154 23.6457 35.5297
11.5362 4.46731 13.6119
23.8712 47.1591 55.9851
2.09153 5.4543 13.5278
12.7664 23.5141 46.395
6.73471 0.819767 2.29957
3.51196 9.15412 14.1403
15.0272 26.6255 42.9044
2.83171 1.80759 14.3067
9.77846 23.8212 40.1174
1.82204 3.75223 8.26257
1.58387 5.34931 17.0066
6.89227 8.7583 10.2439
0.0606408 5.70571 34.0128
10.9379 13.9122 13.5504
5.40691 13.766 15.7111
0.239697 2.35423 13.5315
14.7193 35.8871 50.9893
0.651652 3.66244 39.1583
41.0061 64.7908 79.8049
13.1077 25.328 49.1089
1.37055 2.10519 3.23382
2.46279 25.1971 72.9559
3.84669 4.8007 30.958
19.9098 8.4463 1.5447
17.4745 53.3322 76.2328
8.63718 40.0892 100.032
14.7163 18.7867 25.6117
5.98756 7.00653 2.81937
6.76308 19.3183 45.652
8.86993 4.03755 10.6565
10.7007 24.8854 55.4748
21.0888 18.3112 8.4754
2.46722 8.06627 10.9117
0.222406 3.66863 6.30552
3.55715 12.7974 32.3092
2.70746 2.50025 22.4803
3.18286 1.44639 3.73663
3.19905 7.28707 17.7348
7.57729 10.6308 20.254
18.3811 37.8446 71.4982
19.9863 41.1386 66.5581
5.32502 2.58836 5.65794
6.2515 3.29652 0.334854
2.22173 11.8751 29.8828
4.6704 12.8615 24.3082
2.88906 2.42881 0.352892
3.33427 6.66254 10.899
6.96543 4.36285 0.145205
13.7412 81.3342 227.051
25.7374 26.0901 12.344
0.343347 3.42547 27.2033
11.5626 17.8577 17.222
12.8293 33.8004 86.3288
10.5931 15.5017 10.3833
3.07487 4.12874 5.68476
5.08495 7.1234 24.5304
21.9393 43.4608 73.7151
7.28902 1.43462 2.384
1.0325 2.82516 21.0701
9.17068 27.9574 60.784
10.6566 28.0258 38.1181
0.168435 4.46233 14.4124
0.455419 6.50475 38.8231
1.68848 0.555198 28.6275
26.4113 32.8809 17.4312
2.19385 13.8976 18.5745
6.12649 35.0338 103.018
12.4511 2.99934 19.9837
12.513 15.9386 4.59014
7.0921 23.6767 39.4845
3.08236 18.5717 58.0092
8.13491 11.0747 25.0721
0.993099 0.0582334 12.4199
14.0667 17.3934 24.2946
13.6593 24.6545 57.5074
32.6394 84.6738 147.182
0.51324 7.57683 99.3589
60.2985 95.3347 105.229
1.55647 16.4691 92.9453
20.0685 33.5047 26.7689
1.29215 0.648681 0.726559
3.85468 28.0714 66.2609
6.53249 10.6844 8.76801
2.92823 6.05538 12.922
6.25721 14.3429 24.9051
5.06395 23.5704 91.8655
14.9698 13.8465 50.7029
20.93 61.9055 129.634
15.5449 41.873 74.5435
2.24041 4.90802 19.7736
6.92569 4.32471 1.11827
1.00873 0.942213 4.4148
4.68867 10.8128 30.995
9.64062 11.8961 8.4232
0.221174 8.22559 34.6237
6.54458 7.90529 7.24141
11.2667 30.5988 70.5721
9.24995 19.8591 106.285
45.123 99.5958 154.551
7.37406 1.02408 11.5554
4.44228 8.873 9.76021
0.0785857 0.20725 1.44839
8.20768 20.8632 47.7357
13.319 35.6959 86.5177
5.64044 5.7843 0.513397
2.43131 3.39918 6.45236
3.69798 8.99068 38.9102
16.7519 21.1645 21.8246
2.45838 3.04294 3.21129
3.77949 6.28013 18.5252
6.48267 18.1329 33.2954
5.97306 9.71033 9.75105
3.03283 47.0133 138.94
0.813384 24.8109 215.831
47.5117 26.8581 34.0753
27.8387 38.7724 4.18694
25.6365 73.7234 119.905
3.48091 3.41625 19.6496
17.4223 52.0447 92.0335
4.89345 8.49573 28.6659
6.22883 6.10914 8.60884
7.0156 14.0011 19.9702
0.235056 2.35417 11.9432
2.98159 9.03563 36.9196
8.74644 13.1544 18.4635
5.62862 11.0455 15.5116
2.52966 5.08775 14.6892
7.13184 15.3728 40.9278
10.1105 15.8008 28.558
4.49076 7.24513 8.45961
1.92071 3.75242 9.3983
1.89182 7.3256 26.0748
4.85954 6.74975 0.819133
10.0679 33.1089 80.6769
8.56521 9.24386 14.8243
3.36443 2.87037 11.1024
2.20229 5.41469 3.25606
4.65707 20.4699 80.7883
10.7361 20.545 20.8946
0.0374581 1.90777 28.5147
10.5107 39.253 52.5888
1.32709 7.39154 29.1586
2.06863 4.33843 3.59121
3.48154 19.3672 62.0747
12.5594 27.8765 87.6747
20.9132 29.6898 35.2902
4.0546 8.97134 10.3382
1.54167 20.2529 49.1317
2.14085 38.5234 193.145
22.9361 6.00137 22.3926
14.5587 28.9877 33.8998
