# pn-170911/RbIIR-46-USN3-1280-1959.psd
# Power spectrum* (dif=0,1,2) (really just |FT|^2)
# NOTE: only the first half! (symmetric)
# weeks: 1280-1959
# 3506 clock-days, 91 excluded
# PSD: 1441
926.387 0.136375 0.0211736
45069.1 0.535721 0.0132474
387382 8.20827 0.0130505
18366.5 0.622318 0.0129696
27064 1.91169 0.0131024
6507.07 0.545301 0.0134477
5826.38 0.80289 0.0130199
3185.49 0.529646 0.0127804
2712.18 0.598974 0.0130748
1918.97 0.531562 0.013381
1614.84 0.552193 0.013126
1318.65 0.547767 0.0136777
1163.21 0.572777 0.0135335
998.943 0.588778 0.0133397
898.835 0.617981 0.013572
811.496 0.651524 0.0133953
715.956 0.664571 0.0137858
670.035 0.706314 0.01422
616.25 0.734385 0.0138867
582.707 0.765091 0.0141283
559.014 0.851092 0.0148616
502.363 0.84829 0.0145468
473.234 0.888368 0.0150392
482.405 0.984918 0.0157198
459.302 1.04714 0.0153646
427.35 1.07734 0.0157716
435.572 1.17173 0.0171848
418.256 1.23908 0.017581
420.476 1.3531 0.0182251
410.862 1.42309 0.0185046
408.26 1.50927 0.0194249
403.992 1.63505 0.019769
397.709 1.71622 0.0214682
384.629 1.75881 0.0220706
383.233 1.90021 0.0238898
386.746 2.02314 0.0246729
401.922 2.26458 0.0267874
390.406 2.31517 0.0282006
401.02 2.53871 0.0308501
383.538 2.55866 0.0320846
387.245 2.73408 0.0344598
391.389 2.88056 0.0356652
379.345 2.99634 0.0389251
376.234 3.12221 0.0414875
381.75 3.29402 0.0447598
376.815 3.45947 0.0471154
361.165 3.41346 0.0474158
382.528 3.75101 0.0522477
393.581 4.10157 0.0589507
374.715 4.05075 0.0596231
367.934 4.13834 0.0629676
378.678 4.45218 0.0686573
378.274 4.64698 0.0747049
379.737 4.79524 0.0766414
374.387 4.99191 0.0814131
376.31 5.18018 0.0894902
376.027 5.39979 0.0948766
361.458 5.34875 0.094581
363.425 5.59707 0.10336
352.801 5.63691 0.105279
342.656 5.65288 0.108657
370.865 6.33714 0.125556
368.208 6.53169 0.132128
360.1 6.56447 0.137762
337.233 6.34973 0.138826
347.262 6.72931 0.149092
337.887 6.78285 0.154472
350.443 7.22903 0.166177
352.771 7.47282 0.17941
335.368 7.37657 0.183178
340.916 7.68244 0.195059
330.178 7.6645 0.195051
349.148 8.33489 0.218947
325.035 8.00939 0.219477
341.991 8.59868 0.237015
331.172 8.58013 0.242784
327.173 8.70911 0.250165
322.531 8.87745 0.262239
317.463 8.96624 0.273607
313.304 9.06512 0.281145
305.668 9.10029 0.291982
299.776 9.06107 0.295461
301.782 9.37799 0.310066
294.436 9.43382 0.321835
283.578 9.25596 0.323363
296.925 9.96346 0.352292
289.655 9.98163 0.359588
295.196 10.4219 0.385968
287.208 10.3315 0.395675
288.916 10.6404 0.415062
285.922 10.7349 0.42387
284.343 10.9763 0.44324
266.119 10.4242 0.434904
269.422 10.8294 0.460786
265.263 10.8441 0.46669
256.251 10.7652 0.475345
368.999 15.9453 0.706782
262.754 11.4069 0.520011
247.942 11.0695 0.516443
239.281 10.8397 0.518478
249.534 11.509 0.56498
250.017 11.9512 0.59273
267.478 12.955 0.655368
242.611 11.9064 0.609649
233.079 11.6821 0.610957
236.104 11.9864 0.633801
232.135 12.1693 0.662415
227.392 12.1006 0.675036
227.365 12.3155 0.695393
233.648 12.8367 0.740554
230.641 12.9988 0.753687
222.532 12.7785 0.754196
222.197 12.9998 0.783382
226.682 13.5065 0.829365
223.116 13.5164 0.839378
215.796 13.223 0.839439
209.582 13.0157 0.84315
200.479 12.7464 0.842713
210.243 13.7667 0.919439
206.272 13.5624 0.920942
206.73 13.9158 0.962791
195.441 13.1957 0.925597
193.803 13.3987 0.95041
194.97 13.7554 0.999428
199.655 14.2474 1.0493
198.656 14.4805 1.08868
190.53 14.1029 1.0742
184.254 13.7473 1.05828
187.773 14.296 1.13411
182.641 14.1884 1.12873
174.323 13.5961 1.09969
178.594 14.3299 1.17643
182.702 14.8912 1.23631
178.086 14.7109 1.24865
178.112 14.8245 1.2628
169.09 14.2417 1.24094
173.025 14.8517 1.31068
172.147 15.0644 1.34652
172.645 15.2895 1.38884
165.115 14.6981 1.35534
172.049 15.6677 1.45654
161.941 15.0071 1.43088
165.503 15.3346 1.46739
165.811 15.7475 1.53093
158.532 15.2582 1.51496
154.716 15.0541 1.50409
152.837 15.1915 1.54731
154.302 15.4407 1.58975
150.565 15.195 1.5697
157.701 16.2657 1.71971
153.8 16.2974 1.75496
154.353 16.3046 1.76951
146.586 15.6648 1.72227
145.081 15.7887 1.75207
140.119 15.461 1.73804
141.261 15.8856 1.82525
142.616 16.1428 1.86778
141.181 16.2012 1.89233
141.847 16.3305 1.93856
136.77 16.0191 1.92666
135.798 16.1031 1.9453
135.739 16.3878 2.03314
129.976 15.8643 1.97352
139.085 17.0584 2.14874
135.886 16.8739 2.14908
131.564 16.5788 2.13795
129.71 16.7096 2.19701
135.716 17.5639 2.31246
126.129 16.4499 2.18726
127.787 16.9851 2.30477
124.117 16.6326 2.27825
123.887 16.7478 2.31346
129.085 17.8034 2.49619
122.621 16.9616 2.39068
119.539 16.8392 2.42245
125.138 17.818 2.57657
119.679 17.1918 2.50951
118.16 17.2733 2.58283
122.526 17.9271 2.6706
118.5 17.5516 2.65004
115.453 17.2351 2.61977
111.455 17.1236 2.69106
115.016 17.4765 2.71384
114.061 17.7991 2.84264
116.782 17.9653 2.83725
113.054 17.9832 2.92854
113.293 17.9998 2.91245
111.838 18.2065 3.02259
112.84 18.3288 3.03391
107.363 17.6151 2.95308
102.712 17.1804 2.94255
109.51 18.8188 3.32004
187.163 31.7731 5.38333
103.615 17.6035 3.07907
97.6943 17.1413 3.08392
101.459 17.7591 3.18025
104.458 18.5448 3.37532
101.117 17.9116 3.23738
97.1668 17.7207 3.3049
100.811 18.3569 3.39897
98.7518 18.372 3.47505
97.5254 18.2243 3.47254
98.963 18.5854 3.55675
94.7503 18.1467 3.54062
98.9601 18.8762 3.66784
91.2198 17.7322 3.50174
92.3887 18.1929 3.63203
92.3828 18.2624 3.67941
95.822 19.1583 3.90509
94.396 19.2002 3.95649
95.3162 19.1919 3.91313
90.0966 18.6064 3.91356
90.6432 18.8186 3.96416
88.8743 18.4511 3.90291
87.7509 18.6426 4.01608
87.8021 18.8746 4.11603
89.2707 19.0513 4.1585
88.5472 19.026 4.17128
88.1067 19.4347 4.34591
84.1172 18.6679 4.21993
86.8541 19.1729 4.34488
84.2771 18.8126 4.27393
83.6611 18.9507 4.38115
80.4941 18.437 4.28116
82.6135 19.0867 4.47393
80.7072 18.8138 4.45667
79.5312 18.7246 4.48575
80.0267 18.9109 4.5615
80.5258 19.4097 4.75429
85.1618 20.4911 4.99134
80.2625 19.3215 4.74589
78.1877 19.1676 4.76749
77.2883 19.0837 4.77148
76.7735 19.4105 5.00082
82.6884 20.4516 5.13704
76.9951 19.8646 5.16033
80.5968 20.4094 5.263
72.322 18.666 4.92309
73.1602 18.9097 5.01044
75.6988 19.9309 5.34842
75.2651 19.7024 5.24194
71.9433 19.1732 5.18646
72.0839 19.3526 5.30099
71.9427 19.6206 5.42792
71.7088 19.5972 5.45025
74.9548 20.7679 5.85394
75.7834 20.8693 5.83175
72.0704 20.1139 5.72406
72.2874 20.2861 5.787
70.7137 19.9776 5.73896
68.2634 19.4954 5.67171
68.8888 19.9865 5.90874
69.6009 20.3205 6.02242
69.256 20.185 5.9952
65.7765 19.3919 5.80347
66.3032 19.9271 6.06501
67.4072 20.0377 6.0394
65.6606 19.9661 6.16505
67.1544 20.2928 6.23468
64.7423 19.9633 6.2799
64.7099 19.9262 6.23671
65.243 20.3321 6.43711
63.4714 19.8756 6.33452
66.1601 20.91 6.71846
67.5535 21.2899 6.79815
62.3236 20.0565 6.59153
62.7125 20.0777 6.52482
60.6114 19.9389 6.66574
62.5219 20.3059 6.77568
62.9786 20.8759 7.05125
64.7177 21.4732 7.24471
59.7962 19.8892 6.72667
59.9121 20.2704 6.9853
58.9854 19.9395 6.88397
60.7351 20.8024 7.2264
59.5573 20.5053 7.15468
58.1441 20.2126 7.15083
59.1276 20.4689 7.20323
57.375 20.3997 7.30359
56.189 20.0652 7.27448
58.2516 20.6595 7.43719
57.7241 20.892 7.67551
58.5461 21.1018 7.74463
55.9973 20.3586 7.52265
55.0978 20.2048 7.56566
56.881 20.8004 7.75371
53.6421 20.1457 7.71204
55.8114 21.4357 8.57424
111.271 41.1785 14.8548
54.0608 20.7563 8.13578
53.1392 20.3861 7.9997
53.0664 20.2931 7.88295
52.3465 20.3131 8.00542
53.1432 20.8457 8.28863
52.6072 20.5499 8.18127
50.8841 20.0257 7.99513
51.6334 20.4761 8.26356
52.1923 20.9356 8.4885
53.2706 21.3261 8.63312
51.3426 20.9762 8.7126
50.2134 20.4343 8.45932
50.5145 20.7113 8.66577
51.2384 21.1695 8.89661
49.3767 20.523 8.63998
49.0692 20.4623 8.65701
49.9621 21.0871 9.00135
49.8212 21.0225 9.02069
48.378 20.6169 8.87125
47.6654 20.6104 8.99778
48.1288 20.6853 9.07548
48.1933 20.9548 9.25069
46.47 20.4586 9.17926
48.5292 21.1999 9.37414
46.4341 20.5895 9.23947
47.6007 21.1571 9.52885
45.9759 20.7213 9.45918
46.5232 20.9953 9.61717
46.2365 20.9671 9.57324
44.8255 20.6259 9.66649
45.0079 20.5553 9.55191
44.6239 20.6701 9.67796
43.3765 20.148 9.53
44.4977 20.8425 9.89181
44.4658 20.7618 9.84584
43.49 20.6657 9.90409
44.6708 21.2431 10.227
43.3607 20.7476 10.0881
43.8384 21.3084 10.506
43.7033 21.1289 10.3636
41.9941 20.6388 10.263
43.9531 21.4507 10.6193
42.204 21.0515 10.6399
41.6267 20.2819 10.1178
41.489 20.7744 10.5318
41.0192 20.3641 10.3194
41.1827 20.8374 10.6877
43.6163 22.0595 11.2963
41.4265 21.2045 10.9804
40.6364 20.9515 10.9232
40.4276 20.6687 10.7914
40.5424 20.9088 10.9729
40.6059 21.0507 11.1126
40.3456 21.2357 11.3111
39.9244 20.9985 11.1588
39.5586 21.0846 11.3634
39.5083 20.9342 11.2576
37.6534 20.3664 11.1747
40.3184 21.6255 11.7425
38.3044 20.692 11.3692
37.7505 20.6773 11.5132
39.1467 21.3753 11.8306
36.6476 20.1358 11.2826
37.8879 20.9697 11.733
36.8514 20.7003 11.7792
37.4223 21.0351 12.001
37.5559 21.0419 11.982
37.5806 21.1503 12.12
37.4403 21.1936 12.1641
35.8748 20.7507 12.2154
36.8766 21.0271 12.1447
36.64 21.2879 12.4849
35.6426 20.6633 12.1333
35.0589 20.5518 12.3118
36.0956 21.3479 12.8689
35.9328 20.9394 12.4577
36.1791 21.4659 12.9116
35.111 20.8656 12.6021
34.4599 20.7485 12.6062
34.8158 20.7257 12.6313
35.1215 21.1819 12.8855
34.025 20.8867 12.8899
34.7979 21.3571 13.2603
33.9191 21.0544 13.1472
33.0328 20.5766 13.0761
33.3313 20.5543 12.8694
33.349 21.0359 13.4185
33.5311 20.7928 13.1125
33.3577 21.0137 13.4084
33.2016 21.0622 13.5477
33.0376 21.0273 13.5962
32.7139 21.0959 13.8103
32.0125 20.5571 13.4922
32.3801 21.0841 14.0334
32.1283 21.6092 15.7106
68.0182 43.0992 25.9652
32.7136 21.779 14.7867
31.5225 20.9776 14.1717
31.4704 20.9584 14.1869
30.9753 20.5097 13.805
30.9516 20.79 14.1234
31.3206 21.174 14.5062
30.9761 20.8037 14.2473
31.0026 20.8639 14.249
30.7087 20.9792 14.4795
30.794 21.1816 14.7762
30.4347 20.9221 14.5867
30.1169 21.1235 14.9423
29.8452 20.4499 14.3958
30.3142 21.3654 15.2426
29.2896 20.3739 14.5081
29.7194 21.1201 15.2589
29.8643 20.9163 14.906
29.7193 21.1323 15.2564
29.2616 20.8884 15.1228
28.672 20.6512 15.1966
29.3213 20.8514 15.1188
29.4293 21.4032 15.5605
28.4906 21.1443 15.8366
28.8715 20.9747 15.4937
28.2457 20.967 15.8934
28.622 20.6883 15.2402
27.9022 20.9375 16.015
28.8025 21.0079 15.5681
27.4227 20.6621 15.7787
28.6571 21.4857 16.3587
27.1291 20.3939 15.5543
27.8742 21.0759 16.1129
26.9206 20.7789 16.2005
26.9526 20.661 16.1308
27.0317 20.5453 15.8912
27.3927 21.3504 16.6475
26.6281 20.5553 16.1192
26.5012 20.8724 16.6313
27.1324 21.1421 16.729
26.4375 20.803 16.7037
27.4554 21.5477 17.0576
25.6537 20.4788 16.5266
26.4345 21.0986 17.0767
26.8257 21.6094 17.5838
26.6664 21.3862 17.4149
26.3284 21.1682 17.3416
25.6285 20.7726 17.176
26.032 20.9664 17.2287
25.8625 21.0044 17.2883
26.1519 21.3104 17.5812
24.8597 20.6199 17.3578
25.5669 21.2488 17.89
25.853 21.4165 17.9482
25.4035 21.3151 18.1002
24.7715 20.6648 17.5072
25.102 21.2643 18.1892
24.2865 20.5298 17.6826
24.3781 20.6811 17.921
24.4319 20.7945 18.0144
24.5805 20.9669 18.255
24.5427 20.8312 17.9993
24.1549 20.7946 18.1135
23.9234 20.6425 18.073
23.8566 20.9808 18.5518
23.8071 20.6159 18.2319
23.5684 20.5883 18.3628
23.7585 20.9617 18.753
23.7897 20.9121 18.6824
23.3768 20.8081 18.8072
22.7343 20.2851 18.4483
23.0741 20.6656 18.9432
23.5232 20.9101 18.9636
23.9053 21.4473 19.3972
22.7105 20.5273 18.7876
22.569 20.6938 19.212
22.6701 20.6367 19.2249
23.0399 21.0565 19.547
21.9566 20.1665 18.8985
22.9141 21.0712 19.5607
22.0303 20.5834 19.4002
22.1873 20.6337 19.4726
21.8582 20.3388 19.2875
22.1416 20.8959 19.9005
21.5061 20.1586 19.2046
21.1683 20.1308 19.5308
21.6258 20.4795 19.7152
21.4103 20.5652 20.0293
22.0192 21.0624 20.5138
22.0222 20.8334 20.0695
21.5166 20.8915 20.5582
21.7903 21.1813 20.8353
21.0495 20.4224 20.1779
21.3796 20.9677 20.8706
20.9383 20.6565 21.0312
20.8505 21.3448 24.5776
45.6594 43.2215 37.5765
20.6495 21.1191 21.9815
21.0105 20.8679 21.111
20.5164 20.6551 21.1253
20.4654 20.6213 21.12
20.6589 20.568 21.0029
21.1939 21.3775 21.8072
20.2633 20.6343 21.3561
20.7226 20.8511 21.3713
19.9806 20.2267 20.7982
20.0365 20.6416 21.5343
20.0754 20.6263 21.4153
19.4439 20.0672 21.2213
20.2418 20.9324 21.8271
19.9026 20.7733 22.025
19.707 20.5179 21.8271
20.0954 20.7518 21.7472
19.7845 21.1383 22.6815
19.1008 20.2598 21.8645
18.9939 19.8222 21.2093
19.1627 20.3785 21.883
19.1255 20.6019 22.5977
19.0512 20.2735 21.9974
19.1149 20.3112 21.9886
18.9437 20.5795 22.6589
19.0177 20.2741 22.0406
18.7741 20.4778 22.6098
18.9192 20.4542 22.5463
19.0424 20.7308 22.6075
17.958 20.1238 22.8687
18.6969 20.1323 22.135
18.2949 20.4609 23.0277
18.6273 20.591 23.0718
18.609 20.4985 22.863
17.4726 19.5406 22.1413
17.9919 20.3972 23.3866
18.4869 20.6863 23.4161
17.5514 19.7537 22.5233
17.7706 20.0895 22.9798
17.3226 19.6267 22.5673
17.365 19.8586 23.1501
18.1001 20.6979 23.7195
17.6227 20.2256 23.3482
16.9055 19.5645 22.9315
16.7982 19.7178 23.4599
17.5703 20.2399 23.7493
17.2689 19.8595 23.3822
17.175 20.3622 24.4064
17.3329 20.3137 24.4079
17.6954 20.364 23.8728
17.1608 20.3049 24.1626
17.1163 20.262 24.293
16.7723 19.6776 23.5435
16.9017 20.038 23.8316
16.5146 19.9827 24.7126
17.2136 20.3183 24.2764
16.807 20.3347 24.8226
16.6085 19.9561 24.3787
16.6173 20.3359 25.1685
16.731 20.1435 24.884
16.297 19.7924 24.2613
15.9568 19.5846 24.4798
16.7994 20.5419 25.3282
16.2063 19.8308 24.7095
16.0956 19.7816 24.5528
15.5707 19.188 24.0214
15.8071 19.841 25.0305
15.9838 19.9373 25.2555
16.1201 19.8347 24.6781
15.2661 19.5044 25.2064
15.4271 19.2876 24.6258
15.6162 19.8422 25.5457
15.4621 19.5348 25.3345
15.8869 20.1257 25.8217
15.7341 19.7313 25.0422
14.5007 18.8842 25.0918
15.4656 19.4685 25.1993
15.2658 19.4706 25.1784
15.2773 20.0141 26.452
15.4826 19.8282 25.9613
15.7207 20.368 26.6018
15.4903 20.3646 27.0553
15.4844 19.9092 25.9869
15.237 20.3598 27.301
15.2238 19.9193 26.677
15.3806 19.9944 26.2473
14.6091 19.5998 26.5401
14.6899 19.6047 26.7477
14.8048 19.4664 26.1139
14.7461 19.6438 26.5645
14.4591 19.5017 26.5201
14.4058 19.5592 27.2187
15.0459 19.8876 27.0146
14.8343 20.1482 27.6891
14.4377 19.8599 28.2538
14.5904 21.2597 36.3057
32.3695 41.2933 46.7891
14.7463 20.4987 28.782
14.0864 19.7752 27.9978
14.0528 19.6025 28.2173
14.9435 20.2146 27.8567
13.8452 19.0882 26.8997
13.9926 19.4122 27.4524
14.1128 19.4599 27.0081
13.613 19.2058 27.311
13.7608 19.1931 27.3515
13.8809 19.718 28.16
13.3716 18.7317 26.9953
13.8462 19.5277 27.7989
13.8764 19.5727 27.8403
13.064 18.7462 27.4422
13.3112 18.63 26.7272
13.3956 19.3309 28.0242
13.2889 19.2854 28.3405
13.4032 19.2183 28.192
13.5479 19.2497 27.7074
13.0377 18.98 28.0009
13.3685 19.3438 28.3083
12.6517 18.2342 27.0407
13.1076 19.3661 28.9286
13.076 19.1124 28.6416
13.3145 19.2318 28.382
13.0556 19.2892 28.7236
12.97 18.929 28.2843
13.3161 20.0264 30.2803
13.419 19.8619 29.7157
12.9569 19.153 28.7493
12.5337 18.7107 28.5186
12.4493 18.2612 27.5459
12.1833 18.299 28.1946
12.75 18.991 28.5311
12.2771 18.4356 28.0299
12.3794 19.0847 29.6558
12.4215 18.665 28.7092
12.2855 18.7027 29.0699
12.5199 18.9018 28.9183
12.4024 18.8262 29.0076
12.1387 18.8862 30.0716
12.862 19.1693 28.9451
11.7521 18.4597 29.3624
12.2079 18.7682 29.3594
12.0702 18.608 28.9955
11.8549 18.3627 29.1822
11.9139 18.3915 29.0632
12.0041 18.5363 29.0034
11.7762 18.4153 29.1341
11.8537 18.8693 30.2056
11.5711 17.928 28.4771
11.5102 18.2841 29.5912
11.9169 18.89 30.342
11.6658 18.4951 30.1068
11.7902 18.3111 28.9765
11.488 18.3822 29.4951
11.5265 18.4231 29.8332
11.6137 18.8696 31.1614
12.038 19.1813 30.7717
11.3209 18.4644 30.7413
11.5754 18.3767 29.8304
11.1812 18.1583 29.8959
11.1168 18.0372 29.9561
11.2979 18.1828 29.8638
11.1502 18.1202 29.7162
10.9676 18.0703 30.043
11.0081 18.0366 30.4017
11.2566 18.3647 30.2073
11.0023 18.2779 30.68
11.0868 18.553 31.4328
10.8992 17.9061 30.2534
11.1098 18.3727 30.6101
10.7025 17.8879 30.5926
11.0569 18.4209 31.0491
10.9568 18.4176 31.0116
10.605 18.0814 31.5446
11.1671 18.4529 31.0436
10.4292 17.7748 31.0869
10.9046 18.0597 30.7926
10.7282 18.0595 30.9206
10.7389 18.4408 31.5323
10.7072 18.3253 31.7552
10.4683 17.6 30.1038
10.2129 17.8919 31.5978
10.3914 17.8956 31.3767
10.1935 17.436 30.4967
9.90763 17.1505 30.7625
10.4467 17.8465 31.0449
10.2489 17.6551 30.7782
9.95449 17.3651 30.7554
10.0271 17.7746 32.2876
10.5948 18.34 32.2485
10.266 18.2427 32.6713
9.83905 17.5876 32.758
9.84476 19.0485 46.1594
23.2026 37.018 49.6623
9.79994 18.3707 33.8043
10.0445 18.2688 33.4084
10.0236 17.8485 32.6367
10.0621 17.6447 31.6297
9.89215 17.7777 32.1706
9.7272 17.5361 32.0394
9.73967 17.3661 31.5759
9.68262 17.4438 31.8808
9.81374 17.8513 33.0812
9.92742 17.8538 32.4205
9.56161 17.37 31.9612
9.58695 17.1945 31.4989
9.32896 17.0211 31.4892
9.32005 16.9444 31.2511
9.21061 17.1197 32.3241
9.61437 17.2187 31.6749
9.3858 17.5719 33.2834
9.61276 17.7917 33.4497
9.49931 17.1746 32.1567
9.47609 17.4979 32.5958
9.28268 16.9777 31.7004
9.07265 16.8828 31.7725
9.09328 17.1665 33.2969
9.5879 17.6622 32.9212
9.1172 17.1241 32.5418
9.06575 16.9777 32.5735
9.02528 16.9087 32.7216
9.09421 16.7401 31.8988
8.92274 16.8352 32.2597
8.88689 16.6444 31.8792
8.80316 16.5598 31.745
8.89667 17.0228 33.1775
9.06173 17.0221 32.7231
8.97613 17.1302 33.2702
8.85515 17.0261 33.0317
8.73066 16.6276 32.8067
8.856 16.7518 32.3019
8.39611 16.0732 31.7341
8.59866 16.7007 33.0643
8.61302 16.2372 31.6424
8.65675 16.939 33.2971
8.57149 16.4825 32.0935
8.39871 16.4354 32.7552
8.55698 16.6585 32.7321
8.27043 16.0406 31.7529
8.20709 16.2443 32.6985
8.30529 16.4376 34.3114
9.39361 17.9411 33.9024
8.049 15.8554 32.0652
8.05347 15.9551 32.667
8.30741 16.3653 32.9237
8.37418 16.5257 33.3325
8.34757 16.3888 32.7983
8.34448 16.6655 33.3088
8.18469 16.5207 33.7696
8.06395 15.8572 32.45
8.17049 16.1971 32.285
7.81768 15.8814 32.5455
8.05525 16.2768 33.0537
7.85465 15.8923 32.6708
7.78419 16.0602 33.3408
7.82012 16.1033 34.0346
8.12022 16.1071 32.9441
8.01479 16.4014 33.9322
7.887 16.0145 33.5278
7.9553 16.1844 33.5374
7.80919 15.9499 33.2044
7.72663 15.7814 32.8648
7.77322 16.1312 33.7556
7.69438 15.7365 33.0826
7.57713 15.5774 33.3473
8.02761 16.4927 34.1674
7.78846 16.1186 33.7389
7.66538 16.0327 34.1366
7.73992 15.9012 32.8907
7.27874 15.499 33.8794
7.63445 15.8168 33.6735
7.53215 15.6178 33.2722
7.6293 15.9613 34.3579
7.61289 15.8201 33.3387
7.3489 15.5051 33.4035
7.44872 15.8467 33.9438
7.4534 15.7274 33.8836
7.46345 15.6663 33.5525
7.29714 15.5447 33.8619
7.48286 15.9156 34.4056
7.39604 15.6503 33.6187
7.26415 15.5086 33.8357
7.41137 15.9413 34.5857
7.19932 15.3112 33.7033
7.33302 15.5001 33.2123
6.95496 15.2991 34.0676
7.10019 15.453 34.4819
7.31181 16.5341 37.4828
7.12459 17.7255 57.2388
17.4833 33.4887 51.6381
6.926 15.7319 35.3681
7.11555 15.6173 34.258
6.99871 15.6838 34.4861
6.96467 15.7849 35.6993
7.05822 15.3219 34.485
6.88798 15.0249 33.7436
6.83936 14.8824 33.6686
6.95951 15.1674 33.4291
6.60208 14.665 33.4402
7.02993 15.6193 34.4516
6.65371 14.7775 33.4916
6.70099 15.0349 34.2564
6.76221 14.8966 33.9023
6.77432 15.3181 35.1938
6.92817 15.2855 34.3789
6.62799 14.817 33.5268
6.48198 14.798 34.6277
6.73244 14.7774 33.5769
6.54818 14.5845 33.5553
6.71203 15.0505 33.6891
6.29061 14.3507 33.3902
6.56793 14.9579 33.9379
6.39145 14.5428 33.8886
6.61996 15.1493 34.5632
6.41546 14.7704 34.8282
6.51989 14.683 33.9811
6.4587 14.8439 34.7824
6.51989 14.5561 33.2245
6.36076 14.8787 35.4801
6.58815 14.7351 33.5668
6.27111 14.763 34.7172
6.33825 14.5595 34.2446
6.29891 14.6536 34.7827
6.40156 14.6108 34.3777
6.18732 14.214 33.7405
6.2203 14.5324 34.4877
6.26664 14.3906 33.7506
6.0376 14.1054 33.8563
6.14197 14.1857 33.8001
6.2764 14.5371 34.2236
6.18122 14.4889 34.7007
6.12685 14.1526 33.5279
5.87906 13.7529 33.6642
6.14969 14.2713 33.632
6.04069 14.3708 34.3502
6.10226 14.3118 34.0509
5.92869 14.1298 34.2519
5.963 14.0877 34.4082
5.96725 14.1054 34.0793
5.91894 14.1627 34.7269
6.0277 14.1958 34.3428
5.92027 13.9014 33.5238
5.75207 13.6183 32.8972
5.89669 14.4179 35.3628
5.97429 14.3347 34.9521
5.93739 14.1821 34.6221
5.73766 13.7561 34.3814
5.99137 14.3932 34.5559
