# pn-170911/RbIIR-47-RbIIF-1280-1959.psd
# Power spectrum* (dif=0,1,2) (really just |FT|^2)
# NOTE: only the first half! (symmetric)
# weeks: 1280-1959
# 2394 clock-days, 146 excluded
# PSD: 1441
988.21 0.226196 0.029263
70265.8 1.51065 0.045683
241403 5.59578 0.0475426
43152.5 1.40293 0.0479359
93537 7.54421 0.0480174
12322.9 0.955886 0.0489062
10919.9 1.71123 0.0484713
5914.95 0.844902 0.0468294
5894.09 1.42889 0.048376
3520.74 0.744396 0.0470811
3056.54 0.947385 0.0476893
2270.53 0.799255 0.0498542
2239.23 0.991512 0.0509669
1762.2 0.821679 0.0483311
1513.76 0.885703 0.0492504
1406.11 0.904344 0.0487794
1275.5 1.07768 0.0487526
1077.15 0.947882 0.0502416
1099.36 1.10869 0.0501028
974.27 1.09156 0.0505509
915.418 1.18307 0.0511732
812.819 1.16738 0.0486512
809.384 1.33995 0.0521695
752.435 1.32639 0.0521842
740.643 1.48935 0.0497131
693.527 1.52289 0.053889
695.844 1.68529 0.0543084
637.813 1.69572 0.0529742
638.154 1.87675 0.0548881
600.048 1.93262 0.0545565
609.814 2.02486 0.0552433
609.145 2.15336 0.0566406
599.656 2.34369 0.0604616
560.256 2.359 0.0614737
564.498 2.56324 0.0627589
591.378 2.82385 0.064678
559.307 2.89096 0.066061
543.957 2.95836 0.066246
560.78 3.19053 0.0717582
552.395 3.3809 0.0723324
560.023 3.69332 0.0762343
497.67 3.4363 0.0783833
504.182 3.65953 0.0787908
513.232 4.03598 0.0824794
531.003 4.44134 0.0947144
513.289 4.37818 0.0910443
487.182 4.38226 0.0928513
479.085 4.41296 0.0924509
513.287 5.06598 0.104332
498.103 5.03983 0.107745
472.929 5.11821 0.108306
477.593 5.36586 0.110586
487.896 5.61289 0.121479
485.934 5.87741 0.125308
461.235 5.77386 0.131919
446.539 5.73197 0.132269
468.079 6.2885 0.141195
475.163 6.65586 0.15082
460.647 6.78221 0.15518
397.505 6.0549 0.151103
447.334 6.9366 0.167765
422.749 6.82207 0.164152
418.838 7.05785 0.173391
414.274 7.298 0.182592
399.979 7.29132 0.189361
411.913 7.7018 0.201844
407.56 7.81481 0.212162
387.688 7.63818 0.20675
365.359 7.42269 0.208514
391.967 8.14433 0.227092
369.906 7.98907 0.23464
368.235 8.30226 0.248214
383.84 8.98677 0.26916
364.093 8.4769 0.259622
375.502 9.13511 0.286001
330.66 8.22513 0.266413
356.942 9.14925 0.294884
344.343 9.08666 0.296474
355.021 9.59527 0.320012
327.977 9.28386 0.319902
316.953 9.12594 0.327155
319.92 9.37552 0.33343
328.433 9.86767 0.361106
326.257 10.002 0.373556
319.555 10.1533 0.387358
314.352 10.0015 0.385378
300.265 9.86967 0.390797
297.756 10.151 0.413825
311.399 10.7548 0.441107
285.957 10.1098 0.421557
293.801 10.6126 0.453579
311.301 11.7772 0.502645
285.211 10.7797 0.476574
272.307 10.5704 0.47789
269.32 10.6522 0.494772
267.023 11.0454 0.518754
364.173 15.3525 0.709519
258.7 10.8622 0.527091
257.749 11.1314 0.549007
248.487 10.796 0.539557
248.922 11.1259 0.569206
258.591 11.8693 0.61869
266.304 12.3927 0.650901
250.723 11.871 0.641632
239.187 11.6035 0.633472
244.623 12.144 0.675762
248.277 12.3638 0.700996
234.178 12.1984 0.701997
239.672 12.7299 0.73851
242.368 12.9231 0.763852
231.187 12.4816 0.746649
219.312 12.2285 0.753679
209.313 11.8946 0.758692
236.015 13.7358 0.87142
226.748 13.385 0.866842
206.158 12.2684 0.805018
209.716 12.7324 0.840885
195.297 11.9335 0.812357
202.336 12.8918 0.884925
208.724 13.4308 0.938369
209.358 13.6891 0.967903
200.525 13.3198 0.960221
182.706 12.4573 0.913475
200.653 13.7802 1.01912
190.916 13.0675 0.982969
190.297 13.7017 1.0609
199.071 14.2882 1.10775
180.571 13.0908 1.03926
186.414 13.7817 1.0959
178.382 13.4744 1.10134
177.256 13.5693 1.11678
183.953 14.2781 1.19253
184.358 14.3004 1.21361
173.352 13.8199 1.17266
169.838 13.7212 1.19012
176.34 14.5521 1.28617
166.95 13.965 1.26589
161.435 13.671 1.24063
161.563 13.6595 1.25616
159.33 13.9491 1.3108
162.668 14.7123 1.39452
154.75 13.8501 1.32652
155.972 13.9144 1.34914
160.785 15.1118 1.50586
164.622 15.3685 1.53215
161.659 15.263 1.53621
151.656 14.508 1.49994
157.055 15.3571 1.58223
150.566 14.9722 1.58269
157.806 15.5416 1.65231
141.872 14.4097 1.5568
147.029 15.0667 1.63646
138.269 14.3636 1.59085
146.81 15.7151 1.76995
154.782 16.3386 1.85322
148.079 16.1621 1.87694
150.413 16.3848 1.90805
140.615 15.6154 1.83723
135.611 15.2769 1.8346
138.846 15.6374 1.88864
132.803 15.377 1.88076
138.497 16.3448 2.01103
133.905 15.6751 1.95362
135.091 16.1694 2.06077
133.774 16.263 2.07387
129.745 15.8864 2.06646
127.167 15.7926 2.08378
136.821 17.1114 2.26157
129.613 16.7222 2.27961
128.036 16.3172 2.20497
132.801 17.1234 2.3531
128.035 16.8963 2.32974
125.674 16.8092 2.38747
118.032 15.794 2.24427
120.004 16.6111 2.40799
125.799 17.27 2.48657
118.374 16.6073 2.42258
118.959 16.7202 2.48553
121.083 17.4728 2.63978
116.934 17.0363 2.58489
122.939 17.7493 2.72304
116.835 17.0922 2.63584
113.439 16.8734 2.63217
119.478 18.0242 2.86041
112.231 17.0495 2.71704
111.974 17.2951 2.83203
116.466 17.9894 2.91531
114.56 18.1145 2.99357
108.254 17.2018 2.87597
109.604 17.6331 2.97155
106.904 17.3756 2.94741
104.126 16.8712 2.91243
153.19 25.8431 4.43673
107.363 17.8117 3.10761
99.5104 16.9424 3.01945
105.202 18.2312 3.31589
101.28 17.3829 3.11819
100.479 17.5708 3.20762
101.21 17.9619 3.31124
101.019 17.9738 3.36101
100.466 18.2958 3.41643
100.329 18.3468 3.53807
98.1351 18.0902 3.45655
98.6725 18.6176 3.62339
101.116 19.0335 3.73027
100.541 18.9228 3.71974
98.1124 18.8631 3.74478
94.2562 17.9462 3.61269
96.9668 18.7199 3.80748
94.3186 18.6266 3.82457
96.9192 19.1054 3.93303
95.9731 19.3622 4.03066
91.5877 18.5971 3.93686
90.9492 18.4909 3.90633
93.331 19.4597 4.20303
95.3589 20.2879 4.4422
95.0034 19.6708 4.23589
91.4551 19.5937 4.31904
90.6717 19.3517 4.30249
88.7821 19.2407 4.33357
88.303 19.2883 4.37764
84.4552 18.805 4.30437
88.5833 19.6913 4.5898
88.9694 19.8591 4.54113
85.3695 19.483 4.58544
89.7458 20.3104 4.75358
82.9877 18.8391 4.49591
84.7624 19.7757 4.78319
86.496 20.1646 4.91992
85.2909 20.0952 4.89438
83.355 19.8094 4.90322
84.5346 20.1354 4.98407
82.9148 20.1283 5.05953
81.4421 19.9714 5.10688
82.1793 20.3939 5.1991
83.2291 20.7186 5.33932
79.7626 19.7841 5.09198
77.4352 19.593 5.13827
74.4356 19.1061 5.05661
77.026 19.8774 5.36762
82.5713 21.3731 5.68503
79.6396 21.0509 5.6968
75.6992 19.8708 5.41423
76.5536 20.1468 5.45805
78.4054 21.1603 5.91986
76.889 20.5583 5.66721
78.6599 21.3968 6.0026
73.6407 20.5509 5.86534
75.3555 21.0285 6.02285
74.5525 20.6002 5.94146
71.7128 20.0949 5.82086
69.4133 19.8798 5.9354
72.1822 20.4471 5.96493
72.6357 21.0586 6.24965
73.7077 21.3674 6.36863
71.2101 20.868 6.34873
69.8879 20.1869 6.10211
71.1977 21.2796 6.54382
71.7806 21.3967 6.56328
68.5215 20.6554 6.46356
70.5447 21.5644 6.76111
70.4032 21.1144 6.59175
66.9198 20.7535 6.64562
70.7081 22.1278 7.06977
73.279 23.1299 7.48862
68.058 21.0761 6.73722
65.5263 21.1758 7.05054
68.2404 22.0875 7.33823
66.7422 21.3508 7.09701
66.1231 21.4493 7.17831
67.9936 22.2849 7.50872
66.857 21.9697 7.38967
62.2535 20.597 7.03121
63.6111 21.4511 7.4846
65.5132 22.1199 7.60671
65.0818 22.1903 7.81264
68.1727 23.3059 8.15943
65.1018 22.2004 7.86127
64.5909 22.0263 7.79496
61.3876 21.372 7.71055
63.5217 22.241 7.98765
60.8822 21.8175 8.00341
62.6977 22.141 8.1177
60.6692 21.7191 7.97754
61.3341 22.1342 8.28841
59.6857 21.6505 8.11175
59.3452 21.7266 8.28207
59.6113 22.2918 8.68786
91.0988 33.5099 12.3794
61.6075 22.9014 8.83177
58.6917 21.7721 8.45765
58.7897 22.2987 8.745
59.8793 22.2962 8.77514
59.0324 22.6885 8.97873
60.0627 22.7645 8.92969
57.1126 22.4125 9.02607
56.4605 21.9134 8.75514
57.1183 22.6504 9.22603
55.9257 22.0326 8.946
57.3368 22.9015 9.42012
56.3995 22.4543 9.29419
56.249 22.7564 9.46908
57.3664 23.1314 9.65239
54.9568 22.3811 9.39084
53.6284 22.0981 9.41352
52.0812 21.721 9.33557
54.7249 22.619 9.67841
52.4498 22.0588 9.50123
53.1569 22.7008 9.98738
52.9715 22.2422 9.71038
53.1684 22.8189 10.1224
53.9197 23.0161 10.1763
53.9066 23.1144 10.199
52.3089 22.7603 10.2622
52.0819 22.5477 10.1349
50.7866 22.5066 10.2873
49.8403 21.8579 10.0797
52.261 23.3461 10.6523
52.4886 23.6141 10.9235
51.2071 23.0742 10.687
51.8272 23.3749 10.9322
50.2657 23.0916 10.9163
50.7277 23.6674 11.2428
49.8343 23.1622 10.9656
49.2679 23.0452 11.0922
50.1769 23.6787 11.5444
51.2052 23.6537 11.3533
49.6042 23.8077 11.5219
49.3225 23.5332 11.566
48.934 23.4073 11.5398
49.137 23.7782 11.8139
48.5515 23.4533 11.7546
46.8187 22.9937 11.5545
47.111 22.8735 11.3775
46.114 23.1871 11.9493
47.3576 23.3164 11.8754
48.0598 23.9515 12.2261
46.8786 23.5622 12.217
44.9992 22.6073 11.785
45.5817 23.0663 11.9371
45.4342 23.5321 12.4426
45.0705 23.4748 12.6331
46.8529 24.0706 12.713
45.5152 23.4929 12.4534
44.5993 23.4125 12.5317
45.5828 24.3348 13.1536
42.9815 22.7297 12.5033
45.1446 24.1169 13.0287
42.467 22.9947 12.7781
44.3842 23.8029 13.1999
42.7949 22.7444 12.5586
44.2515 23.7838 13.2399
43.7474 23.5086 13.0696
41.9844 23.0183 13.1157
42.7555 23.7828 13.4864
43.6495 24.0279 13.6556
42.5771 23.7607 13.6742
40.6342 22.5646 12.986
41.7084 23.587 13.7024
41.4981 23.8779 14.0813
42.6912 24.2047 14.0397
41.1051 23.3264 13.6423
42.7154 24.8249 14.7563
41.5978 24.0862 14.2763
40.0091 23.617 14.2587
41.4307 24.2242 14.6477
42.0144 24.3402 14.6799
40.8513 23.7763 14.3833
39.9708 23.7526 14.6202
39.5854 23.5514 14.4531
38.6418 23.1913 14.2621
37.9091 22.9318 14.3227
39.2734 23.7196 14.7581
38.9433 23.5558 14.6226
39.0756 24.0352 15.1708
37.6326 23.4229 14.9597
40.6825 24.8433 15.6133
37.7706 23.7508 15.3657
38.1925 23.8176 15.4977
37.6533 23.3619 14.987
38.2233 24.1073 15.666
37.533 23.7024 15.5277
37.4577 24.5822 16.4733
38.3314 24.1726 16.386
56.0716 35.4526 22.22
37.0371 24.0155 15.9744
37.0946 24.3479 16.4298
36.9194 23.7348 15.9787
37.4383 24.594 16.561
36.7208 24.0717 16.5491
36.9002 24.2126 16.4091
35.9522 24.0528 16.5114
35.2036 23.5901 16.2496
35.6354 23.9341 16.5461
36.1852 24.1781 16.6644
35.0525 23.4345 16.3076
35.4684 23.9378 16.7359
34.0961 23.5358 16.5616
34.1454 23.4224 16.7927
33.5752 23.2437 16.616
35.6129 24.6587 17.4263
33.8552 24.0363 17.6245
35.1874 24.0455 17.1486
33.3916 23.4747 16.9835
34.633 24.3863 17.6233
34.0142 24.1569 17.5046
32.0191 23.4959 17.5907
33.6675 23.7409 17.4181
33.1775 23.9427 17.703
32.5864 23.7191 17.5828
32.9551 24.3218 18.4163
33.7654 24.4419 18.2865
32.744 24.0492 18.0702
32.9428 24.5637 18.9903
32.8843 23.9547 18.2136
33.1996 24.715 18.8429
32.0997 23.4606 17.7728
32.7808 24.768 19.0175
31.6731 23.8661 18.4599
30.7948 23.1957 18.2372
31.9461 24.1877 19.0185
31.6015 24.0651 18.9899
31.4432 23.6743 18.5822
32.9568 25.5015 20.1749
31.6355 24.5151 19.3631
32.2807 25.0234 20.1177
32.0477 24.5849 19.6823
30.968 24.33 19.6266
30.4942 23.7673 19.3259
30.9081 24.1048 19.3891
29.4122 23.5685 19.2314
29.6787 23.738 19.5305
29.6064 23.8241 19.706
29.6375 23.5893 19.4261
30.4887 24.8091 20.5138
28.7705 23.5754 19.8636
28.7569 23.3407 19.6292
28.4558 23.5548 20.117
28.909 23.4336 19.7269
30.3515 24.8913 20.9515
29.2123 24.1922 20.609
28.0785 23.3528 20.1721
28.7882 23.8889 20.497
28.7073 23.8196 20.4622
28.3924 23.8418 20.5849
27.6723 23.418 20.4203
28.3059 24.3249 21.5388
27.0973 23.2273 20.5824
27.5154 23.1425 20.3168
27.0354 22.9864 20.2887
27.9362 24.5434 22.0576
27.6218 23.727 21.0338
28.7423 25.3102 22.6693
28.2269 24.298 21.7386
27.7352 24.0849 21.6591
26.9065 23.9868 21.9306
27.7942 24.1115 21.7013
27.041 23.7184 21.5349
26.7539 24.2604 22.5526
27.5986 24.8235 22.7889
27.5791 24.7438 22.8162
26.5973 24.0877 22.3519
26.0665 23.9468 22.497
25.9479 23.7126 22.3878
26.1888 23.7033 22.2814
25.8994 23.5936 22.2884
26.8744 24.5306 22.9273
25.2598 23.532 22.7064
26.6719 24.5439 23.1731
25.224 23.6071 22.8272
25.7669 24.029 23.1876
25.5438 24.0857 23.3613
25.0733 23.3343 22.6659
26.3417 24.9218 24.3146
25.0216 23.4664 22.9588
26.2933 24.9446 24.5498
25.1443 24.0483 23.9393
25.5019 23.9817 23.5649
25.3138 24.7535 24.778
24.8714 23.929 25.2899
37.7449 36.0844 32.9433
24.7157 24.6671 25.199
25.7776 25.477 25.9523
24.9771 24.4289 25.0786
25.2519 24.6971 24.8329
24.5292 24.1927 24.5757
23.6747 23.3096 23.7061
23.3395 23.522 24.2227
22.4767 22.3164 23.2151
23.3753 23.422 24.4225
23.8477 23.5959 23.9819
22.9737 23.5985 24.7145
23.4712 23.9544 25.0027
23.1745 23.7294 25.0961
23.572 23.9898 25.1381
23.1945 23.8108 24.9367
23.4218 24.4021 26.1493
22.5352 23.3981 25.0778
22.1049 22.9736 24.8714
22.526 23.1332 24.6131
22.418 23.3019 25.2708
22.992 23.6576 25.2631
22.1761 23.4613 25.4143
21.343 22.6298 25.163
22.1447 23.3055 25.0893
22.0488 23.6081 25.9354
22.1069 23.3233 25.694
21.7189 22.6578 24.9568
21.5026 22.909 25.3513
22.2991 23.8196 26.0022
21.6785 23.7393 26.4572
21.4435 23.5476 26.9258
21.7693 23.3642 26.1721
22.0013 23.7851 26.4068
21.7714 24.1855 27.6033
21.9159 23.8315 26.9816
21.6954 23.8728 26.9296
21.9673 24.1739 27.6168
21.2306 23.6916 27.2259
20.4718 22.5804 26.1652
21.3469 23.9844 27.7127
20.9599 23.054 26.3664
20.7583 23.7987 27.6885
21.2732 23.9293 27.468
20.5891 23.6755 28.0886
19.7654 22.3469 26.7286
21.164 23.9264 27.9775
21.2637 24.1837 28.4079
20.0598 22.7145 27.0409
20.2524 23.2648 27.6902
20.3228 23.6563 28.4336
20.3794 23.7085 28.5469
19.9817 23.1755 28.3919
20.8721 23.8889 28.7589
20.2146 23.7058 28.8646
20.1355 23.5018 28.2964
20.0267 23.5844 28.6889
19.0269 22.6587 28.3031
20.1071 23.3105 28.1508
19.6081 23.3374 28.4289
19.8925 23.9796 29.4819
19.5611 23.5822 29.2707
19.6584 23.7534 29.5643
19.2038 23.1378 28.9163
19.5921 23.6898 29.4197
19.3931 23.8718 30.0946
19.0095 23.4123 29.5508
18.7613 23.0599 29.3797
18.4912 22.6307 28.797
19.092 23.4968 29.6884
18.8341 23.0087 29.4233
19.2475 23.9079 30.2128
18.6757 23.3142 30.2437
18.9554 23.2136 29.7755
18.2318 22.9153 29.8272
19.055 24.1772 31.563
18.4353 22.8118 29.4977
18.6199 23.5739 30.2728
17.7936 22.9974 30.4191
17.6705 22.313 29.5558
18.4175 23.1748 30.1204
17.8683 22.9202 30.2281
18.2585 23.391 30.7297
17.5084 22.4553 30.0715
17.4375 22.5564 30.3617
17.6367 22.9874 31.3052
17.5846 22.0117 29.386
17.8803 23.3231 31.2348
18.217 23.3531 31.1515
16.6783 21.7482 29.5748
17.7306 23.1882 31.8567
17.6781 23.0033 31.187
17.4665 22.7248 31.4073
17.5725 22.9512 31.1436
17.6836 23.4193 32.6255
17.2012 23.6167 35.782
25.7295 32.3805 39.8535
17.0785 23.2193 32.3907
17.1406 22.6475 31.7714
17.3984 23.4431 32.5618
17.1827 22.8735 32.0134
16.966 22.9142 32.1349
17.0544 23.3321 32.7615
16.9635 22.9239 32.2011
16.6169 22.7147 32.5686
16.9227 22.7534 31.9232
16.5715 23.1305 32.8986
16.2294 22.396 32.1699
16.4926 22.8076 32.7365
16.599 23.1776 33.3575
16.3199 22.2449 31.564
15.7219 22.4916 33.0915
16.1897 22.7695 33.2832
16.2491 22.624 33.156
16.3571 22.7885 32.8394
15.8298 22.4342 32.7695
15.9313 22.9785 34.3654
16.3222 22.47 32.6688
15.7756 21.9969 31.5294
14.773 21.5887 32.201
15.3166 21.9306 32.3503
15.5225 22.2656 32.896
15.7422 22.7662 34.1929
15.5005 22.2871 33.1898
16.023 23.3073 34.3878
15.0089 21.9045 33.5511
15.2892 22.0587 33.2623
15.5382 22.7589 34.6688
15.6147 22.4045 33.6181
14.7488 21.5993 32.9663
14.8608 21.9017 33.5344
14.5092 21.0338 32.541
14.8435 21.9863 33.7985
15.3702 22.5685 34.4441
14.585 21.4123 33.1874
14.7876 21.7789 33.2017
14.3711 21.6424 33.3012
14.5841 21.7824 34.1239
14.554 21.8023 33.959
14.673 21.8465 33.1711
14.0161 21.7784 34.8997
14.9572 22.3772 34.7378
14.409 22.0159 34.6411
14.2864 22.2524 35.5926
14.0926 21.274 33.9059
14.3344 22.1706 34.9515
13.8979 21.3561 34.4125
14.4521 22.1034 35.6788
13.7722 20.7579 33.0487
14.0471 21.6711 34.9272
14.3067 22.3219 35.9965
14.5619 22.221 35.3013
13.6346 21.3904 34.9314
14.4436 22.6252 36.3355
13.5501 21.3984 35.5706
14.2837 22.2425 35.5568
13.8527 22.3475 36.6439
13.7616 21.2908 34.8334
13.7186 21.7397 35.7659
13.9745 21.7983 35.2841
13.4564 21.4677 35.3562
13.2871 21.3807 35.9112
13.7786 21.7582 35.6295
13.663 21.9921 36.2378
13.5211 22.1955 37.3905
13.4308 21.6138 35.9145
13.4063 21.4561 35.7196
12.9626 21.2567 36.6585
13.3957 21.4245 35.8703
13.4236 21.5938 36.0677
12.9558 21.4243 36.1771
12.7047 20.8244 35.7055
13.1649 21.6543 36.6655
12.7322 21.0634 35.8534
12.5868 20.9446 35.7916
12.4275 20.5774 35.6431
12.8904 21.4528 36.6979
12.5729 21.0088 36.7401
13.1018 21.8035 37.3822
12.522 21.0227 36.4973
12.2231 20.3026 35.499
12.2527 20.6701 36.5527
12.7064 21.2749 36.9386
12.3562 20.3894 35.4625
12.2095 20.9327 36.9208
12.384 20.9324 37.2316
12.5344 21.3911 37.0727
11.9345 20.5525 37.1463
12.5053 21.1029 36.6627
11.8359 20.4116 36.5097
11.8423 20.3039 37.0249
11.6354 20.8522 43.113
17.7531 29.2919 45.2719
12.2617 20.9598 37.1486
11.704 20.5975 37.115
11.8806 20.8263 38.2074
12.2277 21.0142 37.6546
12.0739 20.8267 36.9281
11.7496 20.6697 37.8461
11.2996 19.5564 35.9431
11.5299 20.5877 38.0204
11.8359 20.6386 38.3705
12.2409 21.5672 39.5226
12.346 21.7168 39.5364
11.8716 20.6176 37.7525
11.8961 21.2051 39.4053
11.6661 20.4351 37.2597
11.3986 20.9676 40.2154
12.1289 21.0931 37.8093
11.2874 20.5925 38.9671
11.7139 20.8991 38.6332
11.1836 20.3731 38.3623
11.3614 20.47 38.7721
11.4542 20.6172 38.6677
11.3886 20.808 39.2577
11.2326 20.5317 38.7151
11.1223 20.222 38.2013
11.1348 20.5417 38.9643
11.2094 20.4074 38.7345
11.2065 20.6772 39.7232
11.2633 20.3032 38.9782
11.4564 21.1502 40.458
11.2948 20.5149 39.343
11.2909 20.7655 39.0373
10.6911 19.9313 38.6847
11.0598 20.517 39.4092
10.9695 20.6151 39.9089
10.8002 19.6877 37.9938
10.5413 19.7521 38.8802
10.7688 19.9688 38.8011
10.6677 20.5306 40.5151
10.4577 19.6834 39.8767
10.8788 19.9634 37.9302
10.4414 19.8126 39.0117
10.5181 19.8402 39.3189
10.6175 19.5844 37.9441
10.3917 19.8289 38.4492
9.89552 19.8672 40.0881
10.1527 19.491 39.426
10.3452 19.8772 40.5817
11.2001 21.4727 41.7723
10.0221 19.0766 37.9794
10.0437 19.6098 39.917
10.2508 19.4755 39.4971
10.3002 19.657 38.9103
10.0932 19.8183 40.3506
10.6127 20.7331 42.1467
10.1039 19.1773 38.7027
9.75811 19.4566 40.466
10.5792 20.5465 42.1386
10.2992 19.8563 40.1241
10.0442 19.3203 38.8762
9.73969 19.3707 39.8503
9.91811 19.7598 40.507
9.7187 19.198 39.8486
9.81059 19.507 40.3857
9.8292 19.1305 40.1375
10.0112 20.026 41.3209
9.91618 19.5112 40.7173
9.85464 19.338 39.7432
9.50477 18.932 39.4716
9.54641 19.014 39.1854
9.13094 18.3305 38.8974
9.46995 18.8162 39.6061
9.53595 19.3574 40.1843
9.3362 18.9933 39.5706
9.30687 19.0052 40.5106
9.22157 18.4498 39.2467
9.20203 18.6285 39.5495
9.06155 18.3184 39.3051
9.0742 18.2698 38.6643
9.01537 18.819 40.5061
9.0254 18.4096 38.9947
8.97602 18.642 40.4043
9.1756 18.3746 38.6808
8.84658 18.3578 39.7994
9.24824 18.9069 39.3447
8.8751 19.1604 42.9274
9.37104 18.8355 39.9374
8.88708 18.5661 40.7147
8.92115 18.2208 38.8829
8.52114 18.0374 40.162
8.98624 18.6428 40.5097
8.96166 18.9305 41.7016
8.68363 17.9735 39.4975
8.77522 18.7712 42.2146
8.90684 18.5339 41.1435
8.76211 19.3948 49.1311
12.4664 24.6741 45.7273
8.35917 18.4561 41.7562
8.67069 17.9956 40.0806
8.67852 18.2534 40.3019
8.62055 18.439 40.489
8.28778 18.1747 41.1293
8.36727 17.6814 40.163
8.38418 17.7407 39.647
8.44065 18.1814 40.7415
8.42496 18.0086 41.16
8.70689 18.4535 41.0273
8.58712 18.2241 40.2692
8.28021 18.184 41.4639
8.50225 18.0725 40.7909
8.68449 18.8221 41.4865
8.05747 17.4197 39.8522
8.07687 17.803 40.4961
8.16189 17.7234 40.747
8.22107 17.4243 39.0785
8.09343 18.0059 41.9111
8.10043 17.439 39.432
7.85597 17.3188 39.98
8.0702 18.0907 40.9312
7.93031 17.5665 41.2188
7.94527 17.4109 39.9405
7.69046 16.7008 39.3389
7.86631 17.4231 40.2326
7.8285 17.2905 40.8009
7.99095 17.6068 41.1902
8.05019 17.58 40.4054
7.69346 17.0232 40.4495
7.9286 17.271 39.3999
7.38423 16.5659 39.7033
7.90297 17.448 40.4549
7.43451 16.8017 39.9153
7.77228 17.6226 41.7681
7.81691 17.5107 40.2424
7.67921 17.5849 41.1638
7.3374 16.6116 40.637
7.6438 17.2849 41.3024
7.70299 17.1953 40.3088
7.66349 17.6777 41.9232
7.46901 17.2085 40.5182
7.33208 17.0778 41.3995
7.42893 16.7199 39.9824
7.37354 16.796 40.1328
7.27002 16.8423 41.1041
7.448 16.9061 40.5819
7.48066 17.607 42.34
7.48955 17.0551 41.2618
7.43279 17.0971 40.887
7.06501 16.4044 40.455
7.23062 16.5399 40.0977
7.11632 16.2992 40.4022
7.30031 16.5703 40.3283
7.35622 17.1015 41.5705
7.10283 16.3374 40.7071
7.30538 16.8472 40.9463
7.1705 16.316 38.9143
6.84058 16.5843 41.7046
