# pn-170911/RbIIA-31-RbII-1280-1959.psd
# Power spectrum* (dif=0,1,2) (really just |FT|^2)
# NOTE: only the first half! (symmetric)
# weeks: 1280-1959
# 136 clock-days, 35 excluded
# PSD: 1441
5905.18 0.131009 0.0171664
972572 21.7207 0.0391213
2.72889e+06 53.096 0.0456205
827502 29.4565 0.039015
421451 25.2332 0.0476202
253903 20.3021 0.041297
181929 18.8815 0.0503205
107946 14.08 0.0441383
73123.1 12.3775 0.0543374
59501.7 12.9851 0.0522544
42182.7 11.5659 0.0579126
38224.2 13.1361 0.049838
33229 10.1015 0.0575964
21726.5 9.69086 0.0565729
20041.3 10.0192 0.0647475
22150.3 13.0687 0.0539142
14749.6 9.77305 0.0647541
11136.7 8.3116 0.0616156
13199.7 8.90916 0.067851
10722.6 9.32946 0.0618242
10932.1 9.61763 0.0700574
10534.3 9.95405 0.0622355
8752.12 10.016 0.0791443
7600.3 8.30137 0.0647373
7235.01 7.48881 0.0634157
5437.67 8.74361 0.0669361
6951.71 9.36293 0.0962989
5637.39 8.09055 0.0713492
4622.22 7.71539 0.0713986
4991.36 8.44032 0.0809112
4147.86 8.25643 0.0876634
3518.57 7.71734 0.0824204
4699.55 10.6615 0.0950504
3699.4 9.63397 0.0921382
3576.08 8.86346 0.092901
3268.32 8.0555 0.0902392
2905.22 8.0921 0.0957697
2801.07 9.64831 0.105366
2649.8 8.68362 0.10021
2408.08 10.218 0.139066
2207.8 6.76093 0.115306
2476.23 9.55974 0.106525
2267.46 9.13472 0.119566
1904.94 8.84027 0.161164
1764.71 7.43333 0.130645
1842.59 7.83996 0.12174
1650.37 7.49143 0.0953973
1646.65 8.26751 0.143343
1583.58 9.75632 0.168868
1303.97 6.67041 0.12628
1509.71 8.39809 0.149024
1438.94 7.87261 0.134454
1617.45 8.43805 0.160807
1285.7 7.13788 0.171604
1389.34 8.80199 0.156929
1190.34 6.64674 0.129278
1167.69 7.93488 0.175686
1256.18 6.91924 0.173059
1289.73 9.37329 0.195073
1154.94 7.4164 0.1952
987.587 8.39592 0.188289
1137.46 8.63242 0.208299
985.027 6.24285 0.186584
1058.93 8.76609 0.244227
1039.2 8.70949 0.24982
881.226 7.96422 0.234769
959.925 9.52837 0.322905
938.593 9.07171 0.2731
788.075 7.93023 0.289352
781.513 7.56061 0.233388
809.776 8.14268 0.295023
827.714 8.20089 0.313903
774.671 8.29447 0.32808
696.527 7.27298 0.283197
638.671 7.93778 0.269474
744.671 8.91559 0.338106
637.41 7.65516 0.276667
731.263 8.39107 0.341132
533.177 7.64922 0.313684
645.444 9.03428 0.385915
479.966 6.56507 0.316233
516.146 8.39383 0.331259
521.958 8.5478 0.385358
658.178 8.72241 0.443582
548.507 8.81106 0.37427
554.828 7.56422 0.287062
532.195 8.56154 0.359844
487.766 9.48765 0.48641
455.772 7.86184 0.318191
461.57 8.37138 0.39473
446.032 8.22198 0.381223
444.241 7.29257 0.409771
434.673 8.40274 0.39361
468.881 7.07295 0.330479
422.545 7.71303 0.41841
464.898 8.85973 0.522831
449.986 8.20473 0.417042
417.642 7.62606 0.431435
390.175 7.43777 0.41353
426.617 8.75502 0.50902
371.944 7.34871 0.412171
371.816 8.01417 0.516856
369.207 6.78248 0.377211
373.19 7.77721 0.395999
339.794 7.24847 0.421596
337.446 7.9065 0.454373
326.16 6.60698 0.4033
350.212 7.07618 0.42268
354.557 8.07211 0.475677
334.212 6.96082 0.453238
371.852 10.6516 0.731136
297.285 7.91383 0.494975
329.571 6.66607 0.444287
282.227 7.08677 0.541562
337.777 7.45732 0.526043
291.788 8.03794 0.563672
289.258 7.74116 0.521884
248.053 8.73686 0.610593
240.86 7.86356 0.554373
232.416 6.75938 0.4813
256.275 8.02874 0.579816
273.06 8.36669 0.593996
189.931 6.38882 0.477332
237.658 7.04235 0.573462
253.961 10.0466 0.745593
226.174 8.41205 0.664127
213.442 8.08447 0.597986
203.425 7.45733 0.598651
239.616 8.23498 0.68828
212.201 7.72477 0.673252
215.284 8.14582 0.764821
207.133 7.65885 0.693789
210.805 8.22763 0.859435
204.862 6.05088 0.590943
203.723 8.20443 0.70043
185.662 8.37289 0.745725
200.028 7.9897 0.814748
235.738 9.48471 0.874469
203.129 8.81686 0.790262
186.802 7.30522 0.696817
172.671 7.09674 0.758843
193.841 6.79901 0.712419
196.985 6.63738 0.744912
200.788 7.96733 0.86462
209.421 7.81408 0.910335
205.715 8.97471 0.937161
185.84 7.50836 0.796827
188.14 8.14917 0.975668
174.674 6.86162 0.764239
184.903 7.29177 0.862704
175.1 7.40823 0.788294
211.187 8.6606 1.041
194.659 9.5717 1.0478
176.739 9.87465 1.11129
164.775 8.00428 0.932662
187.993 8.98503 1.03651
174.178 8.06693 0.922512
144.355 7.43228 0.908002
148.039 7.9123 0.904037
153.563 6.82613 0.968965
136.127 7.59042 0.953858
139.551 7.48243 0.991135
147.629 7.52633 0.943277
139.816 7.0003 0.92772
150.044 7.46574 0.948368
126.636 7.79461 1.00473
130.553 9.69541 1.17716
130.473 7.85248 1.08309
142.65 5.90933 0.799238
139.633 9.56344 1.24434
132.212 7.98264 1.03604
114.858 7.27363 1.04003
145.121 9.65341 1.32188
128.479 8.39122 1.1649
127.662 7.88086 1.11148
125.325 8.80558 1.32657
141.533 7.8934 1.24724
105.638 7.68333 1.19648
123.614 7.48912 1.14231
111.585 7.44849 1.18649
135.944 8.55517 1.36316
122.149 8.99275 1.57546
122.235 7.51727 1.14881
111.647 8.15459 1.29881
123.634 6.92496 1.10331
123.699 8.34064 1.41576
124.926 6.5669 1.05841
122.012 8.19367 1.38389
114.271 7.73041 1.31745
108.696 8.36356 1.43668
121.905 8.02172 1.38653
125.429 9.16724 1.51484
112.435 7.30186 1.26995
124.074 9.3801 1.55104
100.259 6.97762 1.24998
125.013 8.96311 1.55276
103.61 6.88389 1.24499
102.883 8.57696 1.59402
102.734 7.37606 1.33331
97.6631 7.88756 1.40226
111.183 8.15265 1.47212
101.944 9.49991 1.85002
94.8973 7.7424 1.49571
97.4206 8.44335 1.78337
99.1964 8.38042 1.60143
90.74 6.95517 1.37606
92.6177 8.52046 1.72254
88.4737 6.97539 1.40886
75.904 8.09879 1.75911
101.045 9.31098 1.91867
88.1653 8.97532 1.85402
90.6674 9.27415 1.82296
84.8035 7.98046 1.55687
94.897 8.68837 1.83546
90.008 8.80386 1.86007
93.2809 8.05735 1.80337
85.5834 8.13635 1.79451
96.1924 7.09163 1.5123
85.2461 8.19941 1.87233
92.4279 7.78843 1.78094
73.0822 7.10641 1.7218
84.448 7.25052 1.77047
91.7271 7.48572 1.74738
97.9683 8.77951 2.0988
88.7359 7.34714 1.80432
82.1575 8.86029 2.19556
79.8317 7.62745 1.92409
80.2237 7.84875 1.96706
87.9132 8.33653 2.1963
89.5167 9.19301 2.19493
95.4791 7.72875 1.91898
78.7967 7.28021 1.99792
94.4494 9.28881 2.47673
79.4834 7.74415 2.00233
83.402 6.12991 1.70706
82.7312 7.60754 1.90658
89.7832 8.18155 2.13775
74.6425 7.04696 1.85804
87.4285 9.34162 2.56976
86.0216 8.17103 2.1947
67.7137 7.856 2.08812
71.9602 7.62415 2.12717
76.5321 7.56363 1.894
80.2993 8.13934 2.29401
82.2751 8.42847 2.34968
73.1686 7.8851 2.27496
78.7044 8.9446 2.6263
68.8048 8.2599 2.39956
77.4373 9.35415 2.73407
70.7878 9.22615 2.54343
70.1702 7.2937 2.17006
75.7449 8.32197 2.66234
69.5056 7.90518 2.35399
75.4602 9.61931 2.91328
77.8386 8.17668 2.50956
71.5141 7.12664 2.21562
64.4078 6.38259 2.12244
83.2836 7.70229 2.50749
74.6557 8.71132 2.72148
71.2085 7.4983 2.55204
72.583 8.07114 2.49357
74.4041 8.05713 2.56439
68.7844 7.3423 2.28501
70.0079 9.42718 3.07582
70.8492 8.75726 2.85899
74.2419 8.00665 2.7144
74.1367 7.03493 2.20438
64.2422 7.95276 2.48835
76.3105 9.72937 3.25023
57.4873 7.7349 2.76385
62.2168 8.3839 2.76447
77.8243 9.01385 3.10697
67.327 7.82814 2.72475
69.8033 6.61208 2.55141
58.6506 7.1548 2.4315
55.8875 5.9159 2.06241
59.3055 7.58584 2.65044
65.9084 8.43704 3.0749
59.8033 8.73457 3.03081
64.2883 7.31249 2.72578
53.5115 7.76774 2.8957
56.1173 8.19637 3.04243
54.7862 6.59154 2.50458
57.5608 7.67468 2.89942
58.4754 7.05821 2.89153
57.478 7.32407 2.80601
54.9628 6.34832 2.39072
56.9883 7.97795 3.26829
55.0362 7.46285 2.79953
57.9863 7.76372 2.94474
61.3525 9.72385 3.64043
52.9753 8.74123 3.48123
60.4562 9.37423 3.74039
47.5962 8.05229 3.23416
50.5228 7.24274 2.96885
57.4324 8.55733 3.28054
55.7517 9.47803 4.06976
50.0568 7.32448 2.95234
55.6678 7.12515 2.92699
51.0348 7.31997 2.95349
50.1855 7.24608 3.15717
47.7052 7.03023 2.76117
54.6321 8.78536 3.80559
59.1449 9.41377 3.74467
56.1749 7.87263 3.34157
47.2977 6.72068 3.04732
59.3431 9.23108 4.06559
45.447 7.63222 3.119
55.6087 9.10087 3.6172
58.6628 8.34943 3.87249
50.8474 8.07518 3.53276
53.079 7.88862 3.60835
39.471 7.20315 3.17629
47.3536 8.17713 3.77261
50.6504 8.64371 3.98574
49.3752 8.42654 3.72576
46.6312 8.39211 4.03729
45.3246 6.85262 3.36035
43.9583 7.90909 4.12179
42.0121 8.07992 3.69446
42.3573 8.52839 4.18515
45.6936 7.65974 3.73596
45.19 8.65172 4.1225
39.1376 8.4259 4.56644
49.9272 11.0511 4.93192
36.3803 6.95501 3.39826
40.0513 8.23093 4.03724
38.68 8.33284 4.18973
43.5372 7.89455 4.11269
42.8396 8.09509 3.81078
36.8556 8.05223 4.13663
37.2919 8.71505 4.24326
40.4891 8.77069 4.17473
33.4595 7.62077 3.9157
34.4211 8.38064 4.31959
36.9388 7.73673 4.2789
32.9737 7.21013 3.84318
32.0042 7.64392 3.89724
40.3928 8.12086 4.14777
36.1108 7.66899 3.897
40.8489 8.25165 4.39571
33.5028 8.02313 4.35984
38.3664 8.74233 4.82567
33.3069 8.8566 4.66961
36.0558 5.79006 2.99082
34.1728 7.1662 3.94278
38.5982 7.15999 4.01336
33.5045 6.8699 3.79938
38.436 8.33292 4.64183
36.1107 7.20928 4.00517
31.7485 6.71593 3.82558
38.7071 7.92103 4.74827
44.419 8.10285 4.26893
36.7964 8.08793 4.86246
41.6201 7.63129 4.41657
35.665 10.5665 5.97205
37.1523 8.75509 5.01829
39.3976 7.40972 4.33665
35.9925 9.2985 5.22427
38.409 9.5592 5.83374
32.0657 7.45093 4.15403
32.8609 8.54965 5.22404
32.4731 7.90173 4.46334
41.4857 9.90253 5.99506
34.8058 8.13502 4.58232
35.0632 7.64105 4.46767
34.941 8.21766 4.70573
29.5238 8.24022 4.9147
30.4492 7.91226 5.10883
31.0266 8.20077 4.87604
30.2562 7.23432 4.47708
31.3959 7.65319 4.96058
31.6173 7.69862 4.91185
28.3383 7.7595 5.10128
29.9772 8.71601 5.3968
29.7577 7.7849 4.86587
31.2255 9.59599 6.00101
29.8835 8.72253 5.45434
32.5515 9.05958 5.68264
27.9968 8.30645 5.39644
30.2923 10.2037 6.08641
26.7608 7.6678 5.04831
28.5058 7.87847 5.08257
27.0814 7.89844 5.36837
26.9895 8.79038 6.10815
29.5927 9.36992 6.36422
31.4593 8.30148 5.04685
21.782 6.72557 4.85974
29.3538 6.90878 4.69549
33.0939 8.06981 5.38818
29.5009 8.33164 5.83459
30.0324 8.72862 5.9333
23.8062 7.15945 4.93964
26.0161 7.53469 5.24163
30.1191 9.99194 7.04931
26.0577 7.61071 5.32166
28.3485 7.60397 5.51565
27.5616 8.56443 6.55215
30.1416 8.69866 6.14565
25.6746 7.86064 5.57566
28.209 8.33884 6.32568
26.2075 7.80191 5.95284
28.4055 8.23795 6.1286
31.1279 8.8233 6.1588
25.3356 8.4399 6.23781
22.3189 8.29032 6.12625
28.8336 9.08042 6.51379
28.7909 8.3885 6.19016
27.3918 8.5019 6.81572
27.9779 8.10662 6.06512
24.0507 8.27336 6.39242
25.3539 7.81249 6.28079
25.1393 9.32001 6.7923
26.7299 7.449 5.86416
24.6034 7.52069 5.82144
23.7916 7.59873 6.15783
23.4417 7.48516 6.07898
24.7693 8.33268 6.64893
21.5185 7.22724 5.47749
23.8819 8.25582 5.69054
21.1623 8.17279 6.43519
23.2149 7.77776 6.15092
23.1978 8.1033 6.97942
19.4715 6.90701 5.49674
21.6893 7.13469 5.36624
24.6992 6.92737 5.76153
23.9063 9.77144 7.25074
23.3869 8.29489 6.98472
23.3626 8.04315 6.86947
19.0158 7.25767 6.10608
24.9965 8.46729 6.56459
20.3823 6.6391 5.44475
27.0401 9.86897 8.26335
26.4397 10.1854 8.1772
23.9816 8.93603 7.2817
23.0201 8.54798 7.04815
24.7461 6.73934 5.90547
18.7308 6.90219 5.99699
23.3568 6.99517 5.66323
23.8101 9.49058 8.34517
23.1089 7.2651 6.08789
22.4394 9.79096 9.302
23.7802 9.63294 7.46057
23.1029 9.26075 8.12729
24.7941 9.91033 8.02336
19.1915 9.30418 8.4995
23.2947 9.13138 7.9576
22.4286 8.68225 8.22763
21.9482 8.83664 7.33343
19.0562 7.73389 6.93191
21.4292 8.46371 6.97047
19.8083 8.16386 7.44952
20.5593 9.31597 8.41105
20.0888 8.7833 8.18087
19.8442 6.67065 6.22353
20.1848 11.2189 10.2451
20.5199 7.99455 7.4237
19.77 9.01696 8.26533
25.282 10.5994 9.01826
19.0309 9.79177 8.70606
20.9455 10.2164 9.68601
17.2828 6.90435 6.55998
20.3891 8.69752 7.86359
17.72 7.81363 7.51968
18.6718 7.50211 7.2723
18.0008 7.51572 6.94689
17.1316 8.13846 7.44874
20.345 9.00692 8.38706
20.862 9.31175 8.83061
20.5072 8.76379 8.1546
19.1736 7.47474 7.56902
19.0987 9.43147 9.06062
20.6722 9.27418 8.90169
20.6856 8.63024 8.36203
20.1297 7.5521 6.93895
20.7439 8.40711 8.24239
18.6521 6.96638 6.60958
19.8747 10.0479 9.84255
20.0272 8.72877 8.60715
18.3304 7.1416 7.25721
16.9762 7.18948 7.56674
19.3677 9.2574 9.30034
21.6709 8.32443 8.62586
18.28 8.37804 9.07296
19.3157 8.59559 8.6027
17.9487 7.7647 8.07985
19.3012 7.83556 7.86968
19.6836 9.79764 10.2706
18.3442 8.87226 9.27746
15.3635 7.19327 7.94369
20.3837 10.4057 10.1765
17.7957 6.62948 6.86255
20.4167 8.55903 9.39218
16.6343 8.78971 9.18067
18.9184 9.7354 9.79847
18.0022 7.83143 8.06144
14.6683 7.86415 8.51751
17.9082 9.28977 9.48824
16.5061 7.67934 8.20305
16.4057 7.86334 8.4339
16.1834 8.22709 9.82623
17.7094 9.2629 9.41679
15.06 8.80683 10.234
17.5018 9.03162 9.94458
17.2326 8.14572 10.0187
15.6675 7.14164 7.1006
14.057 6.48631 7.44895
17.9408 8.77689 9.56751
15.461 7.89084 9.69628
16.6298 9.70885 10.0165
16.9097 8.30226 9.34904
18.4254 8.39143 9.32109
17.5347 8.74664 10.1339
18.8977 9.08365 10.7884
17.0468 8.08843 9.32953
20.5161 9.90863 11.5828
20.2567 9.02537 9.49139
17.6179 8.2927 9.79331
18.5148 9.11705 10.9583
16.7348 7.63541 8.73697
17.1946 7.98134 9.09482
17.7774 8.74287 9.71878
20.2543 8.89078 9.75786
16.0324 8.27085 10.3156
19.388 9.38876 11.4984
15.5874 6.79216 8.57808
17.8847 8.61745 9.63972
17.1478 8.22826 8.66362
16.508 7.95779 9.36751
16.243 8.55128 10.0788
16.8772 8.1432 10.1084
18.7264 9.78088 11.1097
17.974 10.098 11.8248
16.6686 8.69446 11.5696
17.0815 7.6351 9.03982
15.5525 8.91072 10.6578
19.2029 9.2333 11.9443
17.2413 9.63004 11.8866
14.8045 8.04849 10.5253
14.3816 7.41902 9.61248
15.0312 8.45689 9.97825
14.5184 7.72058 10.2878
16.9157 8.74782 10.9384
16.882 8.83732 11.0073
14.8915 6.70254 8.41236
16.9988 8.51949 10.7219
14.3736 8.27193 9.87116
17.7819 10.0412 12.8066
16.3647 9.05611 11.7294
15.2951 7.98943 10.3661
17.1525 9.34417 12.3098
16.2361 7.8374 9.917
14.944 7.56642 9.7033
16.3941 9.17586 11.9459
17.6929 10.0101 12.0382
16.0215 8.68572 12.3425
16.5231 8.2211 11.513
16.4743 9.97574 12.3177
16.0059 10.1422 12.5534
16.14 9.27912 12.2453
15.1358 8.59457 11.0315
18.8422 9.10388 11.2435
16.2619 8.91997 11.5672
12.5374 9.18066 13.1217
14.3656 7.39136 9.73404
18.5326 9.43211 12.3939
14.4296 10.2405 15.1281
17.4813 8.98198 12.3615
14.4595 6.52963 8.7312
14.2922 9.6286 12.9009
16.6591 11.2711 16.6658
14.9657 9.92869 13.9404
14.338 9.70285 13.4233
17.5583 11.4259 14.5282
14.7265 9.25396 13.3391
16.611 10.8578 13.8644
15.9167 9.30772 12.5709
13.8049 9.13806 13.5256
16.1132 10.3437 14.1391
15.2856 8.48129 11.7461
14.0398 11.3986 17.2564
13.8145 7.97511 11.227
13.0637 8.01863 12.3113
13.8902 7.80771 11.6824
16.7146 10.1302 14.2705
13.2058 9.41864 12.5818
13.0676 8.17134 11.3925
12.9663 7.97828 12.1253
14.5738 7.98094 11.4243
12.8561 9.23277 13.8395
13.8924 8.02713 12.9769
13.7917 8.88659 12.5053
12.4431 8.53287 12.5474
15.1008 9.59638 13.5828
14.8396 9.4977 13.8112
14.1349 9.81083 14.4098
14.1217 10.4139 14.8342
15.184 9.67469 13.8274
12.3074 7.3235 11.4404
15.1589 9.46996 12.8067
10.7733 6.93692 11.6741
13.9961 10.4344 15.3706
13.2661 9.15881 14.3199
15.8381 8.81359 13.0342
14.9992 10.7252 15.8076
15.6498 9.20987 13.5093
13.2722 8.08573 12.1406
14.5007 9.12374 12.927
13.1525 8.15112 11.9794
13.4384 7.2918 11.2539
15.1443 12.02 19.9377
13.6716 8.7752 12.6118
13.5672 8.43116 12.3624
12.0413 8.26124 13.7186
15.3405 9.41319 14.7533
13.9383 7.76155 11.2785
12.6317 7.90102 13.0456
11.979 8.77504 14.2339
14.5233 8.94098 13.1898
13.6348 9.04372 13.3533
13.2301 8.17071 12.6908
11.79 8.29438 12.4301
12.9064 9.19953 14.1211
12.7694 8.73242 14.3734
15.1367 10.041 15.0666
12.7124 8.89992 13.9095
11.0607 8.70117 14.7865
13.8501 8.30922 14.5723
13.0457 11.0487 16.6381
12.4231 8.7831 13.1007
12.7771 9.68556 15.6052
13.4324 8.57908 13.8417
12.4789 8.7373 14.1097
11.4033 8.52098 13.5124
13.3109 8.95098 14.1369
12.2855 10.6242 16.4527
11.6336 10.5111 16.5971
12.3259 9.23232 14.9284
10.5127 7.34391 13.3217
12.9456 8.94176 16.0576
13.2554 8.72585 13.4105
10.9513 8.62762 14.8519
14.4253 7.55881 13.3892
11.7128 8.26379 13.8297
14.8966 9.29033 14.9628
13.383 7.84152 12.3125
14.5619 8.79514 13.7434
10.8251 8.06926 15.9988
15.034 8.25291 15.1476
11.4015 7.57767 13.0292
14.8037 9.27009 14.8176
12.4757 9.08987 15.8685
13.1017 7.0582 13.2299
11.8368 8.2975 15.2883
17.0394 9.16862 15.4507
11.9224 9.20529 16.6097
14.0705 8.16467 14.7151
12.9351 9.36555 16.323
14.1543 8.83691 14.0066
13.1863 10.476 18.2904
12.6494 7.62081 12.136
12.3957 9.37399 16.7849
13.0456 8.84403 16.3147
12.6187 10.6286 17.2299
13.2333 10.1432 16.5831
10.8676 7.61559 12.8675
11.7632 10.3685 18.8154
12.3471 8.11388 14.1324
11.8019 9.90369 17.7233
12.0443 9.44206 18.3152
11.9851 9.0459 17.5353
12.3826 11.8704 17.4068
10.7538 8.40668 14.5083
12.615 9.75277 16.0756
10.911 8.58805 16.7034
12.7187 9.14686 16.771
12.1795 8.51505 14.7466
14.1545 9.18641 16.8331
12.6628 8.7756 14.2688
10.2 7.65406 14.1683
11.7217 9.59838 17.9517
9.76138 8.408 15.2092
11.5531 6.96563 11.5739
12.1898 9.07867 16.537
13.7905 9.90799 18.5737
10.5308 9.0644 18.2563
10.6309 8.69827 15.3986
11.5785 7.82115 14.9149
13.4071 9.21154 17.9164
11.8726 9.00212 16.46
11.3348 9.50519 16.8805
11.1915 8.55163 16.1259
11.1314 8.97257 16.1141
9.4282 9.28368 16.6983
11.8826 9.77058 18.1304
11.3517 9.2323 17.5456
10.9322 7.39334 15.2406
10.2727 9.65096 16.114
9.97037 8.1265 15.5065
9.67898 9.33287 18.6847
10.2199 7.32741 14.966
10.5548 9.03211 17.2948
11.8682 9.9642 17.7978
10.1035 7.97775 15.7559
11.0541 10.254 18.4465
10.1802 9.40604 17.194
9.20098 9.47455 19.4977
11.1667 10.6794 21.2959
9.59178 10.1223 17.3682
10.093 9.58699 19.3138
10.3644 8.9597 15.9054
10.2853 9.1921 18.2459
9.78433 11.4491 22.4029
9.69704 7.61113 15.59
10.6129 9.38839 19.2309
10.9118 9.53108 18.2954
10.0027 9.60509 19.5024
10.5129 9.83243 20.1333
13.0577 10.4427 20.7408
10.8887 9.90761 20.0848
11.9962 10.4848 17.841
10.2976 9.91757 19.5739
10.6317 8.42242 17.6711
10.912 10.0084 18.3855
9.13736 8.94093 19.2492
10.1265 9.09975 18.4209
11.2774 9.03247 17.6415
10.7384 9.49199 17.8125
10.2757 9.10906 18.5831
10.3234 9.27724 19.4015
10.4872 8.34739 16.6771
10.6924 8.90801 16.092
11.0916 9.93361 22.1907
12.3214 9.45636 20.3543
11.5779 8.75166 18.7502
11.1593 10.1036 20.3232
10.0972 9.53186 18.9103
10.5591 9.4399 21.4465
10.5536 8.64934 17.5335
9.41378 8.85296 19.3348
11.7168 9.91041 18.4333
10.2134 10.1833 20.5879
10.6892 8.80734 15.9671
8.73737 9.6095 22.0223
10.6578 10.4167 21.5397
9.45806 8.89816 19.6629
10.2919 12.1802 23.5113
9.42846 9.11945 19.766
10.0689 10.5392 21.1855
7.85852 8.11404 17.6484
8.20993 10.0285 19.6864
9.20155 9.71352 21.4814
9.36913 8.8448 20.8818
9.62721 9.63669 19.0067
9.48826 10.9002 21.0894
9.5358 9.04404 19.3278
8.76398 9.91706 24.3962
9.56074 12.5222 26.4647
9.55203 10.6639 19.5752
9.38813 8.43629 17.4272
8.42477 9.58962 22.7178
9.49944 9.41723 19.205
9.24204 8.03757 19.2439
10.1042 11.2816 22.4309
8.85101 8.84316 16.8107
7.29194 7.90061 17.8535
9.11553 8.3531 19.2128
11.2519 11.5336 21.2768
9.35124 8.71388 20.3501
9.48517 9.09421 20.2149
10.5705 11.6404 26.8063
10.522 9.15405 20.1076
9.91404 9.804 20.6462
8.76421 9.43603 24.5388
10.8337 9.45162 23.6554
10.2944 10.5544 18.9116
8.65314 8.90837 20.0969
8.75889 8.86524 22.0928
10.0661 9.44525 17.78
7.48509 8.58294 20.1155
7.16899 8.72567 18.8847
8.29287 10.069 22.5211
9.25395 9.0681 20.8676
9.01715 10.3618 22.0452
8.5077 9.81802 24.0627
10.1289 9.43034 20.9277
7.67547 8.26249 21.8159
9.25689 10.2498 23.9433
9.57993 8.90151 17.9674
8.78718 10.7062 23.8254
9.18474 9.29394 21.4543
9.34305 8.8442 20.4698
8.6143 8.90109 18.8338
8.58935 9.46331 23.4527
9.16066 9.23153 20.9423
8.14753 8.73256 22.6285
7.71257 7.6957 21.6732
8.79887 9.95054 23.4511
10.0117 10.7487 22.3454
8.76433 8.94134 19.972
8.66553 10.3195 23.5929
9.37215 11.3852 27.1616
9.34062 9.3994 19.3486
7.60581 7.53549 18.5234
9.69629 9.02531 21.1199
9.89101 9.57761 21.739
8.32152 9.33412 24.5634
9.52496 7.64581 19.6254
7.97681 9.42995 21.6675
8.65343 8.65089 20.799
10.6469 10.5112 22.272
9.34759 8.56304 20.3481
9.38552 8.77592 25.2436
9.64105 9.2208 20.3117
9.66937 10.972 25.4869
9.031 8.10032 19.7004
9.35057 9.40617 21.4027
8.80395 7.01103 18.1001
10.353 9.50122 22.6544
8.87337 8.88535 22.283
9.02421 9.53223 22.3902
7.80545 9.35034 21.1345
7.9635 8.76682 21.6887
8.39615 8.12706 19.645
7.2903 6.67314 17.5976
8.06647 10.8953 27.7742
9.22549 10.244 26.9105
8.89997 9.54975 23.0487
8.58384 8.79322 22.2736
