# pn-170911/RbIIR-43-USN7-1280-1959.psd
# Power spectrum* (dif=0,1,2) (really just |FT|^2)
# NOTE: only the first half! (symmetric)
# weeks: 1280-1959
# 333 clock-days, 203 excluded
# PSD: 1441
777.647 0.0550104 0.0312869
19146.6 0.406075 0.070193
102658 2.37664 0.0650592
15591.8 0.614664 0.0677318
37408.8 2.8848 0.0587131
5653.06 0.563461 0.0628675
5226.16 0.792942 0.0641769
2903.68 0.586583 0.0632729
3856.97 1.04535 0.0641538
1831.65 0.606692 0.0621197
2240.96 1.02274 0.0611988
1246.03 0.627437 0.0609172
1423.96 0.814638 0.0645562
985.961 0.705475 0.063527
1424.22 1.21249 0.0643433
912.781 0.889978 0.0664054
1357.25 1.55499 0.0734634
814.704 0.955919 0.0683888
930.676 1.3502 0.0738379
634.065 0.98845 0.0681424
761.384 1.38603 0.0659188
701.707 1.34794 0.0661363
762.252 1.65465 0.0726646
535.859 1.26012 0.0667254
677.051 1.77847 0.0710527
442.311 1.27355 0.0630548
594.849 1.8342 0.0659494
417.35 1.35258 0.0643568
504.855 1.82786 0.0678102
398.252 1.53207 0.067373
370.045 1.47867 0.0690841
355.964 1.5035 0.0674921
426.197 1.96387 0.0759187
363.013 1.83898 0.067582
376.11 1.98351 0.0749145
346.081 1.84603 0.074591
322.198 1.9319 0.0726361
296.573 1.82034 0.0745159
355.712 2.28716 0.0760242
289.351 1.90712 0.0742947
334.797 2.38945 0.0754271
300.144 2.29186 0.0804699
285.863 2.26388 0.0842065
242.643 2.00927 0.0791139
272.856 2.52398 0.0844262
232.775 2.19637 0.0905034
289.886 2.75376 0.0844804
258.853 2.62918 0.0814421
256.702 2.61583 0.088958
250.126 2.70885 0.0860944
267.728 3.0274 0.0999377
235.431 2.72139 0.088701
268.835 3.29246 0.101252
201.405 2.54574 0.0889328
200.037 2.72404 0.0909183
228.69 3.24174 0.0987594
246.735 3.50765 0.109016
228.993 3.39906 0.104109
215.892 3.3003 0.108112
204.968 3.20932 0.119143
197.461 3.28945 0.10852
199.662 3.30493 0.115858
201.8 3.61571 0.124987
185.347 3.41494 0.124486
198.128 3.66814 0.133466
187.519 3.48915 0.128632
188.548 3.73019 0.132065
184.521 3.89192 0.148379
191.19 3.96566 0.134519
163.989 3.51416 0.139735
161.63 3.68722 0.133507
159.021 3.6494 0.154161
187.457 4.54576 0.170273
181.936 4.40641 0.164642
168.186 4.28939 0.17113
151.106 3.86748 0.160546
179.234 4.8647 0.172754
166.286 4.46213 0.18744
159.752 4.58478 0.187382
165.533 4.81664 0.18819
150.999 4.43315 0.189935
150.699 4.54134 0.191283
150.672 4.48784 0.213484
154.066 4.92447 0.233787
137.58 4.39843 0.207484
162.822 5.38849 0.248765
142.186 4.91991 0.236197
126.874 4.28122 0.211119
136.804 4.91989 0.243627
143.82 5.21946 0.253569
132.522 4.90888 0.249264
137.12 5.25021 0.257334
136.538 5.56584 0.265673
126.198 4.97812 0.281535
131.17 5.36759 0.284881
130.595 5.48914 0.294465
177.246 7.61126 0.397421
137.433 5.88308 0.314373
127.666 5.57701 0.325555
128.502 5.83568 0.334764
127.604 5.83104 0.357859
114.616 5.31119 0.325738
138.472 6.65319 0.377325
126.261 6.2195 0.378244
111.927 5.72021 0.353454
119.993 6.13449 0.368507
125.853 6.43514 0.407592
113.878 5.9001 0.367616
112.842 6.18529 0.42086
126.834 6.95828 0.445987
124.437 6.96458 0.47468
122.571 6.95183 0.456767
113.622 6.76636 0.455376
120.892 6.93504 0.495963
120.209 7.11764 0.498884
104.857 6.3745 0.44092
123.238 7.67806 0.539724
109.29 6.93988 0.521906
117.037 7.73176 0.586576
103.683 6.92665 0.528523
120.361 8.03438 0.626649
110.119 7.49226 0.614129
107.687 7.20514 0.565436
122.199 8.31936 0.67289
120.832 8.526 0.704341
108.881 7.87278 0.624846
100.741 7.57049 0.631755
99.1678 7.36785 0.625535
102.98 7.7392 0.666015
103.523 7.93989 0.677932
102.528 8.25817 0.718672
97.2292 7.74991 0.680268
97.3274 7.9229 0.706717
106.242 8.70577 0.816661
103.157 8.64154 0.81226
92.5343 7.67282 0.732827
96.0814 8.24131 0.781362
97.6939 8.51706 0.789443
99.1073 8.796 0.845593
97.3462 8.92903 0.871606
105.726 9.65741 0.972714
91.2117 8.17731 0.802001
80.5367 7.60481 0.74443
99.6518 9.40412 1.00574
89.7607 8.78618 0.905069
88.7451 8.6024 0.904753
90.1556 8.87795 0.935684
100.082 9.96765 1.05764
92.4129 9.45677 1.03103
102.733 10.6884 1.20639
83.3044 8.60882 0.967007
92.5735 9.84577 1.0703
86.7689 9.39215 1.10538
88.4149 9.79378 1.16346
95.4339 10.3969 1.19112
90.9092 10.1301 1.15761
88.9246 10.1181 1.24606
93.4548 10.6158 1.28077
88.4777 10.2296 1.24253
82.3255 9.5346 1.17704
86.2154 10.2628 1.28513
88.362 10.4826 1.29645
94.755 11.3439 1.4278
82.5536 9.93149 1.29217
82.2398 10.202 1.32172
82.1092 10.3988 1.38744
87.8902 10.9825 1.50602
86.6916 11.4667 1.57248
84.2636 10.8626 1.51502
82.2051 10.8399 1.49635
84.1876 11.1099 1.53478
94.3486 12.7743 1.82584
81.5207 11.0874 1.57972
85.4784 11.687 1.64161
83.3842 11.6142 1.64623
81.861 11.6603 1.74133
87.2671 12.3382 1.83564
81.8107 11.7764 1.71572
71.372 10.4546 1.60921
78.5059 11.7776 1.83924
83.7664 12.6295 1.94359
79.6674 12.0381 1.9205
76.8516 11.9173 1.90396
81.3314 12.3404 1.99582
73.0482 11.4073 1.82827
75.685 12.0723 1.95168
71.6383 11.3499 1.86175
74.683 12.1024 2.00523
70.8879 11.401 1.92817
82.6315 13.6191 2.29237
76.0797 12.9003 2.22259
76.5349 13.676 2.44139
152.868 25.1376 4.26755
65.8604 11.4982 2.0987
64.5074 11.2417 2.02312
70.0398 12.4543 2.22606
82.0342 14.3324 2.64285
71.4389 12.6178 2.34686
80.2945 14.4442 2.69032
69.6187 12.6321 2.38407
71.8922 13.0009 2.51008
67.012 12.3437 2.34496
69.8522 13.3494 2.61632
73.2285 13.7582 2.69723
70.7327 13.5048 2.71005
65.2557 12.3784 2.43105
68.4506 13.5542 2.72639
67.6796 13.4321 2.76819
70.9871 14.087 2.88076
73.4677 14.1975 2.92453
66.8721 13.6217 2.88652
64.6075 13.161 2.68847
69.6306 14.4365 3.00916
63.1295 13.1951 2.86823
71.8506 15.0517 3.24824
60.611 13.0092 2.8666
61.5946 13.09 2.91723
70.6462 15.3335 3.33382
67.2451 14.8001 3.3215
66.9372 14.8798 3.33694
61.3727 13.8055 3.11563
64.0724 14.2385 3.30568
69.9292 15.6101 3.72129
64.6213 14.7099 3.51973
66.981 15.6707 3.71684
70.2848 16.238 3.79622
74.6189 17.3261 4.09266
62.0182 14.6616 3.58839
56.9758 13.7879 3.3522
63.4899 15.0367 3.68062
61.9304 15.0222 3.70119
61.2138 14.8884 3.70017
63.1067 15.7105 4.01537
64.6413 15.7184 3.96738
57.5134 14.6546 3.77389
59.5298 15.0275 3.82489
63.108 16.4036 4.25303
55.6089 14.0694 3.62283
54.9485 14.1779 3.76444
57.3917 15.2157 4.13712
60.0672 15.5867 4.21808
61.1386 15.8346 4.26814
53.2957 14.3955 3.93735
58.3444 16.06 4.52437
62.1117 17.059 4.84185
54.6638 14.9242 4.16894
50.2293 13.5743 3.795
62.4145 17.2864 4.88383
56.0529 15.9491 4.61632
56.2956 15.9875 4.61221
54.6254 15.709 4.51025
51.7638 14.723 4.38511
53.7034 15.9733 4.80436
51.7326 14.5403 4.3263
53.2993 16.1043 4.97074
57.9122 17.5043 5.29723
49.7586 14.7641 4.48207
54.7017 16.9021 5.25226
53.0819 15.7027 4.88257
53.2119 16.6763 5.17127
55.1326 16.9748 5.35205
57.6128 17.5649 5.48065
53.8262 16.651 5.22131
51.0541 15.8792 5.16246
47.6715 15.3902 5.16238
50.8033 16.2767 5.3447
55.7471 18.0598 5.95591
57.5039 18.3507 5.94368
49.6507 16.1534 5.33651
50.5385 17.3131 6.03459
55.9663 18.7108 6.37942
60.0375 19.8224 6.57839
56.5215 18.8542 6.40726
51.2491 17.2423 5.93767
52.0701 17.7639 6.08146
53.7643 19.0203 6.63275
50.3131 17.483 6.17834
46.9457 16.565 5.94804
53.0791 18.3777 6.46721
56.2471 19.8876 7.22135
54.9692 19.2411 6.83945
48.4498 17.2416 6.28406
48.4851 17.8756 6.58643
52.2156 19.1611 7.11005
48.9585 18.2 6.89026
48.4015 18.1643 6.95916
50.2898 19.0263 7.16644
50.1229 18.7831 7.39903
91.5746 34.2886 12.5486
47.8538 18.3001 7.08697
48.2134 18.6738 7.31407
48.0361 18.8763 7.45097
47.7439 18.2974 7.25845
48.2347 18.6755 7.23068
48.1665 18.8846 7.59203
44.8641 18.5927 7.77657
47.7976 18.186 7.27638
45.7972 18.6668 7.69282
46.0817 18.2759 7.44142
44.9376 18.2716 7.44317
47.4168 19.3019 7.84502
45.5991 18.5879 7.70413
42.1242 17.7025 7.5947
48.7717 20.5824 8.7872
45.968 19.0173 8.03308
45.5453 18.9309 7.99973
40.8961 17.7702 7.99439
45.307 19.1118 8.14957
46.0415 19.5174 8.42333
41.1802 18.0874 8.13432
46.89 20.7657 9.33127
45.3896 19.1242 8.29087
38.6351 16.739 7.3724
44.9849 19.9788 9.0282
40.0558 17.8966 8.3123
45.7588 20.4501 9.32038
42.1077 18.6159 8.57696
45.7854 20.9386 9.47704
42.8972 19.4909 8.89336
40.6359 19.3031 9.33129
43.9198 20.0318 9.20994
38.0235 17.4924 8.31471
44.0041 20.8912 9.78414
39.8207 18.39 8.74505
45.585 22.0235 10.533
40.3152 19.192 9.13449
37.0189 17.7508 8.63264
38.8929 18.7331 9.27
44.2247 21.0857 10.3837
40.2666 19.617 9.81253
44.2776 21.282 10.2573
38.96 19.3218 9.83607
39.9364 19.6782 10.0077
40.4063 19.9508 10.0601
37.9734 19.2912 9.82203
38.8475 19.8758 10.3682
39.9919 19.8092 10.0173
42.1465 21.7038 11.0866
39.7215 21.4432 11.3103
37.6404 19.6595 10.5096
36.6989 19.3805 10.4261
38.7652 20.2279 10.7766
36.1683 18.8855 9.91506
39.4595 20.9955 11.0827
39.4403 21.0281 11.5509
36.5194 19.4992 10.5038
38.1726 20.2172 10.7263
41.6338 22.6363 12.5079
39.5623 21.1841 11.4079
36.255 20.0646 11.2706
39.2136 21.1406 11.4233
38.5942 22.2042 12.4996
35.1373 19.7316 11.2443
33.8755 19.0524 10.9056
35.4229 19.8131 11.2372
34.2428 19.7751 11.5595
37.9303 21.4306 12.2906
36.5171 20.2991 11.542
33.9956 19.8911 11.9141
37.9135 21.467 12.2106
34.3148 19.515 11.4502
36.8349 21.7344 12.926
35.3281 20.0679 11.8938
32.4653 18.6891 11.077
31.1726 18.6971 11.4195
35.2701 20.8351 12.4705
34.0379 20.8767 13.0001
34.0053 20.0152 12.388
35.4287 21.0637 12.6096
32.6902 19.8867 12.3312
34.2696 21.1925 13.2998
35.0505 20.6096 12.0577
32.7067 19.4372 11.5805
29.948 19.2485 12.4131
31.5643 19.3671 12.2587
35.8138 21.8711 13.586
30.2106 20.0012 13.467
32.9522 20.5215 13.2143
32.0684 20.3257 12.9701
33.6136 21.1199 13.2979
31.2419 21.04 14.0732
32.7554 21.1649 13.9777
34.5998 22.8218 15.2189
29.1981 19.7816 14.6188
64.8312 40.1087 23.8296
33.9433 22.6002 15.1662
31.6062 21.1072 14.387
33.1178 21.5973 14.2426
28.6331 19.144 12.8687
30.0162 20.2258 14.1111
33.5584 22.3485 15.023
33.9727 22.9681 15.4848
30.2965 20.5163 14.1896
29.7002 19.8629 13.7056
32.4284 22.1499 15.2159
28.3276 19.5353 13.7521
29.5785 20.2573 14.0513
32.7641 23.0913 16.2976
29.1478 20.2892 14.3553
29.8566 20.873 15.0847
30.6453 21.3936 14.8195
28.1533 20.0124 14.4313
30.9911 22.5536 16.2948
29.3033 21.2479 15.8907
32.4242 22.8458 16.29
28.298 20.3411 14.6961
26.7681 19.9282 15.0554
29.2843 21.4077 16.016
31.3023 22.5405 16.5964
28.9479 21.1771 15.842
28.0858 20.4311 15.0721
26.2909 20.4056 15.8796
28.014 20.7565 15.7033
29.9641 22.2384 16.4724
27.5899 21.8361 17.2807
28.3541 21.6258 17.0389
30.5035 22.1099 16.2566
28.9264 22.3796 17.3814
27.4291 20.5027 15.7719
24.4887 19.2454 15.5256
26.2154 20.0759 16.0539
30.1162 22.5303 17.0622
27.014 20.6987 16.0165
28.8005 22.7353 18.0027
25.48 19.1987 15.1209
26.5043 21.4811 17.4533
26.9011 21.3633 17.4187
29.5358 23.5312 18.7047
26.6291 21.3609 17.5376
27.0158 21.787 17.9558
26.2605 20.3936 16.4108
23.2395 18.9077 15.805
24.8745 19.93 16.4911
27.1079 22.3454 18.6923
28.0469 23.099 19.1705
26.438 20.9512 17.003
27.4041 22.7531 18.5927
25.8552 22.5388 19.5651
25.9529 20.9877 17.445
24.9477 20.9526 17.7035
24.4484 21.1761 18.3037
24.7314 20.8657 18.2502
26.5574 22.5646 18.8242
24.3477 21.3334 19.1552
25.9654 21.5621 18.1453
23.1751 20.3983 18.3807
24.3238 21.0473 18.8518
27.6704 22.5643 18.5278
23.0245 20.3357 17.8201
24.1091 20.7996 18.1773
24.5804 21.5919 18.9717
24.405 21.7117 19.3557
24.1586 20.9922 18.1778
23.0092 21.074 19.362
23.7193 20.8749 18.5452
25.0989 22.4848 20.2011
22.5843 20.7382 19.3778
23.0275 20.7909 18.7465
22.0184 20.7806 19.6945
23.0025 20.8181 19.1102
24.6541 23.2911 22.1891
23.0778 21.1064 20.1061
24.2108 21.5884 19.7383
23.4413 21.4503 19.7826
22.3044 20.4139 18.8199
21.3205 21.7468 22.4679
24.4666 21.3098 19.1399
22.929 22.0427 21.0605
22.5933 21.5548 21.1678
23.6686 21.5768 20.4077
20.4931 19.0258 18.3071
22.9421 22.346 21.8566
23.4259 22.6816 22.3268
21.6282 20.419 19.8253
20.2483 19.0901 18.7507
22.4886 21.7708 21.2554
19.5622 19.2019 19.4586
20.0505 18.2464 17.4597
20.9247 21.5033 22.2587
22.1261 21.9256 24.4633
44.374 42.0051 36.3494
19.8247 19.7158 20.1322
21.4682 22.4829 23.5813
20.6823 20.6345 21.0465
20.7397 20.4833 20.6504
20.8922 20.3239 20.4793
21.966 22.2583 21.6701
20.3394 21.4214 22.3481
19.5814 20.3205 22.028
21.2575 20.6909 20.95
19.5356 19.6872 19.9289
19.3362 21.2321 23.1287
21.1205 22.2579 23.4993
19.2545 19.5636 21.0501
19.9959 20.4841 21.793
20.0584 20.2811 20.7489
20.6614 21.9879 23.8515
20.5613 20.7427 21.6523
20.3995 21.7115 23.1458
21.0041 23.4673 26.1239
21.5877 22.1838 23.5333
18.8432 20.1963 21.9855
20.6278 21.9177 23.5048
18.1059 18.8796 20.6487
20.2762 21.707 23.2396
18.2025 20.3341 22.6767
17.8697 19.4772 22.1996
19.1948 20.2033 22.3264
19.5959 21.0345 22.9906
18.9543 21.5646 24.6272
19.6068 21.9353 24.4077
18.6257 20.1934 22.4896
19.6393 21.7884 24.3912
22.2219 24.2773 25.5529
16.6482 19.1109 22.2089
17.8824 19.6733 22.0321
17.6256 20.2875 23.4494
17.9648 20.4507 22.9758
17.5782 20.9158 25.1966
19.5395 21.8294 25.5095
17.9285 20.1813 23.2582
18.5214 21.2009 24.2855
16.7424 19.0975 22.5962
18.409 21.4618 25.1663
18.4698 21.4995 25.4924
17.5844 20.4739 24.6381
18.1057 20.1758 23.204
17.1289 19.8795 23.4534
17.0978 19.2679 22.5869
16.9978 19.9593 23.7997
17.7541 20.8422 25.2735
17.9905 20.6874 25.0129
17.17 20.194 24.7277
16.9518 19.4675 23.2711
17.9681 21.508 25.537
17.4776 21.0177 25.9199
16.1864 19.7089 25.1183
17.4003 19.7374 23.5252
16.5554 19.5002 23.5772
17.0179 20.5843 26.0877
17.8634 21.4893 25.2873
17.409 21.165 25.8283
17.3215 20.9304 25.1255
15.082 19.31 25.011
17.1875 21.2506 25.7655
16.2402 20.6598 25.634
15.7402 20.4797 26.9701
17.1061 21.0883 26.4085
15.7931 19.7774 25.6703
17.6248 21.2445 26.5405
16.7005 20.4042 25.3402
16.1875 21.2139 27.7625
16.4548 20.4225 25.7649
16.9718 21.6694 27.3062
14.6604 18.4402 24.0067
15.3664 20.2568 26.9862
15.3347 19.2693 25.4069
15.6847 20.8813 27.7848
16.3338 19.8306 25.3447
16.7057 21.4101 27.52
14.6572 18.5514 24.7795
15.8408 20.8884 27.4585
14.2266 18.028 23.5571
14.8909 19.7413 25.7532
15.6542 22.0395 30.9493
15.2842 19.055 25.4845
15.8904 20.1573 25.3166
14.7088 21.3123 30.5558
15.6024 20.0301 26.8157
14.8733 20.1504 27.106
13.6683 18.6232 26.7296
15.5022 19.982 26.9156
16.7565 21.8732 28.6164
14.5381 19.7516 27.1057
14.6607 20.5266 28.9083
15.9413 23.9624 40.921
31.3837 38.6888 42.6551
13.8437 19.1868 27.5616
14.0511 20.3584 29.1213
14.4341 19.6152 28.4265
16.0663 21.7511 29.4428
13.482 18.0147 24.9259
14.0036 19.8009 28.0654
13.2508 17.6452 25.309
13.5894 18.7221 26.4033
14.9831 21.8803 32.1505
14.8413 19.6117 27.5934
13.7335 19.2482 27.6336
14.3968 19.6301 27.2318
13.82 19.1724 27.1658
13.8345 19.7708 27.828
13.6034 19.4357 27.8838
13.713 19.7962 29.4515
14.4617 19.9184 27.7244
12.8409 18.7926 27.2985
12.9272 19.1435 29.5079
14.1532 19.3105 27.9524
12.9711 18.1874 25.9616
12.9644 19.2448 27.9307
13.7102 20.9436 32.0175
13.2393 18.723 27.6073
14.0855 21.4431 33.2423
14.0805 19.8462 29.4232
13.6664 18.915 27.1803
13.5165 20.6407 30.7017
13.562 20.6192 30.8416
12.7767 18.8929 28.8914
12.8543 18.5079 27.3871
12.2248 18.7323 28.7706
13.2596 19.7835 30.2121
12.617 18.3151 27.8263
12.2357 18.5545 28.9686
12.8468 19.1491 29.2594
12.5303 18.8761 29.5483
12.6255 18.8818 29.0529
12.2444 18.0425 28.2398
12.3185 18.4544 28.9042
12.8249 19.6017 30.9962
12.9135 19.7311 30.4603
11.9254 18.1848 29.5841
13.5671 19.8173 29.6335
12.8066 20.257 31.7439
12.9747 20.2482 32.1033
13.2117 19.3712 29.5119
11.6421 18.146 28.2973
11.316 17.6441 28.8544
12.715 19.5057 30.6708
11.431 18.1873 29.3811
11.6195 18.0824 29.3397
12.0204 18.828 29.9339
12.0086 18.5505 29.308
11.6945 18.2712 30.1046
11.7646 17.7395 27.5249
11.8185 19.47 31.9919
11.0767 17.1823 28.5357
11.5663 17.8397 27.9037
11.2524 19.0405 31.5911
11.6137 18.3201 29.3488
11.3333 18.2794 29.6186
11.1668 18.4233 31.1825
12.1589 19.8893 33.0889
10.8685 16.6688 27.7869
10.6762 17.1601 28.5073
11.9336 19.7619 33.1184
11.6277 18.7157 31.1293
11.6817 19.2282 32.6148
11.2663 18.2129 31.4044
11.4806 17.7786 29.7719
13.0018 22.1962 35.8527
10.7825 17.9015 31.6638
11.2688 18.4322 30.1502
9.87192 16.5248 29.009
10.7016 18.348 33.0779
12.2418 19.8475 32.1422
10.0101 17.7701 32.0889
11.5891 19.0406 31.7491
11.0019 18.4539 31.4716
11.3035 19.3773 33.45
10.313 17.382 31.4007
10.5243 16.9143 29.2817
11.2461 19.3386 33.4047
11.3819 18.9937 31.6257
9.85735 17.2827 31.4686
11.7135 19.726 34.3146
10.3024 17.0534 29.8496
10.7829 18.9556 34.2815
11.1418 19.3836 34.322
11.0889 18.2484 31.0289
10.1247 18.7813 35.3202
10.9322 18.3031 32.6138
10.4106 18.921 34.7831
10.3061 19.7958 48.0986
23.8959 37.4251 49.7117
9.53566 17.4856 32.0122
10.7478 19.9871 37.0597
10.1875 16.9096 29.0605
9.66233 17.3535 32.7639
10.7537 18.9246 34.5367
10.4656 17.4764 30.2964
9.5727 17.4208 32.1326
10.5677 18.6719 33.5539
10.5638 19.0335 34.4624
10.9695 19.2698 34.1106
9.4455 16.4229 29.8844
9.08953 16.4445 31.2661
10.1941 18.0824 32.1765
9.89951 18.1994 32.8726
10.0946 19.1872 36.5439
9.69101 18.3838 36.4268
11.2509 19.489 33.4947
9.44657 18.1219 35.3891
9.86214 17.2017 31.0516
9.47993 17.9591 33.4114
8.96123 17.0118 33.7037
9.92586 17.9601 33.1439
9.17955 16.3543 30.5118
8.95348 16.8818 34.0361
10.1522 18.3874 32.8296
8.25592 15.3338 30.5429
8.27278 15.3227 30.356
9.87826 18.5639 34.534
9.73266 18.6656 36.4851
9.51851 17.8036 34.0378
9.33898 17.1032 33.7185
9.60341 18.2997 36.9753
12.1035 23.0691 41.303
10.0472 19.799 40.2384
11.084 21.1911 41.2813
11.8122 23.1952 47.4601
12.1137 23.2205 46.7439
12.2868 21.4711 39.8388
11.209 22.049 42.6003
11.1336 21.8538 43.3739
10.2945 17.3723 32.2441
8.88908 17.2627 33.9553
9.13399 17.0263 32.7186
8.33977 15.9357 32.2384
8.76417 17.1099 33.6479
8.44408 16.9297 35.4994
9.24163 17.0524 34.1977
9.11165 16.8156 31.7669
8.45973 16.0816 31.9095
8.4872 16.906 33.887
9.22838 17.6268 35.4039
8.5011 16.6851 34.4058
8.97858 17.4407 33.0778
8.33034 18.1639 37.2582
8.31785 16.4883 34.6444
8.71385 16.8336 33.3742
8.17032 16.5638 34.7836
8.63788 17.111 35.0217
9.11642 18.0963 35.776
8.48865 16.477 33.9528
7.60885 15.6868 32.9678
8.29681 16.4791 34.6712
9.17673 18.1845 36.9714
8.89126 17.8859 35.2543
7.73996 15.5309 31.8643
7.23234 15.0068 31.8651
7.36172 14.1336 29.3514
7.92279 17.164 36.7201
8.09529 15.8571 33.2489
8.15809 17.2611 36.7136
8.53944 17.0132 34.957
8.01788 16.6919 36.3592
8.52248 17.3671 36.9331
8.66637 17.7476 36.9232
8.14605 16.5025 34.5737
7.55103 15.7103 33.8062
7.71813 15.7976 33.9775
8.30042 16.5266 32.8013
7.34113 15.6615 34.8182
8.0711 16.5518 36.0905
8.25981 17.1189 35.7956
7.93085 16.4919 34.7676
7.53469 16.2665 36.7585
8.02638 16.542 35.4781
7.41861 15.208 33.6799
7.56108 15.666 32.2699
7.5889 16.6101 36.6037
7.90927 16.251 34.2075
7.46797 16.5166 37.7263
8.1596 17.8611 40.3805
7.78913 16.0325 35.9115
7.75798 15.5526 33.7819
7.65968 16.2993 35.9767
7.53521 16.4538 37.3959
7.28033 18.3393 59.8778
18.2404 34.7005 54.9235
8.28972 17.4367 36.3613
7.73823 17.1445 36.6436
6.58287 14.1779 33.6841
8.09355 17.8058 37.9583
7.73773 17.7424 41.1768
7.8123 16.0841 36.923
7.78299 15.6374 32.6738
7.13466 16.6241 37.4987
7.48855 16.3221 36.456
7.28219 15.5545 33.8037
7.26949 15.9767 35.5141
6.77447 15.487 37.0412
7.91192 16.76 36.7328
6.60822 14.4235 35.2073
7.85278 16.7999 36.5983
7.2602 16.9146 39.0934
7.09034 15.1475 35.9507
8.24268 18.9417 41.5425
7.57233 16.9445 40.7503
7.78605 15.4006 34.1932
7.41783 16.1327 35.92
7.1106 16.4255 37.3725
7.2221 15.9836 37.3562
6.61613 14.0948 34.5213
7.28346 15.7095 36.012
7.90046 18.6334 40.2404
7.12877 15.9415 36.5241
7.11036 16.6353 35.9805
6.04356 14.8035 37.3994
6.90597 15.6141 37.8952
6.98028 15.5586 37.004
6.97421 15.0845 35.3613
7.18462 16.0036 36.1659
6.82669 16.5191 40.0696
7.64555 17.3959 38.1511
6.204 14.2599 34.4515
6.91767 16.1758 37.8725
6.13705 14.2778 36.8488
7.10168 16.8589 41.2166
7.21431 15.6485 37.4596
6.62557 14.2613 32.6381
6.08579 14.7102 35.6314
6.47645 15.1533 37.0206
7.06105 16.2688 38.0665
7.13736 16.3333 39.5923
7.17545 16.608 39.3669
6.74611 15.4699 35.3245
6.07227 14.1979 35.5703
6.1974 14.5739 36.7991
6.71824 15.9604 39.4044
6.4006 13.5153 31.3453
6.06771 14.5271 35.4348
6.45432 15.6449 38.2675
7.04313 16.9027 40.0314
6.12736 14.1366 33.9286
6.08258 14.8601 36.4689
6.55965 16.2578 40.7002
