# pn-170911/RbIIR-44-RbIIF-1280-1959.psd
# Power spectrum* (dif=0,1,2) (really just |FT|^2)
# NOTE: only the first half! (symmetric)
# weeks: 1280-1959
# 2334 clock-days, 213 excluded
# PSD: 1441
1414.06 0.22334 0.0283779
114851 2.98381 0.0532539
257431 5.28233 0.0534876
63113.5 1.68329 0.0513024
85528.9 6.2091 0.0560786
18021.3 1.06163 0.0516622
14208.2 1.71618 0.053763
8608.83 0.950059 0.0563301
7725.83 1.43167 0.0563614
5291.9 0.85381 0.0523154
4308.89 1.0014 0.0515744
3428.97 0.864284 0.0528747
3212.92 1.09122 0.0561645
2566.12 0.917506 0.0561764
2200.89 0.983741 0.054021
2059.61 1.01309 0.0518589
1792.73 1.15951 0.0528242
1537.59 1.0958 0.0545486
1516.28 1.22176 0.052607
1349.24 1.18512 0.0528157
1260.45 1.28398 0.0556639
1205.65 1.40426 0.0566078
1138 1.52536 0.060295
1070.99 1.56295 0.055661
1041.43 1.68528 0.0603539
969.232 1.7697 0.0557198
930.331 1.88034 0.0590001
900.894 1.95622 0.0581083
889.017 2.19916 0.0613506
881.605 2.36158 0.0669595
824.343 2.50213 0.0653518
810.141 2.57028 0.0645299
812.646 2.80068 0.0685653
760.911 2.84752 0.0675008
753.149 2.91622 0.0674694
779.547 3.3994 0.071727
761.302 3.56812 0.0746978
728.47 3.62039 0.0765987
696.952 3.70994 0.0773147
730.009 4.17108 0.0841542
718.079 4.28456 0.0851943
669.01 4.36989 0.0865959
663.044 4.34216 0.0889689
643.075 4.59145 0.0905073
672.671 4.93829 0.0971407
623.397 4.9093 0.098676
620.25 5.09115 0.101769
611.314 5.35613 0.105009
654.371 5.88354 0.11576
606.902 5.72957 0.115733
576.533 5.79762 0.118305
582.12 6.07819 0.125555
591.28 6.28504 0.13272
581.101 6.41323 0.134646
554.457 6.48146 0.141054
558.555 6.84767 0.151769
537.235 6.80568 0.150953
533.631 7.1449 0.161889
523.381 7.29774 0.174061
504.433 7.14195 0.170882
518.485 7.58456 0.180144
495.967 7.38063 0.183518
501.968 7.94771 0.199322
477.714 7.94155 0.197084
471.468 7.91467 0.207599
478.523 8.4087 0.222283
470.418 8.67673 0.227021
443.721 8.47037 0.230221
430.737 8.32973 0.227387
440.275 8.801 0.246977
434.229 9.0248 0.263346
422.009 9.11826 0.269757
429.05 9.30558 0.276115
414.219 9.09435 0.271755
412.399 9.54566 0.294096
397.928 9.46433 0.296387
380.497 9.44521 0.308409
373.669 9.40666 0.311237
393.751 10.2044 0.344084
372.842 9.8761 0.345917
356.392 9.68863 0.345571
352.405 9.90712 0.356229
343.672 9.99995 0.367035
341.441 10.0358 0.374271
346.641 10.4309 0.390274
336.903 10.5201 0.409737
321.865 10.1943 0.406751
325.412 10.5137 0.42967
328.014 10.809 0.4436
313.482 10.6444 0.444338
321.426 11.0972 0.469216
313.221 11.1725 0.482941
317.621 11.6111 0.517587
298.851 11.0212 0.492115
279.105 10.5422 0.489424
293.351 11.3472 0.536169
459.151 18.9825 0.850238
281.141 11.3688 0.548148
267.768 11.1051 0.548809
274.543 11.3432 0.561775
262.344 11.2836 0.5829
281.654 12.4394 0.648133
284.91 13.0637 0.68293
271.836 12.397 0.677964
234.564 11.1092 0.616788
264.606 12.6114 0.699736
246.137 11.6446 0.650011
241.761 11.9659 0.695181
240.97 12.0825 0.701913
233.451 12.0252 0.731046
236.592 12.3572 0.753079
228.666 12.2617 0.757935
223.802 11.9821 0.755371
236.893 13.1776 0.846692
241.444 13.7771 0.90155
215.61 12.3852 0.812003
224.601 13.189 0.880762
209.613 12.3444 0.836254
205.97 12.5023 0.849314
214.033 13.1838 0.925133
210.9 13.1101 0.920395
206.717 13.028 0.936594
190.156 12.4193 0.911234
208.505 13.5709 1.01917
198.434 13.0439 0.983365
192.875 13.0175 1.01203
198.39 13.8432 1.06433
195.476 13.5622 1.06865
187.699 13.4887 1.08457
181.859 13.1692 1.06789
191.491 14.0505 1.13864
189.24 14.1998 1.18083
212.653 15.9101 1.33451
187.175 14.1722 1.21429
173.007 13.1773 1.15
180.27 14.3866 1.27169
166.91 13.4793 1.20486
175.476 14.2439 1.29317
167.847 13.7627 1.26998
159.533 13.3827 1.26309
166.902 14.386 1.36164
159.607 13.8358 1.33454
161.192 13.7627 1.32863
168.102 15.1574 1.48548
176.429 16.2981 1.62678
163.102 14.8739 1.4909
154.062 14.385 1.47562
153.295 14.3604 1.49394
161.875 15.7474 1.66439
153.906 14.4288 1.53825
151.66 14.7305 1.57927
149.885 14.8597 1.61876
143.676 14.4738 1.60432
148.407 15.2479 1.70793
146.18 14.9076 1.67251
147.587 15.5618 1.80137
155.062 16.1652 1.86566
135.272 14.4922 1.70483
142.719 15.5074 1.8548
138.166 15.2424 1.83139
132.127 14.8113 1.81437
134.46 15.7535 1.95428
135.503 15.7667 1.94393
133.106 15.4651 1.96552
136.946 16.3633 2.10538
134.618 15.9674 2.0676
129.857 15.7703 2.08518
137.431 16.8217 2.20645
139.022 17.3517 2.33069
126.752 15.6392 2.11901
131.255 16.4343 2.24786
129.07 16.4234 2.27582
127.018 16.5915 2.34654
120.609 15.4359 2.19417
125.404 16.7709 2.44546
129.379 17.3863 2.52143
120.33 16.1653 2.36965
117.255 16.0404 2.39355
119.399 16.6227 2.48852
122.461 16.9624 2.58656
120.686 16.9544 2.58512
119.384 17.1705 2.65935
118.71 17.1808 2.68707
120.383 18.129 2.89414
115.432 16.7517 2.66582
114.386 17.3223 2.81731
116.711 17.399 2.79826
113.745 17.2438 2.85177
115.383 17.5517 2.90736
109.08 16.9888 2.87181
107.96 17.0915 2.92046
113.616 18.3623 3.22796
231.913 38.835 6.48296
106.054 17.2759 3.04421
99.2423 16.4489 2.9571
106.546 17.955 3.27303
108.051 18.0533 3.21297
101.311 17.1656 3.12645
105.365 18.5219 3.41327
97.7542 17.1282 3.21064
102.205 17.8244 3.33539
100.175 17.7112 3.38152
102.505 18.2348 3.51298
97.9713 17.9781 3.55316
107.924 19.9584 3.88286
97.8153 17.6626 3.49446
99.627 18.6498 3.67907
99.1525 18.4351 3.71164
99.7583 18.7605 3.78877
95.2318 18.4431 3.80106
99.9735 19.1319 3.9124
95.3484 18.4431 3.88054
92.9902 18.3548 3.83736
90.8089 18.2835 3.8935
93.3824 18.4314 3.96712
93.6365 19.3058 4.26223
97.5718 19.6315 4.18896
91.798 19.0492 4.19998
89.3613 18.4514 4.13149
91.9465 19.7429 4.44319
89.7035 18.9569 4.29423
86.6178 18.6955 4.27238
93.2651 20.4832 4.76565
88.9053 19.0159 4.34324
85.4026 18.57 4.3714
87.4289 19.1876 4.53746
84.3163 18.8921 4.52469
87.6759 19.9692 4.81983
89.2654 20.6701 4.97279
84.649 19.3329 4.72307
83.0604 19.3386 4.75635
80.2036 18.6081 4.63173
79.4553 18.9051 4.75124
86.5858 20.6882 5.24689
83.706 20.13 5.13734
80.1351 19.4907 5.04292
84.9605 20.3744 5.16761
76.3354 18.7273 4.92078
76.4553 19.1199 5.06572
81.4984 20.4281 5.48563
81.0317 20.4202 5.48465
78.872 20.3143 5.45837
75.7877 19.2802 5.25718
76.7619 20.0612 5.54559
76.8763 19.8961 5.53574
77.4622 20.2951 5.62937
77.3507 20.7275 5.84497
73.9854 19.9023 5.62782
76.195 20.3134 5.74388
72.5827 19.7636 5.71563
71.3816 19.5097 5.66808
73.0708 20.3407 5.97443
74.6777 20.6651 6.13345
74.4692 20.752 6.14081
71.0941 19.856 5.8853
71.0521 20.5825 6.23967
71.1385 20.2893 6.11759
72.4872 21.5241 6.61628
72.8678 20.9014 6.41518
69.4962 20.62 6.47446
71.5951 21.2798 6.66314
68.8727 20.453 6.49483
68.0192 20.4294 6.52362
70.8635 21.6028 6.95055
72.0616 21.9304 6.99696
67.6609 20.8141 6.71751
64.0038 19.7539 6.46046
66.7947 20.951 6.89758
65.7088 20.7672 6.94622
66.0844 20.6616 6.87211
68.8689 22.1975 7.45406
66.1798 21.0702 7.14241
63.7144 20.5131 6.99688
64.1736 20.9742 7.24302
64.9589 21.2426 7.32974
64.3678 21.3943 7.59512
66.8027 22.1072 7.72065
65.0956 21.5664 7.51079
62.4822 21.1651 7.5417
61.5794 20.8903 7.55336
61.1457 21.1313 7.6073
62.5587 21.3393 7.7495
62.9063 21.9839 8.08303
61.3764 21.3106 7.79241
60.4815 21.3432 7.94437
59.2224 20.7593 7.81918
55.0339 19.859 7.62486
60.9113 22.0734 9.0118
154.042 56.1375 20.2607
59.6919 22.0568 8.65042
59.982 22.2233 8.74965
59.9964 22.0919 8.63109
59.3897 22.1192 8.66088
57.9947 21.676 8.51992
57.2833 21.6417 8.67373
58.1898 21.6382 8.64578
56.425 21.3706 8.57344
58.2869 22.2268 9.0724
56.6667 22.0282 8.97784
56.2651 21.8557 9.00186
56.7238 22.6103 9.43988
57.4087 22.3362 9.22963
56.5629 22.1776 9.24023
53.758 21.4872 9.14954
52.1259 21.0977 9.00616
55.0463 21.9371 9.34394
54.7709 22.2914 9.59375
54.2369 22.1133 9.48
52.0918 21.6282 9.47277
52.85 21.8092 9.55726
51.3145 21.0809 9.31849
53.2941 22.3574 9.91213
53.698 22.7541 10.1176
53.0656 22.3625 9.95061
49.512 20.8107 9.41173
50.6554 21.8457 9.94211
50.533 21.8475 9.90482
51.5567 22.4768 10.2826
50.4211 22.1228 10.2551
52.7533 23.0886 10.7429
51.5741 22.6579 10.5661
51.1661 22.4856 10.4839
49.1963 22.1738 10.5527
49.6538 22.6247 10.6894
48.5031 22.3942 10.7936
47.9002 22.2192 10.7321
48.6188 22.1897 10.8002
47.4307 22.1146 10.7635
46.5522 21.6681 10.6278
45.8228 21.5015 10.6348
47.5244 22.639 11.2054
46.7493 21.8222 10.9139
46.4801 22.1134 11.101
46.4775 22.1809 11.2483
46.7987 22.3934 11.3408
46.197 22.0863 11.211
45.5131 22.1438 11.3756
45.4603 22.265 11.4231
44.5498 21.9408 11.4254
43.3891 21.4253 11.2872
44.976 22.2107 11.6668
45.2524 22.927 12.1486
44.2786 22.5736 11.9912
43.7977 22.3777 12.1136
42.8726 21.851 11.6857
41.4035 21.417 11.7171
45.2899 23.1837 12.4578
42.8225 22.0935 12.0756
44.298 22.9451 12.6382
43.2866 22.3753 12.2748
43.0767 22.4254 12.3139
41.9473 22.2991 12.4333
41.0567 22.0592 12.4307
40.9846 22.1508 12.5811
41.5391 21.9162 12.3043
42.5711 22.871 12.9439
41.247 22.6914 12.9396
39.3017 21.7121 12.7329
39.8548 21.5409 12.5421
41.3342 22.643 13.0923
39.6223 21.9065 12.9445
40.089 22.3158 13.2093
38.871 21.6298 12.7185
42.0432 23.7507 14.0484
41.2979 23.0623 13.7711
41.1788 23.6614 14.1971
39.0577 22.4986 13.7645
40.4518 23.0279 13.8032
39.4795 23.1256 14.1304
38.8504 22.428 13.7512
38.574 22.7825 14.0412
39.2685 23.0957 14.4021
39.368 22.895 14.1332
38.2382 22.4862 14.0874
39.3135 23.3873 14.6692
36.9322 22.0118 13.9755
38.0997 22.7143 14.4127
38.1683 23.1715 14.7025
36.0196 22.1568 14.281
36.0323 22.2394 14.4694
36.9446 23.0057 15.0609
36.6931 22.8009 15.0927
35.484 22.2264 14.9476
35.2699 22.7098 17.059
97.4889 60.7607 36.0708
35.4027 23.0307 15.9446
35.9035 22.9333 15.6446
36.2382 22.734 15.3191
35.8244 22.8199 15.3762
34.6228 22.1353 14.9945
34.4532 22.1929 15.226
35.5318 22.6721 15.4748
33.2557 21.1646 14.4628
35.0738 22.9227 15.8697
34.5528 22.4523 15.7046
35.5976 23.6673 16.4603
34.4142 22.6498 15.836
33.51 22.4523 16.0564
33.7703 22.4933 15.9527
33.67 22.6579 15.8924
32.2764 21.7951 15.7181
33.2302 22.4211 15.9048
31.0398 21.2257 15.4091
32.0886 22.1677 16.1074
32.6424 22.3557 16.2828
32.493 22.3283 16.1182
32.5201 22.521 16.4789
32.3971 22.5962 16.6199
32.5383 22.6639 16.5622
31.3302 22.3627 16.773
30.7688 21.8376 16.4044
30.6324 21.8245 16.5364
31.4217 22.1266 16.6173
32.3895 22.9552 17.4137
30.1977 21.8059 16.5812
30.9263 22.7905 17.6157
31.2186 22.7649 17.4961
31.3611 22.8519 17.5998
29.9642 22.4771 17.6639
30.3824 22.2102 17.1118
30.4507 22.8642 18.0064
30.4958 22.7846 17.9273
30.9335 22.7366 17.8201
29.2159 21.9257 17.2892
28.5542 21.5794 17.2673
28.9738 21.9137 17.543
29.9587 22.6391 18.0458
29.7976 22.8444 18.463
29.8779 22.5649 18.1541
29.2832 23.0994 18.7321
27.963 21.8027 18.0309
29.5385 22.9129 18.7818
29.4782 22.6488 18.6334
28.2236 22.1244 18.5018
29.4219 23.4242 19.3853
27.734 22.1577 18.8258
29.4342 23.2985 19.3602
28.5376 22.5061 18.7297
28.6998 23.0739 19.465
27.7585 22.8106 19.659
28.5288 22.5964 19.0793
27.1195 21.9981 19.0958
28.1635 22.6075 19.4042
28.3101 23.0108 19.8166
27.8262 22.6504 19.5485
27.8414 22.9196 19.9091
26.9198 22.5405 19.9016
27.304 22.774 19.9847
27.2072 22.7355 19.9542
26.8495 22.5512 19.8842
27.2692 23.2555 20.6292
26.4174 22.2988 19.9401
26.7024 22.6327 20.2107
26.3322 22.3695 20.0342
26.3446 22.4372 20.1883
26.5377 22.7766 20.7486
26.4637 22.2004 20.0274
25.2849 21.9377 20.0914
25.4165 22.4077 20.8135
26.3834 23.163 21.5606
26.9695 23.1042 21.0684
25.7967 23.0406 21.3514
25.3305 22.4018 20.9258
25.3692 22.5594 21.084
25.5647 22.8873 21.4156
24.7257 22.7267 22.1434
25.148 22.0762 21.0346
25.7369 22.9955 22.0729
25.7148 23.1737 22.189
25.4747 22.9634 21.8419
25.2655 22.6187 21.274
24.5291 22.5165 21.9609
24.6522 22.4304 21.8244
24.6081 22.6663 22.2347
23.9667 21.6151 20.9659
23.9204 22.4032 22.0229
24.1761 22.6276 22.5398
24.3906 22.561 22.4463
23.2316 22.1769 22.8475
23.3563 24.1131 30.2239
68.888 62.9563 52.2421
22.5567 22.3923 23.9236
23.2604 22.4647 23.2111
24.7107 23.6935 23.8601
23.4379 22.6425 22.9077
22.9426 21.8582 22.4011
22.7782 22.0472 22.6665
23.2027 22.9642 23.8499
22.826 22.0925 22.39
22.3393 21.9775 22.8882
22.4654 21.8931 22.5928
22.5267 22.1235 23.1313
22.0008 22.0292 23.3803
22.0063 21.654 22.6264
21.7311 21.7142 23.1484
22.5533 22.3248 23.8368
22.8409 22.7618 24.0078
22.0907 22.0026 23.2513
21.6497 22.1481 24.0208
22.0878 21.9347 23.3669
22.3346 22.7202 24.202
21.1341 21.4011 23.4264
21.4856 21.8066 23.5074
20.8423 21.1864 23.0105
20.5974 21.3221 23.5291
21.1473 21.7635 23.9679
20.9572 21.7216 24.0846
22.606 23.2891 25.3077
21.3637 22.4974 25.1445
21.2973 21.9597 24.3928
20.9318 22.0449 24.3671
20.6911 21.8971 24.5033
20.9662 22.1351 25.1058
20.7388 21.8559 24.6574
20.7133 21.794 24.3972
20.8546 22.6006 25.5793
19.8485 21.1511 24.6127
21.2935 22.7041 25.9278
21.2536 22.4993 25.3255
19.8202 21.8663 25.1913
20.1475 21.8703 24.8883
19.5605 21.6018 25.3368
19.8071 21.8696 25.572
20.2631 22.1032 25.2252
19.8227 22.7752 27.0053
20.0855 22.1686 25.9902
19.5942 22.0193 26.2352
19.5401 21.5434 25.5904
19.918 22.0771 26.2
19.6902 22.0365 26.1923
18.7778 21.015 25.4561
19.34 21.3678 25.7422
19.5821 21.8085 25.9066
19.077 21.974 26.657
19.4052 21.989 26.8492
19.0931 21.6503 26.2236
18.8492 21.0098 25.5578
18.4424 21.4355 25.98
18.6163 21.5227 26.4501
17.9641 21.1216 26.163
18.7357 22.0035 27.0017
17.9977 21.0687 26.6811
18.8662 21.6882 26.6123
17.962 20.9077 25.8559
18.4861 21.6645 26.9698
18.7761 22.2722 27.6292
17.7027 21.1307 26.8929
18.4255 21.7038 26.9495
17.9103 21.679 27.5994
18.4009 22.1132 28.3869
18.2503 21.875 27.7611
17.901 21.4901 27.5589
17.9097 21.7989 28.1688
18.1613 21.9079 28.4143
18.0852 21.8633 27.7941
17.4231 20.8602 26.8005
17.1557 21.4766 28.281
17.6049 21.379 27.6208
16.9123 21.0911 27.7565
16.9437 20.7854 27.27
18.017 22.689 29.4566
17.179 21.7836 29.5663
17.8749 21.8069 28.5108
17.1339 20.7755 26.9846
16.9446 21.6001 29.1226
16.8795 21.1021 28.5718
17.1064 21.2119 28.3652
16.9657 21.135 27.9605
16.9352 21.7385 30.0582
17.2421 21.7173 29.1863
17.0817 21.6062 29.0871
16.4355 21.5116 29.6041
16.6949 20.6779 28.5569
16.575 21.8623 30.6021
16.9302 21.8922 31.6931
16.3634 23.4016 44.381
48.8484 59.9984 64.4
16.8123 22.6629 32.1466
17.1467 22.5814 32.2013
16.6667 22.0929 31.4013
16.5443 21.4592 30.4988
16.0283 20.8882 28.9551
15.8833 21.2105 30.0834
15.8903 20.908 29.2691
15.8527 21.1434 30.1516
16.0855 21.3639 30.5734
16.0702 21.7786 31.1747
15.8335 20.6999 29.3761
16.128 21.9128 31.5769
15.3523 20.1897 28.7535
15.5824 20.9406 29.9846
15.5065 20.8355 29.9304
14.604 19.9162 29.2241
15.5182 21.1901 30.7204
15.4339 21.1127 30.2375
14.8724 20.8645 31.3049
15.3156 20.7561 30.4604
15.0006 20.3844 29.434
14.4915 20.505 31.0921
15.6323 22.0117 32.9215
15.4456 21.1465 31.5871
15.1921 20.4486 29.9825
15.3408 21.1006 30.5993
14.251 20.0795 30.2013
14.8812 20.6701 30.8604
14.3965 20.5299 31.2723
15.1978 21.5976 32.575
14.6719 20.4876 30.7104
14.1915 19.9333 30.052
14.2727 20.0714 30.2289
14.2996 20.8624 32.0535
14.7542 20.6674 31.6191
14.2627 20.282 31.1987
14.5218 20.7769 31.5186
14.0453 20.2809 31.3234
14.6626 21.7281 33.8163
14.125 20.2725 31.415
14.2951 21.0261 32.4873
14.0825 20.5483 32.0427
13.8089 20.5886 32.4507
14.0033 19.9191 31.0003
13.648 19.8891 31.0599
13.5778 20.008 31.5952
13.627 20.3951 32.7909
14.425 21.2917 32.9981
13.6293 20.4119 32.5322
13.6802 20.4568 32.6567
13.5562 20.2575 31.9988
13.6329 20.6265 33.3444
14.1193 20.797 33.0104
13.1162 20.2713 32.6832
13.6063 20.9547 33.7365
13.1182 19.4809 31.7433
13.647 20.8512 33.5936
12.7347 19.4267 32.6686
13.8338 20.5119 32.7296
13.5441 20.8453 33.9493
12.9505 19.9389 32.6101
13.1403 20.7067 34.3284
12.8753 19.5928 32.3672
12.9343 20.0095 32.9303
12.8309 19.8879 33.0347
12.8696 19.812 32.6778
12.4851 19.4223 32.5861
13.0204 20.3633 33.9881
12.6858 19.8451 33.5516
12.651 19.9141 33.3203
12.9177 19.7941 33.45
13.0089 20.3825 34.0151
12.4752 19.7714 32.9363
12.2187 19.4002 33.1339
12.4695 19.4672 32.598
11.9415 19.4598 33.9417
12.7689 20.0062 33.6331
12.1965 19.6612 34.1294
12.477 19.5216 32.9429
12.1015 19.8298 33.9726
12.2769 19.8597 34.7539
12.4816 20.1788 34.8153
11.9408 19.3182 33.395
12.1337 19.5655 34.2953
12.166 19.6549 34.4479
12.526 20.0314 34.5595
11.9078 19.7146 34.8174
11.8731 19.2559 33.9525
11.9042 19.4514 33.9917
11.7849 20.0513 35.8788
11.8967 19.3924 34.0994
11.2899 18.9982 34.8721
12.03 20.4985 37.1441
11.5792 19.825 37.4602
11.5424 23.4716 65.2351
36.4245 55.5771 69.713
11.7527 20.8183 37.5407
11.2076 19.6368 36.2972
11.4426 19.4954 35.4393
11.8105 19.9437 35.5531
11.1426 18.8269 34.4547
11.3099 19.0946 34.4365
11.2835 19.0463 34.9998
11.3394 18.9304 34.8101
11.5488 19.4115 35.0729
11.3353 19.2961 35.0112
10.979 19.1722 36.0033
11.5534 19.6569 35.6056
11.0461 19.2911 36.307
11.3356 18.8883 34.1444
10.5629 18.1816 33.9965
10.6952 18.6133 35.142
10.9878 18.8909 35.8482
11.598 20.1007 36.5775
11.0429 19.0838 35.5809
10.7719 18.5792 34.4308
10.4557 18.7378 35.4488
10.5405 18.1663 34.4926
10.588 18.5324 35.0147
10.8289 19.1942 35.895
10.646 18.9055 36.0153
10.5787 18.8158 36.2557
10.511 18.1068 35.2904
11.0524 19.1896 35.7401
10.317 18.7263 35.8767
10.6882 18.8799 36.1665
10.3835 18.4472 35.5975
10.7659 19.328 36.7154
10.2558 18.7477 37.5502
10.6863 18.9336 35.9994
10.5136 19.2896 37.0053
10.1366 17.8817 35.1675
10.0881 17.9614 34.9542
9.77849 17.6201 34.5001
10.3041 18.9808 37.2411
10.1523 18.1206 34.9883
9.63245 17.6086 35.5104
9.69151 17.7408 35.487
10.2115 18.3245 36.3612
10.0139 17.9874 34.8286
9.66542 17.9158 35.3241
9.13051 17.0979 34.7573
9.33044 17.5029 37.1876
11.0801 19.9252 37.4327
9.45794 17.4195 35.0525
9.51523 17.6647 34.8785
9.13061 17.0831 34.6673
9.51042 17.8747 35.6899
9.39069 17.1838 34.6614
9.23018 17.3042 35.4972
9.55836 17.7978 35.8828
9.44438 17.8677 36.4882
9.58336 17.748 35.5534
9.13436 17.3181 35.785
9.132 17.267 35.624
9.1858 17.2519 35.4958
9.4368 18.0695 37.1223
9.907 18.7427 37.808
9.07454 17.0839 35.6867
9.36498 17.969 36.4631
9.13224 17.9695 37.3876
8.88318 16.9951 36.0228
9.01324 17.3548 37.347
9.85497 18.8307 38.0441
9.12435 17.5779 36.1064
8.7985 17.3352 36.8311
9.05751 17.3096 36.5531
9.14625 17.8323 37.2292
9.05741 17.7636 37.0113
8.67497 16.8847 36.3928
9.11489 17.6921 36.7712
8.845 17.4887 36.7312
8.56175 17.0213 36.6029
8.86561 17.6598 37.4364
8.88575 17.2971 37.0452
8.77597 16.7879 35.5074
8.78754 17.6001 37.2126
8.61811 17.1301 36.7582
8.66693 17.1441 37.1663
8.30209 16.264 35.5305
8.52687 17.1936 37.7475
8.87745 17.5141 37.3477
8.66528 17.3015 37.4625
8.68196 17.0955 37.076
8.4432 16.367 35.6547
8.56967 17.2072 37.2433
8.44156 17.2634 37.8934
8.34318 16.8813 37.809
8.52239 17.6006 39.0778
8.07982 17.0577 39.8916
7.95379 20.5681 80.0038
27.6232 50.5879 69.903
8.11988 18.0911 40.5889
8.06848 17.3756 39.2919
8.2751 17.1737 38.9789
8.4741 17.3957 37.7977
7.93403 16.6765 37.5421
7.96854 16.5322 37.8567
8.16622 16.9851 38.4291
8.11418 16.6262 37.5198
8.30301 16.7839 37.1325
7.98715 16.5237 36.9434
7.83195 16.4414 37.146
7.98454 16.3851 37.1644
8.05436 16.4569 36.8968
7.87692 16.6639 38.2406
7.87389 16.2073 36.6729
7.71907 16.1325 36.8565
7.85913 16.5173 38.1415
7.87269 16.2417 36.3148
7.69414 16.2714 37.7922
7.72957 15.9086 36.3003
7.62929 16.3646 37.942
7.83523 16.4587 37.7236
7.81567 16.247 37.2613
7.52356 16.0269 37.5499
7.62742 15.8787 36.2609
7.41657 15.7813 36.3232
7.35155 15.4768 35.1728
7.31205 16.1385 37.5555
7.44751 16.1566 38.1431
7.48732 16.0904 37.8844
7.3305 15.5505 36.7292
7.44063 16.0443 37.8305
7.5896 15.9161 36.2734
7.1093 15.073 35.6075
7.2971 16.0788 37.1474
7.0221 15.3304 36.9039
7.34527 16.2525 39.4663
7.64135 16.601 39.2785
7.48239 16.1346 38.5182
7.36596 15.8061 38.4038
7.44582 15.9922 35.9514
6.92258 15.6828 38.46
7.28109 15.5919 37.144
7.17483 15.5818 36.9056
6.91518 15.4861 37.8246
7.13722 15.0897 36.1445
7.12598 15.9326 38.4119
6.98828 15.5016 37.4522
7.01125 15.2992 37.5798
7.12777 15.4602 37.4043
7.13818 15.7812 38.3769
6.98212 15.3809 37.2704
7.01019 15.5168 37.3142
6.94023 15.2163 37.2971
7.05897 16.0699 38.5275
6.88998 15.4283 38.0504
7.01336 15.9239 38.9064
6.96198 15.4148 37.2987
6.59061 14.8694 37.5884
6.95874 15.4542 37.6714
