# pn-170911/RbIIR-55-PTBB-1280-1959.psd
# Power spectrum* (dif=0,1,2) (really just |FT|^2)
# NOTE: only the first half! (symmetric)
# weeks: 1280-1959
# 4 clock-days, 0 excluded
# PSD: 1441
408.582 0.288197 0.0265968
21391.6 0.275689 0.0375193
163734 2.86162 0.0354491
10999.1 0.346892 0.0324985
31238.8 3.45502 0.0377051
5685.15 0.428804 0.0355072
2459.03 0.360602 0.0311589
2209.22 0.483901 0.0377292
2772.26 1.03898 0.0354372
809.935 0.364169 0.0328438
1577.99 0.611885 0.0376032
253.979 0.078918 0.0337453
729.099 0.613371 0.0381134
304.271 0.481585 0.0364549
1957.38 1.19476 0.034427
714.083 0.793537 0.0413636
719.588 0.61907 0.036522
294.536 0.326195 0.0283202
428.495 0.566073 0.0414238
290.469 0.534194 0.0372538
203.38 0.352922 0.0312579
248.95 0.688382 0.0308554
133.266 0.4293 0.0448261
251.148 0.601939 0.0262495
456.897 1.25825 0.0337154
267.161 0.610663 0.0295236
411.635 1.49587 0.0506957
297.78 0.952904 0.0319549
263.911 1.13521 0.0257926
176.817 0.640816 0.0361569
449.487 1.81677 0.0466491
450.875 1.69302 0.0369453
146.982 0.843604 0.0494764
162.573 0.872447 0.0455037
467.782 1.93997 0.0358504
535.532 2.55828 0.0350038
356.895 2.20073 0.0331449
153.282 0.80576 0.0267256
434.597 2.38137 0.0588583
234.311 1.33106 0.0579616
132.576 1.00558 0.0512934
329.462 2.56452 0.0660588
440.537 3.67992 0.0841844
649.234 4.48945 0.0608397
138.005 1.25421 0.0602535
255.119 1.91674 0.0375084
236.94 2.34195 0.0648069
318.218 4.47277 0.10779
220.087 2.43134 0.0423381
594.775 6.27789 0.112619
655.391 7.24325 0.161101
455.464 4.95006 0.148732
255.502 2.60087 0.0344715
539.999 6.81498 0.19221
383.258 4.35489 0.0573583
264.353 4.14532 0.0654399
201.504 2.71201 0.0898079
211.923 3.04236 0.121782
311.161 4.59894 0.0516011
87.3987 1.51601 0.0326416
275.631 4.34659 0.101074
259.006 4.2837 0.0537198
411.474 7.16248 0.13622
365.644 6.04671 0.150272
128.754 2.31055 0.103035
376.408 6.8967 0.11667
304.542 6.53328 0.199691
233.324 5.72489 0.204834
268.449 6.26172 0.119859
280.243 6.59746 0.224757
315.643 7.93779 0.208521
202.141 5.26887 0.152262
137.416 3.35592 0.076983
91.1183 1.98726 0.0882495
188.554 4.33804 0.119045
292.619 8.40734 0.227341
423.607 10.589 0.364031
103.977 3.4263 0.0912971
311.577 8.73202 0.389652
297.452 8.67926 0.173185
158.75 4.46974 0.175687
108.938 3.04581 0.0396143
192.668 4.98701 0.290078
546.714 16.7963 0.608962
238.767 9.06024 0.420136
165.208 5.27514 0.298227
170.782 5.65501 0.119112
200.046 5.81327 0.317593
219.524 6.88545 0.294445
52.8187 2.02756 0.0904646
29.2791 0.870247 0.0968249
172.378 7.1914 0.345411
280.338 10.8803 0.483667
44.0378 2.21296 0.0931881
345.711 14.0778 0.672412
57.444 2.87337 0.110655
350.082 17.8661 0.849099
174.59 6.61689 0.319772
133.62 6.37271 0.372729
90.5737 3.81501 0.173852
232.549 10.7497 0.378039
365.682 16.7171 0.901412
142.104 7.08796 0.435293
129.234 5.64951 0.391824
148.383 8.54471 0.414052
136.292 7.41997 0.327234
312.151 18.2217 1.05707
107.822 4.3743 0.217531
87.4987 4.65452 0.252303
311.795 17.7851 1.16022
160.491 7.768 0.62183
133.292 7.55405 0.380791
202.05 13.14 0.681955
80.1927 4.6182 0.448983
105.195 5.75476 0.435005
124.971 7.19422 0.515769
246.664 17.1625 0.922669
220.885 12.5993 0.822179
171.258 11.0567 0.646373
130.665 9.84081 0.77007
75.2405 5.93527 0.363292
91.1274 6.41709 0.549118
149.042 11.8129 0.765598
157.469 9.63287 0.63851
105.712 8.83333 0.826013
210.634 13.0371 0.956173
247.592 18.7734 1.73815
150.222 11.134 0.672111
89.343 7.40495 0.504055
239.312 19.5336 1.58487
203.655 15.9779 1.31806
167.525 15.8052 1.58753
340.988 27.1727 1.78542
129.26 9.08324 0.704815
278.895 23.6702 2.02594
170.75 13.5724 1.40013
87.6252 6.20739 0.453462
177.839 17.7001 1.75534
278.403 23.0686 1.96081
184.491 16.3754 1.54541
42.6937 4.1542 0.287258
63.1651 5.52485 0.422663
221.071 18.9714 1.92759
103.759 9.89477 1.07609
148.313 15.9679 1.99503
76.6436 7.86676 0.682512
347.502 35.1405 3.65784
90.4355 9.7114 0.764222
223.488 22.1885 2.20055
68.0715 7.38186 0.817722
161.397 17.2156 1.73531
91.4951 10.1781 1.33538
32.4818 3.56471 0.365494
132.816 14.0335 1.6955
103.667 10.9296 1.36462
32.7728 4.48262 0.717907
165.543 18.584 2.45449
112.569 12.9388 1.46172
75.8262 9.61851 1.34491
133.121 18.475 2.25142
288.001 31.7868 3.87477
47.3702 6.3437 0.885106
52.2804 6.41166 0.688487
211.66 26.2306 3.22427
25.2258 2.86584 0.279374
95.0157 14.5652 1.93995
107.352 12.8725 1.35731
96.8204 11.9772 1.59701
154.62 19.2419 2.52472
74.4842 9.87112 1.63238
123.603 18.0893 2.59256
36.5951 5.56127 1.047
82.1073 11.3746 1.30486
80.2106 12.7524 1.86344
70.4707 12.3387 2.12537
170.083 23.3509 2.86231
39.8513 6.93527 1.07762
104.867 15.2786 2.32964
107.24 14.8909 2.1828
97.8198 15.6247 2.35324
99.6227 12.8153 1.87727
71.1703 10.6032 2.0096
208.028 33.8033 4.90809
36.3343 6.10755 0.8662
103.126 18.004 3.35807
45.9099 8.13614 1.78915
106.9 13.393 1.83682
119.736 21.2936 3.48908
107.373 18.4616 3.0026
62.0553 12.148 2.57042
204.208 35.385 6.45625
214.2 34.1227 6.03549
209.12 35.5419 6.38562
59.6877 9.79782 2.06678
56.1958 9.72047 1.77327
73.5737 12.2364 1.60651
39.0445 5.84861 1.09291
81.8757 13.9856 2.58334
66.6688 12.6179 2.4446
73.4051 15.5435 2.90802
157.032 28.0602 5.06151
80.3504 18.8705 4.44071
46.4315 8.01202 1.31377
120.915 22.0215 4.66499
80.8013 18.5463 4.76285
122.706 19.6115 3.33259
102.92 17.8625 2.63181
62.4462 13.1336 2.82918
217.923 42.4557 8.72389
16.9541 3.82603 1.13297
72.0123 16.8129 4.08191
25.5108 4.49974 0.860978
109.988 22.4823 4.68583
126.404 26.0879 5.57185
150.031 33.2717 6.47304
32.7469 7.76245 1.91713
53.4189 11.0013 1.82132
162.119 36.8644 8.23176
98.7639 25.348 6.84455
90.9636 16.4636 2.70488
131.903 26.7778 5.63321
93.9703 23.2824 5.60985
42.2781 10.5086 2.9679
67.8325 17.3744 4.16139
82.5218 21.1288 5.35281
122.7 25.7565 4.64589
35.9059 9.5821 2.49966
131.237 29.7285 6.02845
77.4659 17.7141 4.77244
93.6701 18.871 3.39886
108.893 28.3734 6.84922
60.02 13.581 3.40469
174.594 45.88 10.5371
139.185 38.6961 10.2854
79.4384 24.8437 7.14486
137.941 33.8428 8.82493
47.3827 14.9469 5.27783
167.994 43.6791 11.1186
17.2162 5.10972 1.77132
50.9997 14.3559 3.91004
31.1933 10.194 3.31826
63.7913 15.6889 3.63234
108.619 32.0138 8.9673
84.1548 23.5424 6.72169
95.7963 31.4113 9.96081
94.3279 17.5856 3.45771
103.681 30.4151 7.99318
70.2765 20.9161 6.51855
41.8165 16.6783 5.651
25.1045 9.69311 3.76568
150.57 40.1963 11.1206
120.122 32.5594 8.62089
57.6178 19.2622 6.62065
18.7658 6.06888 2.09848
80.4507 21.0783 4.95525
80.836 26.5097 8.69873
53.1977 15.4982 3.88775
38.9817 14.3025 4.62096
37.7829 16.7573 6.62172
102.663 25.8542 7.53006
100.378 32.3256 9.31733
56.0605 20.2926 6.29666
18.2722 8.31387 4.29711
87.053 25.9026 8.01259
28.0979 10.73 4.31364
107.155 31.4264 8.9623
63.6332 23.1061 9.12233
145.908 41.9451 11.7775
46.684 17.1124 6.52284
70.684 22.9249 6.8875
66.9346 25.4197 9.0376
60.1707 20.233 7.38017
41.8499 12.3529 4.22132
73.2369 23.9137 7.98823
124.653 39.8035 12.8586
71.1629 29.1374 11.6086
66.7453 21.8185 8.44076
42.4566 14.5009 5.71292
85.7061 33.5297 12.3087
98.6157 31.7401 8.54855
69.1857 30.0268 10.8372
12.653 4.47323 2.12199
39.9567 12.8691 4.93943
80.4374 31.1966 10.6063
60.9678 20.3033 7.18822
77.0082 30.1358 11.436
35.3749 15.2777 6.55464
73.0221 26.3346 10.9546
67.9086 27.1412 10.208
45.6349 19.8483 8.18337
32.6471 17.7207 9.79556
35.2813 12.0306 5.31161
53.1827 19.4943 7.65294
22.3794 5.79959 1.53253
58.4099 27.0117 10.8561
77.8053 30.0808 11.7366
28.9176 7.58151 2.83251
49.8213 19.7952 7.09107
64.4917 32.5408 14.8815
32.3597 19.6978 11.5259
64.654 18.5585 6.0576
37.4581 19.6957 8.97433
47.1844 16.0171 5.49263
84.1385 34.8595 14.6843
17.3298 7.88571 4.76221
74.9723 29.0538 10.6332
75.4804 34.5138 16.9453
128.29 53.3629 21.4287
66.8125 22.9295 9.85261
58.7887 22.835 8.5217
62.8339 24.2487 8.63918
124.498 55.7449 23.7826
63.7773 31.757 14.2679
23.7428 12.7119 7.73948
54.1709 28.7246 15.1623
108.801 41.5139 15.0135
50.2313 20.3852 8.11848
43.5084 17.9232 7.68406
29.2696 15.7112 9.04636
64.8687 33.4776 15.5478
30.479 11.8749 4.86584
68.0421 40.4736 22.87
57.1635 25.5379 13.5915
76.0653 31.3305 12.9305
61.5259 30.2292 15.0471
90.5216 40.6596 18.1708
24.1414 13.9366 8.83982
49.4027 26.9822 14.3957
40.0117 17.7017 9.36653
46.5713 20.3933 9.34307
44.7186 20.5384 9.76486
66.107 27.3229 9.50994
107.764 58.1643 28.1733
35.1136 19.8607 10.1615
21.2401 15.1807 10.3669
103.632 54.8885 27.3196
37.6172 16.3377 8.16193
52.9587 19.9742 6.88815
56.7393 34.2478 19.5488
22.019 9.54047 5.33047
59.5717 31.5559 17.0116
46.4941 29.3514 19.5418
73.2223 35.6946 15.0965
22.5356 13.6066 7.55926
74.2047 42.6255 24.1478
24.1637 11.2639 5.69927
26.2944 16.7247 9.70477
28.8985 20.3179 14.2919
92.1449 45.39 22.8419
48.9544 30.6049 18.5075
30.1853 22.3288 18.5341
33.6401 15.5602 8.62365
57.2703 29.9684 13.7238
37.9663 26.1083 18.1678
37.8669 18.4387 10.1977
46.0954 29.0791 19.629
86.8575 46.7542 26.1993
67.5451 31.0962 14.384
20.2479 13.8682 9.51501
23.8679 17.7966 14.7724
45.813 21.2009 9.84313
50.5101 30.5343 18.7466
29.6456 17.9899 9.65115
21.5105 18.3739 16.5802
50.8931 25.5084 13.9611
73.9439 41.2283 22.3324
43.8856 24.5274 15.8526
46.9057 24.0801 11.6036
39.3333 21.2257 11.5348
65.1781 42.3918 23.6148
24.6466 17.8667 13.048
50.476 27.6252 16.9612
72.3872 43.3354 23.7298
9.29025 3.25242 1.27324
28.0203 19.6021 11.8336
16.6225 13.9696 13.0705
44.7323 23.7792 15.6519
78.6013 48.6487 27.5559
18.3906 9.06639 5.19732
6.25334 2.139 1.35012
20.3455 13.8255 9.09966
12.8997 5.08335 2.50189
32.3409 17.1157 8.18483
50.1427 35.9987 25.1745
83.802 48.8559 26.9673
77.4275 52.9937 35.3088
50.0157 40.6801 33.2561
77.9301 51.524 33.5235
24.4617 12.1631 7.46733
48.9582 32.8004 21.8977
5.69727 3.35847 2.7316
23.5537 16.3626 11.7058
37.472 24.0025 12.8519
19.8143 23.5875 25.0703
76.9876 48.2061 29.959
37.2221 27.6504 21.7601
46.3001 31.8052 20.1019
65.6214 43.2222 29.3264
96.5423 72.4822 47.4791
37.6797 20.8743 13.7796
54.3958 45.7925 35.9627
29.5162 17.5095 12.5467
115.185 87.8502 58.7221
61.855 44.3134 33.5028
58.9819 47.5837 34.4934
87.0774 69.5138 54.0644
18.6338 8.23857 5.20479
19.9586 17.8757 15.436
27.1753 20.1878 14.8891
48.5513 34.1468 24.0607
62.2685 48.4925 35.1479
26.6318 27.9216 27.9947
50.2788 34.8074 25.4003
28.0032 17.1385 13.0574
40.568 26.5723 17.4609
52.054 44.1848 39.7646
53.3675 31.702 18.2154
37.052 31.8382 23.0301
18.141 18.2738 17.2679
32.7201 24.0779 19.5546
18.0337 16.359 15.1428
47.6583 41.0618 31.7669
43.4954 36.708 33.0662
44.2379 27.5235 20.8291
40.1834 28.8218 20.7729
27.2549 20.4318 16.4018
51.524 37.7671 23.8971
6.60684 12.0882 18.0004
66.8265 48.2135 31.7265
6.78182 5.03585 6.04102
13.4657 11.2724 9.44482
30.5499 21.0741 12.5446
26.6679 23.1776 17.765
22.4134 16.1719 12.4369
44.5604 43.0376 42.8242
56.0646 37.2729 23.8744
39.6666 37.4017 31.6837
43.865 34.1323 24.1086
44.1919 35.9523 21.7969
58.8361 65.937 57.0425
35.9902 34.0509 29.4899
29.378 33.2196 32.5414
45.3682 49.0745 48.2708
28.4775 26.805 28.4674
34.6693 24.1363 19.3262
26.2958 26.8233 27.5491
14.6695 15.8101 20.5055
55.6995 47.1501 35.8791
5.08181 9.674 17.8039
40.9966 43.9073 46.23
37.9652 26.524 26.5583
55.1042 50.1979 45.9562
46.073 24.2465 11.1966
26.1124 25.6156 25.4428
38.9195 36.6773 32.5865
15.0783 10.7288 16.808
65.8739 41.6977 25.3339
25.7919 18.1682 15.383
59.5472 50.187 38.3666
66.4738 56.9853 43.6524
18.8109 24.4443 31.0373
43.2507 31.6594 21.061
39.0095 40.6427 36.8472
13.1939 10.0188 10.4548
17.9113 19.4813 21.1012
31.4672 30.6872 27.3037
17.302 12.3878 9.22276
42.8513 43.3836 37.0343
26.4037 23.6156 19.4777
7.64417 11.8109 14.1373
28.3202 26.5513 23.223
14.5039 15.2306 15.9861
14.8068 18.035 19.0191
25.1411 32.6572 37.9696
11.8838 15.7119 27.9534
54.3399 38.1372 25.9883
34.1729 31.4705 22.6933
3.95222 7.05132 11.8242
47.9974 43.1433 34.5112
47.918 61.9387 71.8247
41.8867 41.9009 45.7744
29.1304 23.8792 18.8687
15.3125 15.5869 17.574
18.1405 13.6787 14.4586
48.8129 56.2111 54.7652
53.273 55.2906 56.2698
26.5959 26.5628 27.8617
21.5051 30.2649 40.1985
26.6209 14.7913 10.1184
34.5551 31.6348 28.3723
29.7123 30.5534 31.7253
31.1399 31.5713 29.4092
15.0231 19.1812 22.5819
7.31035 8.34583 12.5427
36.0445 36.8863 34.2459
5.21108 2.47995 0.913545
9.10473 12.2733 15.5691
12.3382 16.4786 23.2605
25.8241 22.4251 19.3119
16.2595 14.8404 10.8886
5.259 6.85016 7.99459
20.9581 21.3553 21.132
8.53895 12.0879 15.1466
14.0371 19.5447 27.0031
22.1067 19.7978 14.2245
11.9058 20.1915 29.8546
37.0374 41.7801 47.4056
34.6787 36.5558 35.377
10.509 5.39894 3.64697
23.9334 33.7693 42.7794
30.2047 29.659 31.1289
25.8525 33.0523 44.5508
60.425 59.06 50.7624
24.0302 26.915 26.9893
29.6085 32.8418 29.4101
11.265 24.0365 40.2176
27.8433 22.9486 20.9266
38.2249 37.8951 35.9553
33.2096 39.8238 35.3108
25.9154 41.5956 53.8842
8.08959 6.89648 10.1988
30.9494 50.8335 65.2385
17.2264 13.6881 15.7634
16.1455 21.0971 25.1953
18.26 34.5104 58.1055
19.0181 7.5969 10.2142
34.946 40.3268 44.1448
30.2938 33.8656 50.227
52.3875 45.3064 35.8879
52.152 56.9966 52.0765
34.3124 52.4885 65.2458
27.081 37.5799 56.2192
28.054 27.9445 25.9756
16.9686 20.9339 22.285
10.1541 16.0717 25.0787
30.7403 36.9389 43.5949
19.966 28.6415 42.0979
27.3239 24.6997 21.8865
10.8016 16.0421 29.2498
56.9422 62.5352 57.4229
23.207 36.2257 49.5064
10.9439 8.29498 8.1848
22.4802 33.7585 43.0731
22.6645 31.3234 40.1046
15.1186 26.2845 44.5526
32.592 34.4527 35.5333
12.0131 14.4054 23.2924
30.8789 36.9925 35.8034
15.4447 23.285 28.4377
15.8633 26.4964 40.0617
26.9368 36.3901 48.9202
13.5107 12.6972 17.2567
25.0903 38.6506 53.9752
25.2971 24.5323 24.4096
8.8648 10.7341 14.1404
11.0862 13.5375 13.645
10.9023 22.1596 32.1562
18.1276 32.3226 56.3444
33.6212 33.6571 35.4221
21.0977 28.6349 38.6026
15.6433 17.8593 22.6663
13.2712 18.9739 27.3047
10.3683 18.8246 40.4337
27.4481 27.3811 28.9538
17.1959 18.7145 20.0446
14.8035 27.1147 47.706
25.3016 23.6065 17.9819
13.5872 16.354 13.357
10.8551 17.4075 19.0731
4.58318 11.2355 23.022
21.6132 28.7236 33.2649
21.4805 32.6383 37.1473
8.92539 20.5459 36.3574
12.0525 17.0335 29.0292
25.2754 38.8094 54.1988
20.7424 35.5511 64.8131
42.3541 44.0032 46.5839
19.8242 31.3062 49.1592
28.946 33.582 37.8156
19.8406 28.2137 39.2606
9.68445 16.7197 38.8212
35.708 46.3082 71.7634
39.4289 40.6734 32.9262
10.0612 19.0752 29.1302
13.7993 17.6653 22.6136
26.968 43.7048 54.071
8.33304 10.0715 14.7154
13.792 24.2762 42.2535
45.3779 69.6993 87.9235
21.9133 41.8804 77.8297
15.6935 13.8484 19.5304
10.5199 12.8689 23.5143
19.7651 26.3362 37.5785
42.5722 71.8581 104.742
23.2371 25.1201 26.3863
12.1298 18.8528 29.707
19.8717 35.7751 49.6708
2.53754 3.15491 16.2483
10.2575 9.33575 15.7974
17.4702 21.9372 25.1077
6.51812 10.0866 16.9463
10.1619 10.3767 14.6056
20.7195 34.0356 42.8479
8.51037 17.7716 38.3101
23.3524 35.6744 52.6812
16.3534 24.1004 35.8712
12.0701 18.8978 34.6557
23.4313 39.0196 58.1776
15.7155 20.7548 42.132
28.7902 32.1715 28.7832
8.08674 19.1173 35.5002
16.2594 24.3608 40.4783
26.0856 43.7408 62.1485
30.9662 65.2019 119.456
34.868 43.1185 63.8118
19.3169 14.2171 14.3004
27.8042 40.2507 51.7284
21.5518 38.7611 63.4231
31.3738 58.4371 103.9
18.2037 14.1364 12.744
8.04752 18.3217 40.1074
15.8878 13.6257 12.4666
11.9806 19.5137 28.6628
14.9523 26.1446 40.8507
16.8927 27.3968 48.9939
22.5377 30.1082 37.2553
6.69982 5.54143 5.13434
12.6431 23.9445 38.5746
8.71649 19.6028 48.3689
23.5055 28.3492 36.5052
16.0414 19.679 18.463
23.385 48.702 68.7265
5.5931 19.975 55.1002
6.29998 3.15653 8.6026
5.66664 10.4334 36.861
23.7044 24.7148 13.8837
8.09992 21.9155 39.8263
18.444 33.9989 51.6189
9.40658 14.253 28.4296
13.491 18.9453 26.3203
14.4907 30.0537 55.6427
9.5878 10.608 26.787
24.6698 33.3973 48.1513
32.2105 48.687 51.4874
14.708 39.6432 74.7497
16.8311 27.5697 52.115
9.66395 10.6464 16.708
10.3965 24.7516 56.4482
16.7904 21.5372 32.5882
20.7312 36.1333 47.9278
5.25777 7.00278 15.6399
21.8044 46.7938 84.6616
18.8377 38.0884 76.3525
32.1607 52.4156 80.2773
23.2388 49.1127 99.7972
11.3571 6.25513 23.2153
18.8872 19.7276 17.7529
15.1276 29.3137 48.9504
8.46077 10.7616 22.0515
20.4749 31.8594 42.6902
7.41961 11.1467 15.9768
7.31704 13.4679 17.802
10.2208 25.0316 52.6382
10.1401 17.827 33.9981
9.56678 12.8309 24.9119
22.0523 49.6095 87.3142
15.8544 19.2306 36.4523
24.8632 43.6299 64.1849
12.5185 21.227 31.9387
4.70103 17.1079 65.5749
31.9286 46.9467 55.8431
16.7567 37.4167 66.4057
7.87807 21.4974 69.0956
23.0709 22.6565 20.8415
15.9077 34.2432 67.4647
20.1502 35.8047 76.6966
33.2178 55.6065 65.9862
7.63008 20.4249 39.0314
13.089 36.2438 95.738
28.0241 33.9495 39.3993
4.46193 5.88464 16.1309
10.9817 18.9917 33.0938
13.6577 24.4184 34.7255
11.8465 25.3344 46.8844
11.6734 27.0492 53.5011
11.4346 24.8663 61.9671
12.1966 13.3724 20.1944
4.40796 5.53741 18.9837
11.8194 13.8426 10.5385
9.24449 22.1985 46.3293
17.635 32.6517 49.892
5.5322 13.2034 38.1309
14.4361 29.8043 54.4268
7.3641 7.26072 15.9962
10.1775 16.5234 22.0055
9.28224 17.4924 26.1374
6.05728 16.3649 31.3933
10.644 26.5646 49.5949
6.04459 16.4436 43.1783
2.8084 3.09294 21.6155
14.1786 30.6961 67.4305
15.0947 21.1643 39.0595
21.651 51.1826 101.877
24.0741 46.211 92.8395
14.7666 12.9875 11.9062
7.96268 24.8228 67.3151
19.4338 29.2513 59.2735
13.5655 16.3017 15.7095
10.5878 32.918 85.822
28.2172 43.8552 67.6806
31.9949 70.6407 121.13
23.6433 39.1021 76.729
29.8631 59.9721 87.2035
13.761 32.7597 67.116
11.1387 16.4584 26.8353
13.0307 30.4383 56.2986
11.0785 22.1612 37.1549
12.5995 43.3446 115.214
17.5445 26.7428 56.0418
12.0155 18.651 35.0373
9.22802 22.8452 62.881
16.7851 28.3936 45.3999
9.22062 16.5411 26.8817
12.4399 44.4325 122.698
28.0929 42.2811 73.8844
19.864 29.8738 46.7325
15.091 30.8166 59.795
11.0165 17.0151 26.0605
17.4137 49.1923 108.908
11.2974 11.6852 21.2167
7.81287 13.4722 27.3668
12.9382 25.1121 33.1053
6.22881 15.7171 30.7079
7.77863 16.2646 27.3834
11.966 34.6844 81.1009
12.9828 20.9971 34.34
5.89477 17.842 44.7329
7.31573 13.9929 35.6241
7.24315 14.4756 27.9636
6.96274 24.2477 74.369
16.5759 24.9683 34.4844
5.95302 14.6221 35.5658
8.55697 12.8943 16.0985
2.97777 9.85804 22.9499
5.85689 20.3214 61.462
21.3176 42.2251 75.6558
12.5705 26.4636 52.9214
6.39477 9.59007 26.6234
8.08104 14.878 27.8841
8.75411 16.0245 22.8596
1.99438 6.20028 13.7558
4.40712 11.7994 28.3863
4.90577 7.29048 7.30279
2.90356 11.2681 27.2677
5.25731 14.6999 36.0372
4.34625 8.07164 28.9379
13.7621 38.9949 81.2929
7.88164 10.7008 32.9906
11.9044 30.5466 78.7993
12.6619 14.5377 17.2071
6.3554 15.1531 39.197
6.74291 11.1804 29.5368
12.6102 28.3073 60.6101
10.1642 18.6599 37.0284
8.30385 14.1599 15.4289
5.81989 27.7211 87.832
14.7908 24.3084 45.549
7.7628 13.08 17.7044
2.45942 9.23399 31.6615
10.7197 25.3678 61.9204
13.1069 26.5983 35.5505
1.25115 7.69264 51.682
15.8169 22.3733 19.0478
5.31463 12.9239 24.3667
12.1582 36.528 69.8543
4.73215 6.3094 17.2746
9.00854 20.3861 37.1828
9.91826 24.4541 34.1146
4.88508 20.6769 44.1384
5.06923 22.1288 59.7211
4.75048 13.0024 47.0913
10.0955 39.615 122.734
14.2158 15.9426 54.2421
19.1254 49.0427 135.535
21.0783 27.9399 45.6411
7.68353 22.312 101.961
33.8722 62.7189 94.3355
12.1261 19.9958 25.3935
5.91397 12.8305 23.1326
2.7158 5.30847 7.44698
2.87117 11.6001 32.9993
4.58565 9.46471 25.2597
5.03572 7.31811 42.6454
19.9813 38.6988 39.5332
3.06404 11.9776 36.2769
9.28753 15.6291 15.7003
6.50456 24.3995 50.8328
5.42194 19.2915 67.2813
15.4373 39.8757 104.465
18.0177 30.2435 38.184
7.19436 23.3782 59.5112
13.9515 31.945 58.0131
10.8312 43.6954 109.623
5.43894 5.47364 43.8414
18.5853 47.0841 85.8572
9.81744 21.118 39.0163
2.7747 9.43827 33.1773
3.792 12.4686 52.9811
10.7616 20.7373 46.949
7.65721 18.5457 39.2687
5.81403 19.7423 64.5372
13.3054 27.5233 59.1516
6.3754 16.8227 53.0241
9.45619 19.2549 50.0026
13.3425 28.4351 43.8333
3.59321 11.0144 37.7329
5.59052 7.77709 21.8632
7.33183 18.7654 32.0791
4.50784 11.061 24.8878
1.8752 3.76497 24.4805
12.6419 38.3586 87.1913
8.96046 18.3997 50.3576
10.4041 21.2115 47.5788
6.87062 19.3279 54.0276
12.4317 26.6751 45.3174
4.15872 14.1897 54.1706
10.131 16.426 35.3181
