# pn-170911/RbIIR-56-RbIIR-1280-1959.psd
# Power spectrum* (dif=0,1,2) (really just |FT|^2)
# NOTE: only the first half! (symmetric)
# weeks: 1280-1959
# 4152 clock-days, 578 excluded
# PSD: 1441
2414.41 0.109539 0.0458843
49902.4 0.576996 0.0549696
360419 7.99702 0.053411
27458.1 1.01007 0.0563502
146749 11.2583 0.0555982
10451 0.995127 0.0548407
12466.1 1.83235 0.0534702
5488.05 1.02843 0.0539436
6806.82 1.86649 0.054752
3599.94 1.14817 0.0532829
3206.14 1.25035 0.0545275
2459.03 1.17243 0.0555236
2406.76 1.38724 0.0531537
1881.53 1.26057 0.0544257
1732.58 1.37864 0.0563332
1405.6 1.2724 0.0539133
1380.25 1.43597 0.0559529
1131.44 1.31094 0.0558995
1105.44 1.48288 0.0544354
962.496 1.40923 0.0563244
901.855 1.48436 0.0582754
836.308 1.53398 0.059392
842.058 1.71373 0.060987
746.681 1.63479 0.0605837
718.904 1.72785 0.05961
688.015 1.80469 0.0615449
659.078 1.89296 0.063076
628.882 1.96486 0.0629991
608.504 2.02809 0.0654054
580.455 2.08953 0.0657631
577.303 2.24637 0.063912
533.865 2.16923 0.0662589
522.824 2.29002 0.0663373
507.11 2.39808 0.0714867
516.753 2.58156 0.0736235
500.894 2.67303 0.0708167
458.91 2.58488 0.0674831
459.806 2.76852 0.074272
451.131 2.85255 0.0725896
444.758 2.95205 0.0802788
422.546 2.97299 0.0795901
419.068 3.08092 0.0832394
424.667 3.31736 0.0807434
417.805 3.415 0.0873173
408.194 3.49075 0.0860037
411.968 3.69029 0.0929656
388.025 3.66285 0.0940454
389.019 3.82431 0.0999262
379.429 3.88946 0.0999976
359.074 3.92701 0.103104
367.67 4.1054 0.106867
368.615 4.2779 0.107619
348.57 4.20689 0.106847
354.371 4.51288 0.117988
355.428 4.69177 0.122171
348.338 4.76629 0.128357
341.729 4.83286 0.132772
337.327 4.91824 0.13541
332.026 5.06981 0.142379
334.92 5.29231 0.147245
321.961 5.22821 0.145771
322.562 5.49085 0.155351
322.737 5.65836 0.161817
317.102 5.74098 0.164458
322.93 6.04146 0.173484
311.67 5.95886 0.176198
304.862 6.04278 0.18332
303.289 6.23317 0.189697
312.238 6.56599 0.19633
312.481 6.80957 0.21124
298.417 6.72123 0.21562
301.619 6.98819 0.221631
301.016 7.17295 0.233396
294.328 7.21512 0.239493
297.943 7.52673 0.254313
303.217 7.8698 0.267255
287.257 7.56191 0.268091
290.717 7.89945 0.277499
284.269 7.96201 0.28623
282.231 8.09961 0.29723
288.439 8.47577 0.313229
285.658 8.68747 0.333585
283.14 8.79822 0.338745
272.04 8.63219 0.34045
278.482 9.03596 0.363381
275.397 9.08294 0.36594
265.481 9.0839 0.380832
264.133 9.27085 0.387614
261.889 9.34353 0.399205
266.903 9.71261 0.425489
267.996 9.96916 0.441618
266.285 10.258 0.458254
264.875 10.404 0.47869
255.752 10.1903 0.468453
255.719 10.3534 0.490426
255.554 10.6743 0.510496
259.73 11.123 0.542982
251.992 11.0256 0.544025
247.816 11.0412 0.567554
251.371 11.3933 0.586962
248.865 11.5083 0.604208
244.779 11.5272 0.609394
237.656 11.4526 0.619045
242.035 11.9566 0.663351
234.779 11.7619 0.65064
236.39 12.0572 0.681863
232.659 12.1461 0.704995
234.158 12.518 0.737596
232.63 12.5248 0.745737
239.388 13.1295 0.783223
230.1 12.8979 0.798867
224.697 12.8758 0.810835
233.287 13.5469 0.857602
230.171 13.6645 0.878547
227.761 13.7465 0.902936
225.76 13.8683 0.92648
224.688 14.0111 0.948553
233.124 14.7378 1.01038
220.455 14.3446 0.998094
220.998 14.5861 1.03406
218.657 14.4845 1.04676
222.987 15.2035 1.11066
220.489 15.1673 1.11727
212.202 14.9654 1.13424
222.855 15.8606 1.20325
218.23 15.8552 1.234
218.372 16.0913 1.25489
207.85 15.5444 1.23984
215.208 16.3058 1.31417
211.01 16.313 1.33879
205.137 16.1581 1.35421
212.964 16.9857 1.42733
214.376 17.376 1.47761
213.493 17.5108 1.52168
208.941 17.492 1.53855
206.627 17.5424 1.56226
200.839 17.257 1.56663
202.803 17.6032 1.61393
203.876 18.0242 1.6842
202.936 18.1213 1.68209
196.912 17.9017 1.70795
197.941 18.2143 1.76676
194.577 18.295 1.80025
195.554 18.6403 1.85331
196.774 18.8427 1.89248
191.963 18.6703 1.8999
187.637 18.6224 1.92109
198.092 19.8487 2.09023
193.401 19.7035 2.0909
188.402 19.3517 2.06831
189.27 19.735 2.15191
192.038 20.2924 2.22555
184.835 19.8117 2.21705
189.597 20.5795 2.33602
190.301 20.9131 2.3952
189.583 21.178 2.45222
185.176 21.014 2.48058
180.299 20.6112 2.43215
181.369 20.9899 2.51231
189.331 22.3289 2.71289
179.42 21.3388 2.63642
180.225 21.632 2.68936
182.296 22.2781 2.80187
181.269 22.1733 2.83343
174.811 21.8486 2.8229
176.165 22.3411 2.90909
176.699 22.5675 2.97913
178.083 23.1527 3.10059
178.475 23.326 3.12728
177.507 23.5751 3.21521
172.171 23.1072 3.19137
170.288 23.152 3.24117
176.766 24.2916 3.40752
166.867 23.2477 3.32793
170.316 23.7986 3.42702
162.794 23.3033 3.43171
178.473 25.6045 3.76246
166.374 24.2121 3.63927
167.724 24.667 3.72077
169.127 25.2413 3.86078
164.894 24.8068 3.81072
164.616 25.0188 3.89515
161.975 24.8519 3.9526
165.594 25.6166 4.02922
162.065 25.6977 4.13436
160.881 25.5235 4.13027
163.683 26.291 4.3211
161.95 26.204 4.32553
161.768 26.6664 4.5049
169.139 27.8402 4.69746
161.411 26.8308 4.56239
157.2 26.6225 4.62375
157.849 27.064 4.73318
158.292 27.2828 4.80366
158.056 27.3842 4.8867
153.369 26.9989 4.82944
150.149 26.5693 4.80361
155.059 27.9378 5.1129
154.623 28.281 5.25939
153.487 27.9653 5.22328
153.114 28.3678 5.35262
153.649 28.7844 5.49581
152.486 28.9099 5.56231
148.62 28.3196 5.526
154.794 29.6091 5.78538
147.395 28.5973 5.66798
151.609 29.7749 5.97464
149.966 29.611 5.97008
147.662 29.4854 5.99626
143.946 29.262 6.01264
145.252 29.4664 6.1011
139.568 28.7763 6.06501
143.702 29.8248 6.30903
145.646 30.4901 6.4954
142.206 30.1521 6.5133
145.394 30.9569 6.71889
143.801 31.0033 6.78639
136.24 29.819 6.60563
140.447 31.0267 6.9821
137.135 30.3964 6.87013
139.804 31.0719 7.04765
140.056 31.7485 7.30735
138.33 31.4166 7.27807
139.503 31.8454 7.43172
137.414 31.8197 7.50634
136.216 31.6599 7.50013
135.866 31.8902 7.64339
136.545 32.3774 7.77481
137.279 33.0034 8.07476
135.848 32.7594 8.03917
135.192 32.9674 8.1487
133.765 32.927 8.24244
133.368 33.1238 8.34296
132.763 33.3613 8.48851
129.637 32.7153 8.43178
130.864 33.3133 8.62443
129.624 33.2519 8.62111
130.847 33.8552 8.9308
128.812 33.4816 8.83126
130.469 34.3487 9.14009
128.656 33.8479 9.02362
128.168 34.4826 9.39337
126.16 34.1176 9.36803
122.958 33.3638 9.20481
123.224 33.8716 9.47663
125.305 34.7964 9.79742
124.082 34.4962 9.73041
125.824 35.1177 9.99729
124.587 35.101 10.0036
123.858 35.3859 10.2719
123.443 35.4602 10.3242
123.449 35.5897 10.4645
121.833 35.4263 10.4672
122.586 36.0431 10.7819
117.648 34.6511 10.4109
120.46 36.1253 10.9395
123.877 37.1916 11.295
121.126 36.6142 11.2564
117.202 35.6211 10.9866
119.259 36.9801 11.5591
115.644 35.6581 11.188
120.621 37.7185 11.9507
120.706 37.8754 12.0723
112.27 35.7826 11.5331
114.279 36.5929 11.869
115.247 37.1921 12.1865
117.022 37.9082 12.3649
114.551 37.4286 12.4012
114.573 37.695 12.5958
112.444 37.1566 12.4306
110.481 37.051 12.6038
112.676 37.8918 12.8706
111.19 37.5786 12.8908
110.826 37.9443 13.1511
113.871 39.0149 13.5817
111.229 38.5884 13.5403
107.776 37.3499 13.1533
108.787 37.9748 13.3812
106.523 37.8635 13.6209
108.371 38.4462 13.8551
109.201 39.0105 14.0462
108.032 39.0105 14.1977
106.489 38.8902 14.3246
104.578 38.6037 14.3094
103.563 38.4215 14.5011
106.838 39.6552 14.9123
105.584 39.2902 14.8282
101.585 37.9648 14.4467
103.43 39.3158 15.0941
103.238 39.1155 15.0843
102.783 39.4177 15.3936
104.361 40.2008 15.6931
105.937 41.022 16.0522
101.67 39.8113 15.7613
102.819 40.5494 16.1635
97.2001 38.6436 15.5489
99.0211 39.3418 15.9166
102.147 41.1654 16.6202
96.743 39.1083 16.0647
99.5117 40.3511 16.5542
95.6599 39.1179 16.2019
98.4155 40.6801 16.9496
95.9152 39.8583 16.7408
99.2046 41.2678 17.3815
96.7177 40.6798 17.3403
98.5049 41.6488 17.7846
96.5521 41.1555 17.7485
96.9807 41.3643 17.9402
97.1224 41.7495 18.1313
95.8793 41.7038 18.3584
93.3257 40.4996 17.8983
94.2935 41.1691 18.2113
94.3074 41.4792 18.452
92.6208 41.3134 18.6389
95.9214 42.7391 19.2264
92.4282 41.6791 19.0603
94.5682 42.6827 19.4827
93.4166 42.4678 19.5473
92.4122 42.0621 19.4459
93.3374 42.8784 19.8141
88.0837 40.8811 19.2627
91.7649 42.6852 20.0636
88.0825 41.1164 19.4453
92.0077 43.7656 20.9288
88.8431 42.3271 20.3376
89.8437 43.1569 20.9034
87.094 41.7516 20.4122
88.5529 42.8554 21.0314
90.5899 43.7542 21.368
87.9176 42.9351 21.2261
86.6534 42.2263 20.8724
85.8812 42.7772 21.4626
88.2309 43.8302 21.884
86.676 43.2987 21.8976
86.0105 43.1071 21.7878
82.5911 42.0654 21.7963
86.015 43.6709 22.3413
86.0648 44.0318 22.6539
85.2741 43.9789 22.9304
84.8817 44.1272 23.0763
84.3402 44.0481 23.2886
82.5267 43.177 22.8808
82.7752 43.7177 23.306
84.4732 44.6385 23.7517
80.1102 42.5634 22.906
79.8888 42.7137 23.0563
80.2277 43.4903 23.7996
79.0705 42.7683 23.4095
80.0155 43.7639 24.206
79.4534 43.319 23.8621
79.791 43.8559 24.4718
79.8753 44.156 24.5922
80.8932 45.2523 25.4602
80.2427 44.9804 25.5042
77.8925 43.3002 24.4003
77.9458 44.2424 25.4475
78.9835 44.4286 25.2048
76.7588 44.168 25.6157
76.8624 44.1678 25.6606
76.5975 44.5343 26.1854
77.8375 44.9569 26.2731
76.0102 44.1787 25.9736
76.2845 44.814 26.639
75.3555 44.0787 26.0493
75.5548 45.3027 27.2956
76.8388 45.5529 27.194
75.7859 45.4935 27.3865
72.4222 44.1655 27.1672
74.5233 44.7409 27.2205
74.1544 45.0803 27.6947
74.1757 45.1203 27.7546
73.7858 45.5337 28.3933
73.5913 45.6536 28.581
74.3452 46.0439 28.7085
71.8839 45.2571 28.8725
73.3805 45.8975 29.1644
72.2571 45.3271 28.8704
71.1901 44.8744 28.6972
70.6455 45.1302 29.2331
71.0232 45.2403 29.1793
70.3359 44.4153 28.5578
69.0392 44.1093 28.581
70.6957 46.2114 30.2
69.9751 46.0778 30.6159
69.4747 45.1288 29.7166
69.2505 45.7799 30.4418
68.4122 45.3588 30.4165
70.0213 46.2862 30.8746
68.9192 46.326 31.4976
67.5822 45.0661 30.477
68.4144 46.4413 31.9206
70.0785 47.1884 32.1358
66.0367 45.3382 31.4272
67.9013 46.3107 31.8154
66.8046 46.019 32.1324
66.7146 45.3933 31.3596
66.5403 46.0316 32.0776
64.3768 45.2059 32.0695
65.5751 45.8261 32.4088
65.0654 46.173 32.9358
65.0271 45.7923 32.7606
65.2707 46.4024 33.2914
63.8138 45.4685 32.6885
64.5835 46.8355 34.1319
62.2386 44.8996 32.916
64.0294 46.4804 34.0748
64.4013 46.5106 33.7817
60.9458 44.6333 33.0106
64.097 47.583 35.4096
63.4202 46.9468 35.3591
62.3891 45.615 33.9343
62.095 46.1411 34.395
60.7891 46.1253 35.5181
63.1214 47.1676 35.6286
60.3473 45.4798 34.7444
61.7904 46.831 35.7865
60.9174 46.3539 35.7467
62.0325 47.0353 36.1442
60.08 45.8834 35.3469
59.1948 46.2966 36.5921
60.2184 46.7364 36.8281
58.429 44.8259 35.014
60.7626 47.7151 37.5334
58.6335 45.9421 36.4304
59.1796 46.779 37.4599
60.0668 47.2988 37.6955
59.7315 47.4073 37.8575
56.6499 45.2121 36.5031
58.2606 46.4758 37.4159
57.2359 46.2742 37.6213
57.3772 46.7568 38.3835
58.1775 47.1691 38.5196
57.7782 47.6835 39.2883
55.6739 45.963 38.4238
56.3991 46.288 38.5046
55.7559 46.0122 38.488
55.4399 46.1789 38.9257
56.1194 46.2835 38.7141
56.9272 47.7047 40.1624
54.4967 46.1244 39.3193
55.2931 47.0682 40.5472
57.1224 48.1005 40.8256
54.5935 46.864 40.6518
54.7664 46.452 39.9328
54.499 47.1623 41.0065
54.4504 46.6536 40.4148
53.8892 46.9059 41.0284
53.4819 46.6078 41.0534
53.2379 46.2682 40.6995
53.2379 46.7412 41.4619
53.4885 47.202 41.9232
52.3623 46.2203 41.5984
53.6713 47.2101 41.9708
52.0616 46.2775 41.5955
50.4441 45.8878 42.2725
52.1929 46.4827 42.0223
50.4721 45.5295 41.7625
52.1894 47.088 42.7727
52.0481 47.7455 44.257
52.14 46.9363 43.0373
52.5809 48.125 44.1798
49.6732 45.5471 42.4229
51.3413 47.2384 43.9664
50.3045 46.812 44.0318
50.0557 46.4305 43.5989
49.8415 46.3696 43.5795
49.4595 46.545 44.1548
49.4482 46.8657 44.9305
49.9485 46.7789 44.536
49.3125 46.6337 44.8357
49.0707 46.6178 44.8934
48.6989 46.9027 45.3787
47.9889 45.8333 44.279
47.9198 46.352 45.2281
48.24 46.442 45.2294
46.438 45.7112 45.6688
47.6877 45.6608 44.5365
47.5314 46.6954 46.3173
47.3705 46.2661 45.8181
47.5628 46.6978 46.0938
46.528 46.5329 46.9479
47.2389 46.9762 47.3927
47.1526 46.5761 46.7281
46.7142 46.4977 46.8884
46.7296 47.5943 48.8146
46.6421 46.5741 47.2928
45.1812 45.5232 46.3019
44.6632 45.2741 46.6378
46.3632 47.6774 49.4274
46.2914 47.2631 48.7777
45.5472 46.9266 48.9161
44.2849 45.1928 46.9573
44.3961 46.2254 48.8692
44.3865 45.2841 46.9631
44.0626 46.0153 48.3398
45.0623 47.7815 50.8743
43.8799 45.9504 49.1771
43.889 45.8066 48.6642
42.8154 45.521 49.2914
43.9914 45.541 48.0894
43.6002 46.4454 49.6532
42.8237 46.1417 50.1574
42.1899 45.2657 49.5376
42.4136 45.2555 49.1423
41.9717 44.9649 49.2194
42.5243 45.9454 50.5997
43.5592 46.8034 50.5735
41.7326 45.6941 50.3332
41.9163 45.8188 50.7123
42.657 47.3692 52.9527
42.5281 46.4271 51.2262
41.3889 46.1568 51.5121
40.7943 45.4132 51.5387
42.0521 46.7978 52.7206
40.9098 45.3417 50.7887
40.6558 45.7171 52.1146
41.3411 46.3976 52.4816
41.3272 47.1065 54.1339
40.8186 46.1695 52.8225
39.8639 45.1385 51.9269
39.3997 44.998 52.149
39.8857 45.8839 53.5212
40.5858 46.3987 53.718
39.5817 45.7301 53.1933
39.1151 45.5129 53.8085
39.4326 45.8938 54.1826
39.6587 45.3273 52.9936
39.737 46.5397 54.8821
39.5902 46.6201 55.138
38.7731 45.5075 53.7594
37.5438 44.6706 53.7188
38.0031 45.0153 54.3514
38.5148 45.7136 54.7548
37.6807 44.8077 54.0484
38.8307 47.138 57.1769
37.5399 44.816 54.6317
37.2014 44.4865 54.1514
37.6622 46.264 57.0734
37.8958 45.7346 56.1292
36.1766 43.8025 54.3325
37.8059 45.9035 56.6697
37.8463 45.5181 55.1328
35.171 43.5802 54.6664
36.6359 45.2004 56.2678
37.1887 46.0117 57.2726
35.3147 43.8205 55.5029
36.3165 45.185 57.2325
37.0097 45.8271 57.5965
36.4703 45.0554 56.816
36.1703 45.4712 57.3734
36.473 45.9287 57.8362
34.6725 43.9691 56.5566
34.5427 43.7078 55.9699
34.3415 43.4794 55.8314
34.8005 44.5194 57.4477
34.3774 44.264 57.7247
33.5477 42.8647 55.7305
34.5847 45.0879 59.019
34.2518 44.359 58.0584
33.7564 43.7869 57.5081
33.6396 43.437 57.1698
34.9974 45.5788 59.433
32.9102 43.0512 57.2373
33.865 44.7806 59.5406
34.8451 45.9995 61.221
34.1248 44.6981 58.8465
32.7108 43.891 59.2207
32.8393 44.1908 59.9496
33.0716 44.1437 59.6874
32.8976 43.8597 59.3248
33.4141 44.9097 61.1221
32.8403 44.194 60.6554
32.6982 43.7103 59.6491
32.952 44.5894 60.636
32.6355 44.4946 60.9652
32.5699 45.0651 62.6966
32.3227 44.1819 61.5841
32.7272 44.3171 60.5615
32.2122 44.5706 62.1057
31.6194 43.3801 60.5622
32.1451 44.9052 62.7415
31.5078 43.6893 61.9016
31.5128 43.5305 61.1099
31.001 43.1018 60.3984
30.4427 42.4043 60.1863
31.1068 43.4652 61.5188
31.0464 43.788 62.4898
31.1756 43.9246 62.8617
31.7855 44.805 63.4714
30.9226 44.018 63.3738
30.8452 44.1914 64.0838
30.2747 42.2916 60.3784
29.9633 43.4829 63.3467
30.5297 43.7894 62.9949
29.2516 42.033 61.6402
28.8562 41.1933 60.286
29.5912 42.7763 62.3052
29.1401 42.6767 63.1734
29.9646 43.1859 62.8899
29.0422 42.4782 62.2267
27.6478 40.9038 62.0546
29.2943 42.7377 63.425
29.7053 44.0271 64.8531
28.0662 41.7558 63.2322
28.9196 42.7974 64.4677
28.9791 42.4154 63.2771
28.815 43.3899 65.8575
28.5736 42.6373 64.3321
28.3402 43.2823 67.1592
28.4 41.8778 64.0671
28.844 42.54 64.1002
28.4482 42.8404 65.1468
27.7328 41.6723 63.9825
28.793 43.5303 66.0395
27.7414 42.7581 66.5317
28.145 42.2079 64.1719
27.3843 42.1542 64.6857
26.8431 41.9396 65.9365
27.1329 41.4097 64.6433
27.1781 41.9023 65.7047
27.3713 41.9685 65.8109
27.4393 42.6685 66.8739
26.8906 41.7995 65.9577
27.3717 42.9904 67.5286
27.0406 42.2131 67.1263
27.6234 43.7581 69.0818
26.3988 41.5253 66.6057
26.5304 41.741 66.3913
25.5319 40.0792 63.8529
25.7346 41.3395 67.155
26.0831 41.0781 65.8297
25.7351 41.2489 66.7497
25.4197 40.5616 66.2779
25.9326 41.3703 66.8314
26.2152 42.0783 67.8318
25.4561 41.0048 67.168
26.1578 42.8595 70.3941
26.3866 42.0913 67.5718
24.9637 41.0825 67.9993
25.3691 41.3269 68.7584
25.7881 41.8743 68.77
25.3255 42.0575 70.7387
26.1429 42.3808 69.2433
24.7521 40.9346 68.6022
25.5778 42.4813 70.5512
24.8222 40.8618 68.8247
24.6196 40.4702 68.473
25.1445 41.6759 69.1568
24.5545 41.1101 68.9666
23.9584 40.3948 69.2067
24.3496 40.9635 70.3562
24.7758 41.191 70.071
24.8606 41.7153 71.4195
25.4218 42.5756 72.1215
24.6581 41.1783 69.7472
24.2772 41.5852 71.1142
23.5551 40.375 71.0191
24.2371 40.8057 69.8525
23.6259 41.1227 72.3489
23.9398 40.1705 69.5192
24.051 41.2654 71.5184
23.3777 39.8069 69.718
24.0333 41.2276 71.0524
23.4316 40.2439 69.9831
23.2116 40.6699 71.6368
23.1587 40.2478 70.8176
23.0031 40.4091 72.0341
23.3587 40.5858 71.7921
23.2819 40.5618 71.4994
22.9742 40.4455 72.2538
22.6956 39.5938 71.5785
23.2556 40.2283 70.7157
21.9743 38.8345 70.4318
23.1365 40.4372 71.1069
22.2437 39.7508 70.96
21.8736 38.9201 70.5315
22.2244 39.9393 72.1016
22.0797 39.6352 72.304
22.2442 39.7027 71.6544
22.4795 40.8428 74.0741
22.0368 39.856 72.7746
22.1998 40.4457 74.2029
22.1755 40.0801 73.3615
22.0612 39.8277 72.557
21.4553 38.9809 71.8992
21.1937 38.7565 71.7684
21.3575 39.4595 73.9638
21.4596 38.9153 71.3882
20.8077 38.1735 70.8774
20.5008 38.2526 73.0269
21.5611 38.6696 71.4197
21.2156 39.4735 74.3031
21.542 39.4824 72.9617
20.3253 38.0937 72.7725
21.3209 39.795 75.5276
21.3574 39.2821 73.7513
21.3336 39.8858 74.9951
20.9636 39.1814 73.6684
20.3083 38.6323 73.9987
20.4966 38.7442 74.2939
19.8005 37.0914 72.2187
20.5409 38.2017 73.0066
20.3898 38.7524 74.2644
20.6442 39.0732 74.4025
20.2469 38.8098 75.488
20.6489 39.5 77.0231
20.934 39.5438 75.6084
20.0183 38.1898 74.139
20.2314 38.9982 75.1674
19.3748 37.3803 74.286
20.2984 38.8568 75.2202
19.9716 39.2473 77.7502
20.3879 39.5046 76.9339
19.5265 38.0567 75.4574
19.5341 37.7826 75.1102
19.8699 38.3328 75.4044
19.5896 38.269 75.8238
19.4491 37.7683 74.7636
19.2717 37.9644 75.5503
19.5115 38.5212 77.17
19.5286 38.4579 76.665
18.844 36.7048 72.8114
18.4819 37.6213 77.5961
18.935 36.273 72.8075
19.2035 38.6919 77.1678
18.9568 37.2878 74.6103
18.8867 38.0901 77.213
18.6285 36.8764 74.2846
18.2468 37.1788 76.7911
18.7024 37.1735 75.4309
18.7783 38.5555 78.8933
18.5276 36.568 74.1619
18.265 37.7411 77.7479
18.0438 36.4431 75.9785
18.375 37.1454 77.4616
18.7165 37.3359 76.7817
18.7352 37.5013 75.3849
17.5931 36.5956 76.8227
18.0463 36.7492 75.6242
17.4582 35.8653 74.6278
17.5495 36.3896 76.271
17.7124 36.5577 77.1861
17.6848 35.9669 74.812
17.4385 36.3004 75.3267
17.1145 36.3155 78.0482
17.5987 35.95 75.8275
17.6979 36.8209 78.2339
18.0438 37.3237 77.4258
17.0122 36.126 78.4239
17.6747 36.4842 76.6458
17.3747 36.8734 78.9299
17.449 36.6551 77.9906
17.0643 36.0729 77.9582
17.0393 35.5333 76.4559
17.2817 36.4799 78.8065
17.5502 36.6746 77.3846
16.7522 35.8009 77.6322
16.9371 36.3284 78.4813
16.6133 35.1406 76.4183
16.6589 35.1833 75.2367
16.1528 34.823 76.9234
16.9204 36.3827 77.8423
16.3004 34.8861 75.5404
16.0662 35.2299 77.4513
16.4391 35.7244 78.8506
17.0063 37.2361 81.1493
16.201 34.8116 77.8033
16.8129 36.3039 79.7061
16.5408 36.2866 80.329
16.2716 34.6267 75.9304
16.438 36.1116 79.1952
16.0444 35.3947 79.4298
15.845 34.0989 75.9275
16.1346 35.905 80.3738
15.993 35.1204 78.8195
15.9909 34.755 77.6271
16.1832 35.8601 79.7763
15.9673 35.2856 79.0743
15.8667 35.0075 78.4029
15.4502 33.8238 76.3658
15.8489 35.9183 81.2103
15.5346 34.3198 77.7716
15.6504 35.1422 78.5031
15.1131 34.5203 80.1605
15.598 34.6831 79.4934
15.4389 34.1537 78.038
15.4871 34.8029 79.0577
15.1299 34.0751 78.9073
15.5392 35.1893 80.6644
15.4755 34.7031 79.2945
15.0233 33.5275 76.2808
14.8383 34.2323 79.6009
15.1092 34.4616 80.161
15.1439 34.0096 77.8764
14.8944 34.0677 79.2093
15.4402 36.0915 83.5669
14.9115 33.8772 80.2434
15.2058 34.8068 81.2696
15.1912 34.4261 78.6437
14.4365 33.7747 80.1421
14.9241 34.6697 81.3467
14.7571 33.6599 79.2828
14.6014 33.5729 78.3966
14.5708 33.7 78.8745
14.4855 34.29 81.4388
14.5873 33.9502 80.3979
14.3123 33.2974 79.8266
14.6733 34.3373 80.8013
14.0392 33.0371 80.6471
14.6604 33.9926 80.6607
14.109 32.6777 78.4545
14.2554 33.6225 80.5999
14.5144 34.4717 81.8761
14.4831 34.4145 82.648
14.1812 33.0755 79.9563
14.4297 34.6541 83.1286
14.1103 32.9365 79.6812
14.0436 33.2993 80.5895
14.1936 33.5946 80.4893
14.101 34.3615 84.0973
14.0256 32.9013 80.6935
14.0499 33.3393 79.9555
13.6289 32.8502 80.9632
13.9519 33.5997 81.9424
13.6666 32.7006 80.6773
13.7222 32.5735 78.7225
13.4518 32.7673 80.5887
13.7141 33.265 81.2636
13.5509 32.6269 80.9102
