# pn-170911/RbIIR-57-USN3-1280-1959.psd
# Power spectrum* (dif=0,1,2) (really just |FT|^2)
# NOTE: only the first half! (symmetric)
# weeks: 1280-1959
# 2390 clock-days, 12 excluded
# PSD: 1441
555.748 0.0645001 0.0222012
27654.7 0.638094 0.0117654
104303 2.06988 0.0113279
18547.9 0.57362 0.0115643
42688.7 3.19528 0.0116919
6122.09 0.486331 0.0118748
4642.37 0.550864 0.0113452
2908.36 0.459857 0.011816
3557.32 0.847283 0.0115305
1873.69 0.475329 0.0120623
1595.46 0.536684 0.011749
1266.31 0.51172 0.0120182
1199.11 0.594798 0.011907
952.493 0.533707 0.0120806
859.694 0.570528 0.0116611
748.803 0.58709 0.0123556
731.02 0.662229 0.0128052
617.569 0.613895 0.0126205
551.942 0.652386 0.0129672
514.457 0.635455 0.0128151
531.503 0.760389 0.0129223
449.874 0.723422 0.0133239
434.603 0.759683 0.0135743
407.901 0.781353 0.0140059
403.366 0.887931 0.0141258
369.358 0.867068 0.0140916
360.474 0.905556 0.0140795
351.059 0.976439 0.0149127
326.653 1.02336 0.0157253
313.372 1.01802 0.0161558
318.302 1.14304 0.0163876
303.07 1.1173 0.0169456
305.45 1.23947 0.0175769
283.139 1.21536 0.0183388
270.861 1.26176 0.0184306
281.466 1.39591 0.0199649
271.369 1.44553 0.020258
262.124 1.46384 0.0216656
259.218 1.57139 0.0225594
257.939 1.65024 0.0235716
256.253 1.75288 0.0255152
250.076 1.75709 0.0258042
241.658 1.79448 0.0268849
248.46 1.93114 0.0284865
242.16 1.98702 0.0296797
243.034 2.07966 0.0314533
221.641 2.02065 0.0321792
224.671 2.14725 0.0335044
232.46 2.32506 0.0377464
225.107 2.30634 0.0392067
217.699 2.36565 0.0407895
218.452 2.46474 0.0417902
219.56 2.56572 0.0456313
220.55 2.68248 0.0470976
210.605 2.71426 0.0497309
209.462 2.82816 0.053621
215.44 2.9621 0.0574632
206.914 2.93884 0.057
205.521 3.07535 0.0611744
199.037 3.04922 0.0632639
199.908 3.18659 0.0665258
199.48 3.30036 0.0692229
205.588 3.56991 0.0779934
187.191 3.28996 0.0739771
199.146 3.59223 0.0828872
195.554 3.69847 0.0874334
189.962 3.73287 0.0901985
200.68 4.05719 0.0976111
183.788 3.82563 0.0966654
197.593 4.17979 0.107675
190.873 4.15538 0.109013
184.339 4.18924 0.113454
170.677 4.01967 0.111691
174.519 4.15886 0.116875
193.611 4.88915 0.138596
174.652 4.44159 0.132071
179.916 4.75062 0.142378
160.109 4.27384 0.133655
179.057 4.89319 0.152533
175.555 4.97306 0.160666
178.019 5.15167 0.169977
177.624 5.27491 0.1792
177.496 5.36839 0.18419
172.66 5.42512 0.19075
162.622 5.23299 0.188339
169.257 5.64522 0.208151
160.764 5.47857 0.206206
169.311 5.78973 0.219201
155.817 5.46177 0.2138
161.793 5.8067 0.230748
158 5.82433 0.237385
157.482 5.95792 0.247533
154.877 6.02654 0.256122
149.199 5.9291 0.257589
153.672 6.16639 0.274201
155.444 6.40798 0.284828
191.547 8.27109 0.374739
149.309 6.36394 0.294112
144.988 6.31524 0.301173
138.466 6.17614 0.300129
147.242 6.67355 0.323818
154.155 7.24131 0.363847
150.145 7.13243 0.365819
152.862 7.47974 0.390746
139.695 6.95443 0.372242
157.237 7.97744 0.428072
137.957 7.10157 0.389261
133.683 7.01104 0.391668
137.884 7.37672 0.416047
143.019 7.91766 0.458787
144.888 7.98057 0.474495
134.362 7.64124 0.459404
138.68 8.0118 0.487144
143.745 8.40576 0.516821
147.078 8.83719 0.560306
138.044 8.38766 0.542504
138.319 8.51339 0.553249
125.915 7.93234 0.531559
135.083 8.69256 0.589347
128.361 8.33348 0.57007
134.236 8.88233 0.618299
127.937 8.65522 0.615607
131.262 8.99039 0.642375
133.268 9.35434 0.695223
129.242 9.14847 0.677757
122.245 8.89044 0.672806
131.885 9.5865 0.733108
126.953 9.39774 0.730834
122.371 9.11786 0.716277
120.52 9.33547 0.74191
122.009 9.47047 0.76365
123.818 9.92569 0.828378
130.353 10.3893 0.871336
127.177 10.3345 0.872019
122.888 10.1786 0.878321
117.777 9.93288 0.875321
116.845 9.84172 0.868293
115.294 9.98148 0.897178
116.498 10.2288 0.938463
114.044 10.1805 0.942911
125.525 11.3514 1.06293
118.125 10.8682 1.0376
113.517 10.4947 1.0091
119.879 11.4523 1.12266
117.905 11.2212 1.10574
117.44 11.3064 1.13819
109.495 10.7134 1.09136
112.548 11.4584 1.19586
118.237 11.8873 1.23806
112.209 11.4622 1.21481
112.141 11.7106 1.25324
112.165 11.7097 1.26987
108.414 11.6192 1.29392
114.366 12.3694 1.38319
106.378 11.6789 1.3233
106.902 11.7989 1.3491
107.74 12.1293 1.4069
103.346 11.8824 1.40072
109.885 12.7266 1.51088
103.299 12.0468 1.44458
102.747 12.0689 1.47265
106.013 12.7352 1.56679
105.124 12.6856 1.57947
105.845 13.0912 1.67659
110.416 13.5768 1.72938
103.975 13.0626 1.69052
99.5897 12.7222 1.66964
105.478 13.4429 1.75273
99.8215 13.0716 1.75495
95.9664 12.7273 1.72693
98.2784 13.1537 1.80794
104.647 14.1434 1.95895
103.494 14.1264 1.98055
95.6809 13.0907 1.84766
97.3623 13.6182 1.95162
100.141 14.1763 2.0537
96.2672 13.7052 2.01156
93.5083 13.6338 2.02488
95.215 13.8495 2.07231
92.3508 13.6186 2.05354
93.3512 13.9436 2.14871
93.9339 14.2731 2.22784
90.8881 13.8335 2.16834
97.648 15.2732 2.42551
92.6407 14.1996 2.24059
91.4886 14.5218 2.36176
91.9358 14.7401 2.4203
89.8429 14.4482 2.38895
92.3049 15.1069 2.54384
89.5854 14.7368 2.48613
90.2823 15.0608 2.57402
91.2151 15.5021 2.70596
110.299 18.7331 3.21808
89.4303 15.2743 2.67881
85.5005 14.7698 2.60209
86.7321 15.4311 2.79995
89.3107 15.8595 2.8684
85.0833 15.1517 2.75909
83.4995 15.0323 2.77461
83.9064 15.3278 2.87864
84.2692 15.4472 2.90839
85.362 15.8192 3.01187
85.1211 16.0331 3.09857
84.6723 15.9813 3.07842
86.2257 16.5162 3.23304
83.4739 16.2453 3.2301
87.6308 17.0681 3.38249
81.7478 16.1257 3.25089
84.595 16.9725 3.45657
83.2853 16.79 3.45397
83.0176 16.7667 3.46796
79.9986 16.5044 3.48011
80.5651 16.7381 3.55467
81.5038 16.9391 3.57679
80.7422 17.1844 3.7312
81.7557 17.2954 3.73847
82.0324 17.5975 3.87481
79.3109 17.0545 3.7564
78.7376 17.3629 3.87665
81.8432 18.1289 4.05828
81.2136 18.1484 4.12807
75.8848 17.1433 3.93189
74.8293 16.8664 3.90855
74.7118 17.0647 3.96287
75.9359 17.5642 4.11881
78.4335 18.1989 4.30912
74.331 17.4176 4.17886
81.0475 19.2419 4.60578
77.1638 18.3888 4.43926
74.2466 18.103 4.45899
73.8856 17.9348 4.42387
74.4356 18.293 4.57161
71.3764 17.7846 4.51679
73.8583 18.2354 4.59742
73.6471 18.6241 4.78215
72.8386 18.4353 4.76147
72.8903 18.4951 4.76941
70.5501 18.1925 4.75175
70.7982 18.3833 4.85972
70.6593 18.589 4.97673
75.0577 19.7844 5.31357
69.0716 18.5499 5.03526
66.6823 17.7804 4.87304
69.7882 18.9598 5.20738
67.4305 18.4599 5.20389
71.3075 19.4518 5.41845
68.1019 18.8987 5.32718
70.6422 19.6213 5.52844
69.1318 19.4757 5.55136
68.9799 19.6632 5.69234
68.674 19.744 5.72554
66.5495 19.1603 5.60144
65.1349 19.1047 5.68771
64.7777 18.9401 5.68157
66.4462 19.5345 5.81443
66.0644 19.6917 5.94992
67.8322 20.0352 6.05785
65.7697 20.0215 6.17318
62.3314 19.146 5.99352
62.9972 19.4131 6.06269
64.1265 19.7969 6.21358
63.6458 19.7259 6.24393
63.9072 20.1845 6.52015
65.4806 20.6474 6.60537
64.704 20.7344 6.72951
62.3453 19.9086 6.42974
60.6589 19.7049 6.4677
63.5888 20.9168 6.96299
62.508 20.4812 6.80455
62.0233 20.3993 6.8656
62.2903 20.8741 7.05776
63.5965 21.3014 7.22258
58.8007 19.8038 6.78747
59.4192 20.3515 7.09077
60.425 20.5136 7.09944
60.4946 20.9075 7.31265
61.9737 21.3908 7.53706
62.1988 21.5755 7.6047
59.8902 21.1317 7.56915
56.864 20.4015 7.44452
59.7008 21.1554 7.58829
57.6426 20.8561 7.69875
59.4973 21.3991 7.844
56.0687 20.5354 7.65529
56.4295 20.5293 7.62097
57.9499 21.4853 8.06383
56.3548 21.1558 8.0363
57.5193 21.3743 8.14471
69.0306 25.873 9.66108
56.7631 21.7867 8.42194
54.2725 20.9927 8.24673
54.0077 20.5327 7.96104
53.4083 20.597 8.0829
53.6278 20.8192 8.19958
53.6072 21.1619 8.43606
52.3955 20.5709 8.2504
53.3041 21.3152 8.59769
54.3571 21.991 9.02037
53.4422 21.3644 8.74431
52.8314 21.345 8.78382
51.4256 21.0578 8.79201
52.263 21.5086 8.98375
51.8439 21.4098 8.93425
53.2064 22.1592 9.34338
51.7564 21.6328 9.18676
51.8076 21.9361 9.38231
51.9148 22.1201 9.57097
51.7306 21.9882 9.52703
51.4191 22.0053 9.57999
49.17 21.1792 9.32722
49.711 21.5482 9.45469
50.8718 22.4968 10.0983
53.1347 23.0346 10.1147
50.2161 22.4722 10.1044
47.6695 21.3397 9.69618
50.1723 22.3262 10.1241
49.2995 22.0433 10.0109
48.305 22.2474 10.3076
48.299 21.9577 10.1988
48.9304 22.5968 10.5886
49.0036 22.6459 10.6453
49.6654 22.9198 10.6655
49.3306 23.2683 11.0413
49.1315 22.9238 10.7726
47.1852 22.7232 11.069
46.8926 22.0335 10.5628
46.1781 22.1316 10.7397
46.1495 22.6369 11.2019
47.4149 23.064 11.3567
46.4526 22.6024 11.2046
46.9869 23.0478 11.4709
46.5274 22.7553 11.3899
45.9357 22.5789 11.3173
45.1757 22.3986 11.2101
44.054 22.2994 11.4386
44.825 22.8733 11.7649
43.4761 22.0809 11.4134
46.0244 23.4042 12.0102
43.8562 22.3516 11.6075
43.1796 22.5434 12.0246
45.4257 23.0577 11.9328
45.4083 23.5648 12.3503
42.1125 22.2362 11.8642
45.414 23.9501 12.6888
42.8247 22.7411 12.1633
42.4305 23.1182 12.6815
42.1933 22.7689 12.5319
43.1873 23.0836 12.5411
42.9388 23.4461 12.9091
41.7161 22.8439 12.5571
42.7495 23.6516 13.279
42.2208 23.2576 13.0068
41.5115 23.1961 13.0514
42.5753 23.8962 13.6139
42.6182 23.9208 13.665
40.7481 22.6274 12.8275
40.8895 23.2121 13.3539
40.8098 22.9071 13.1452
40.977 23.6365 13.7372
40.7212 23.0942 13.3998
40.5743 23.5269 13.7594
40.6454 23.4426 13.6572
39.2719 23.1289 13.7915
39.228 22.9914 13.5933
38.6988 23.2393 14.1879
40.3379 23.6847 14.1615
37.1758 22.0817 13.3808
39.1446 23.4044 14.1847
38.4595 23.0715 14.0201
37.7371 22.8273 13.9508
37.3492 22.6891 14.0242
37.8592 23.2087 14.4261
38.2253 23.4653 14.5784
37.9955 23.5477 14.8033
37.5224 23.5579 14.9997
36.4537 22.5459 14.295
36.8197 22.9433 14.5125
36.9595 23.2944 14.8772
35.5098 22.7707 14.7729
37.1745 23.8874 15.5125
37.0078 23.5974 15.317
37.5457 23.8308 15.3683
35.8468 23.4206 15.4674
36.2277 23.8514 16.0545
44.1126 28.7299 18.5333
35.6455 23.6743 16.0506
36.4045 23.8285 15.919
34.9735 23.2868 15.7806
35.9602 23.5549 15.7498
34.471 22.9915 15.5713
34.0001 22.8726 15.6629
36.281 24.5212 16.6463
35.8208 24.5242 16.8559
34.5218 23.3728 16.0415
33.4899 23.2781 16.462
34.6583 23.4976 16.1445
33.2863 23.2339 16.3948
33.0334 23.1898 16.4618
32.8759 22.8607 16.1938
33.4526 23.4365 16.8164
34.6285 24.2848 17.1891
32.8608 23.0459 16.3723
32.9113 23.4789 17.0496
32.1704 22.91 16.6492
33.0699 23.9436 17.5183
32.3439 23.5303 17.4094
33.6437 24.2359 17.7207
32.2347 23.492 17.4215
32.8674 23.8815 17.3422
30.1966 22.5172 17.0182
32.2396 23.8558 17.817
32.4307 24.0297 18.038
31.252 23.5178 17.9537
31.6174 23.7696 18.2141
31.9979 23.9553 18.2123
30.8297 22.9848 17.5526
31.2127 23.4341 17.8364
31.6023 23.9781 18.4158
31.8776 24.5674 19.0857
30.9644 23.778 18.4835
31.1131 24.3876 19.1087
29.9434 23.7467 19.1258
30.7995 23.6596 18.5921
30.7359 23.924 18.9908
30.3329 23.6308 18.7067
30.5154 23.9585 18.97
30.6971 24.3065 19.358
30.0949 24.0174 19.3104
30.3303 24.3692 19.7465
29.8699 24.2166 19.7242
29.662 24.2863 20.0959
29.353 23.9801 19.9581
30.3654 24.471 20.0732
28.0067 22.6768 18.8907
29.3479 23.9425 19.9029
29.4501 24.2894 20.3092
28.5217 23.3469 19.4243
27.3521 22.9285 19.499
29.1239 24.1379 20.236
28.9449 24.6517 21.0716
27.6931 23.3254 20.0869
28.9148 24.4106 20.7803
28.2625 23.8353 20.22
27.3501 23.8563 21.0513
28.1645 23.8841 20.5399
27.9813 24.0713 20.9333
26.8967 23.1574 20.1851
28.5961 25.0783 21.9878
27.1837 23.7285 21.2464
27.9706 24.5301 21.7734
27.8566 24.1594 21.1323
26.5699 23.549 21.1061
27.1151 24.1833 21.8648
27.1764 24.0151 21.4341
26.8257 24.0999 21.8891
27.046 24.2075 21.9803
27.1026 24.7326 22.7821
27.2644 24.6802 22.6016
26.5142 23.9062 21.9834
25.8862 23.5539 21.9245
26.6809 24.0219 22.0224
26.4513 24.7034 23.2025
26.6531 24.4357 22.7415
26.4926 24.517 23.0838
26.71 24.7752 23.0694
25.6614 24.197 23.1932
25.6487 23.6696 22.0399
24.6042 23.2954 22.4575
25.9409 24.4939 23.3088
25.4689 23.7669 22.5796
25.4121 24.3411 23.4655
24.8981 24.0188 23.4436
25.4936 24.2647 23.266
24.6584 24.0449 23.7892
25.6178 24.4461 23.6443
23.8329 23.1312 22.9198
24.9627 24.1626 23.4866
23.8683 23.6711 23.7938
23.8996 23.1411 23.0683
23.9301 23.6476 24.3628
30.3066 29.414 27.9641
24.149 24.2108 24.6042
24.5534 24.5278 24.7059
24.1838 24.1493 24.3524
23.7767 23.9471 24.22
22.4169 22.6418 23.3154
23.2099 23.6115 24.2223
23.2178 23.6408 24.5587
23.8383 24.2988 24.9621
23.3839 23.7855 24.8881
23.9629 24.4245 25.1837
23.3393 23.7421 24.4596
22.604 23.3354 24.3581
23.0323 24.0702 25.246
22.3224 23.3698 25.0682
23.9243 24.7823 25.8274
22.3085 23.45 24.9917
23.0224 24.3011 25.944
22.5692 23.5152 25.0239
22.1132 23.5249 25.2935
22.1186 23.4788 25.1975
21.4416 22.8792 24.835
21.6091 23.2691 25.4033
22.1308 23.8086 25.6373
21.1668 22.9451 24.9506
21.1734 23.3691 25.9766
21.5444 23.233 25.5027
20.4082 22.1826 24.7821
21.3491 23.1742 25.5021
20.8016 22.871 25.5654
20.4484 22.6485 25.4736
21.3395 23.1763 25.6964
20.832 23.0468 25.7394
20.5241 22.6219 25.239
20.5879 23.2508 26.2195
20.2542 22.7022 25.8046
20.7684 23.5626 26.8478
20.1512 22.7587 26.1747
20.6545 23.3289 26.6428
20.7591 23.6208 26.8701
20.1382 23.566 27.5284
20.3238 23.2085 26.7915
19.591 22.4557 26.38
20.3455 23.3971 26.8944
19.666 22.8085 26.7662
19.7596 23.3036 27.7666
19.8952 23.0209 27.1152
19.6181 22.8095 26.8894
19.7569 23.0611 27.0395
19.1769 22.8428 27.5472
19.6828 22.9571 27.0573
19.3001 23.1935 28.0215
19.1886 22.9718 27.9045
19.6854 23.4995 28.2402
19.4025 23.4067 28.5118
18.8684 22.542 27.6735
19.8486 24.1116 29.3478
18.6994 22.3728 27.4855
19.038 22.977 28.1949
19.1405 23.0564 28.1982
19.0062 23.19 28.6327
18.9624 23.3142 29.0112
18.4522 22.5169 27.9454
18.3578 22.6296 28.2247
18.3312 22.7437 28.6364
18.6525 23.1974 29.259
18.7436 23.0765 28.755
17.8084 22.2438 28.3724
18.2847 22.819 28.9906
18.4775 23.1055 29.4874
18.5541 23.2107 29.3478
18.1566 23.0018 29.2704
17.6976 22.6504 29.26
18.0319 23.2079 30.0622
17.3772 22.0545 28.6117
16.7028 21.0477 27.3792
17.4141 22.6961 29.8616
18.0174 22.9457 30.163
18.3423 23.6142 30.5493
18.3097 23.5249 30.437
17.0397 22.1167 29.3192
17.99 23.7437 31.4298
17.672 22.9903 30.6966
17.6813 22.863 30.1821
17.1735 22.5305 29.9771
17.0657 22.4515 29.9408
17.0487 22.6837 30.4327
16.8723 22.4409 30.3826
16.6691 22.0409 29.7136
16.8682 22.6849 30.9459
17.3764 23.4863 31.9919
17.2624 23.0809 31.6032
17.144 22.99 31.1571
16.4796 22.507 31.1956
16.7483 22.5061 31.1059
16.973 23.3027 33.4797
20.6797 27.3002 35.4927
17.1864 23.7881 32.7249
16.4547 22.6941 31.9932
16.8831 22.9027 31.2596
16.0722 22.3501 30.98
15.6853 22.2544 32.1158
16.7743 22.914 31.7873
16.3365 22.8712 32.172
16.0651 22.4955 31.99
16.4314 23.5427 33.8027
16.2755 22.4018 31.5582
15.9768 22.6118 32.2314
15.9518 22.5499 31.9977
15.4203 21.806 31.2645
15.3713 22.3502 32.7432
15.5004 22.0921 32.2782
15.4478 21.7432 31.6359
15.4917 22.3653 32.6743
15.6238 22.3887 32.7863
15.9798 23.134 33.9346
16.2019 23.2432 33.6874
15.7475 22.7724 33.1598
16.0618 23.8309 35.3259
15.6846 22.9444 34.5523
16.3725 23.6749 34.6173
15.0703 21.7155 32.4285
15.661 23.2148 34.785
15.3181 22.1732 32.8249
15.3639 22.8328 34.379
15.8401 23.1927 34.0687
14.8364 22.3386 33.8264
15.2786 22.7128 33.7285
14.17 21.338 32.7349
14.7327 22.5637 34.7582
14.8897 22.2622 33.9337
14.586 22.1762 34.418
14.4436 21.1865 32.2769
14.619 22.1818 34.0291
14.7039 21.9255 33.1639
14.4849 22.4908 34.8862
14.7877 22.5467 34.732
14.4109 22.1547 34.1704
14.3383 22.5636 35.7904
14.7217 22.3523 34.2639
13.7573 21.6369 34.7786
14.0147 21.3985 33.988
14.1689 21.3702 32.494
13.5962 21.8408 35.2524
13.8176 21.3116 33.7334
14.1878 22.4936 35.3108
13.3758 21.109 34.4186
14.1293 21.8685 34.2097
13.4532 21.5953 35.2513
13.7372 21.7194 34.8087
13.9492 22.1283 35.4981
13.6462 21.5356 34.5995
13.5156 21.5184 34.6913
13.526 21.5867 34.6473
13.1529 21.1143 34.2874
13.325 21.6095 34.8731
13.0767 21.4506 35.3086
13.1459 21.3841 35.0679
13.002 21.2588 35.5954
13.0837 21.1143 34.5675
12.7445 20.8199 34.925
13.1228 21.4407 35.6641
13.1257 21.4757 35.718
12.7383 20.4471 33.9326
12.9769 21.3092 34.9981
12.6259 21.0542 35.2412
12.8369 21.6818 36.766
12.7215 20.8959 35.232
12.7247 21.2209 35.7929
12.3748 20.2917 34.5701
12.6159 21.0744 35.3564
12.1677 20.2149 34.3568
12.434 20.8631 35.48
11.9851 20.0756 34.344
12.0179 20.3431 35.5134
12.2699 20.4964 35.2458
12.2187 20.3557 34.0282
11.4818 19.6944 34.6217
12.5452 21.7176 37.5078
11.9571 19.9425 34.216
11.6525 20.2545 35.4849
12.1713 20.9772 36.4207
12.1079 20.715 35.7031
11.8099 20.7433 36.7089
12.2655 21.0852 36.5924
11.924 20.7653 36.0659
11.4651 20.15 35.9882
11.8856 20.7768 36.5431
11.5086 20.2529 36.305
11.8909 21.0195 37.5345
11.3719 19.6895 35.3944
11.6831 21.6215 42.2268
15.3509 25.6864 41.6689
11.5077 20.1837 35.6994
10.8515 19.5518 35.4443
11.176 20.2437 36.9505
11.0992 19.5838 35.8645
11.3815 20.1859 36.4733
11.2187 20.2463 37.019
11.3162 20.0218 35.8993
10.9686 20.1488 37.4145
11.3235 20.1188 36.4925
10.7628 19.2158 35.5432
10.8203 19.366 35.3059
10.8413 19.6785 35.8753
10.7997 20.0734 36.9986
10.7949 19.9244 37.2045
10.5256 19.0016 35.6035
10.7021 19.3995 36.0595
10.877 19.9764 37.0652
10.9649 20.2897 37.5592
11.0459 20.4877 37.8627
10.7801 20.2424 38.0863
10.6331 19.7103 36.9047
10.0287 18.736 36.2536
10.459 19.436 37.1477
10.7703 20.0215 37.6585
10.4246 19.2773 36.4806
10.3918 19.9126 38.3722
10.6812 20.0629 38.7764
10.7963 19.9368 37.4164
10.3987 19.6321 37.1926
10.3491 19.8559 37.9984
10.2874 19.7658 37.8244
9.82926 18.6657 36.1656
10.1074 19.6949 38.357
10.1697 19.5846 38.5681
10.2864 19.6389 38.4956
10.5308 20.3104 39.3913
10.2376 19.7377 38.5469
10.0051 19.3275 38.6939
10.4427 19.701 38.1399
10.1303 19.3997 37.6279
9.75934 19.1055 37.966
10.0817 19.4313 37.7139
10.171 20.0313 39.2421
9.90649 19.7365 39.9548
10.0132 19.0006 36.5933
8.97849 17.7452 36.0728
9.67312 19.4814 40.0503
10.5764 20.3828 38.7716
9.27672 18.5197 37.7577
9.53986 19.1184 39.1022
9.78471 19.0832 38.1221
9.53423 18.8654 37.7852
9.39454 19.2803 40.2235
10.1315 19.7648 39.5387
9.56806 18.7977 37.5301
9.33112 18.9992 39.1802
9.93499 20.1208 40.356
9.60165 19.4789 40.2833
9.44501 18.8484 38.3824
9.52251 19.0513 38.1318
9.00172 18.5304 38.5329
9.26216 19.0122 39.5546
9.03397 18.0493 38.144
9.47828 19.1408 39.896
9.87335 19.6435 38.8997
9.02831 19.1755 40.7064
9.5767 19.2162 39.2349
9.30487 19.4811 40.4811
9.06218 18.8483 39.6796
9.08255 19.0157 40.3862
8.88293 17.7914 37.6266
9.10153 18.9758 39.8167
8.9055 17.9928 37.4501
8.93771 18.8952 40.0486
9.16608 19.2118 40.534
9.08889 19.2024 40.8224
9.22614 19.3136 40.572
8.90149 18.9336 40.2161
8.73019 19.0204 42.3774
9.2479 18.8269 39.8322
8.72283 18.0165 38.8179
8.7196 18.0749 38.0587
8.39085 18.0332 39.9891
9.0102 18.8108 39.8446
8.69257 18.511 39.6008
8.70275 18.4545 39.0741
8.43542 18.3714 39.8912
8.484 18.2454 39.2201
8.27912 17.9328 39.1184
8.2918 18.0893 40.283
8.43347 18.1049 40.0978
8.46542 18.1464 39.8143
8.47586 18.3239 40.1194
8.22993 17.8398 39.6379
8.27126 18.4798 44.2648
10.4439 21.8103 44.1098
8.30126 18.1817 40.609
8.52269 18.6572 40.7174
8.10541 17.7471 39.2414
8.07169 18.1554 41.5617
8.48374 18.6811 41.4956
8.28754 17.9038 39.7633
8.07901 17.927 40.0211
8.08595 17.621 39.1915
7.80979 17.4235 39.3165
7.96438 17.7826 40.0845
7.91123 17.4043 39.5955
8.21253 18.4197 40.63
7.80264 17.8562 41.1779
7.92331 17.419 39.4355
7.61186 16.8548 38.9676
7.72051 17.1978 39.7547
7.98088 17.6347 40.0565
8.02559 17.9078 40.0621
7.65025 17.2319 39.0512
7.58296 17.6631 41.1959
7.85531 17.7419 40.9156
7.68507 17.3076 39.9441
7.4321 16.9129 39.9718
7.68246 17.148 39.3117
7.41821 16.7653 39.5777
7.72024 17.1993 39.2117
7.78481 18.1162 41.2361
7.42725 17.0627 40.3492
7.80753 17.9522 41.3821
7.6168 17.3984 40.2838
7.34942 16.7426 38.3207
7.1439 16.9701 39.739
7.25694 17.5697 42.6028
7.47045 16.7935 40.173
7.55203 17.3398 39.9608
7.33509 17.0557 40.1622
7.28936 17.1276 40.9989
7.35204 16.7102 38.3933
6.86369 16.4471 40.1688
7.33679 17.3822 41.106
7.1249 16.7521 40.6232
7.34307 17.2721 41.1987
7.0768 16.5073 40.4111
7.38092 17.3094 40.5425
7.15557 17.016 41.0714
7.34058 17.2605 40.1809
6.82267 16.5527 41.0721
7.2197 16.9404 40.1348
6.95815 16.8193 40.5003
6.84598 16.2048 39.0564
6.72307 16.5285 41.423
7.04867 16.6731 40.9675
6.8815 16.373 40.8933
7.19824 17.0766 42.0385
7.19068 16.644 39.7818
6.85649 16.4448 39.4377
6.75361 16.2987 38.834
