# pn-170911/RbIIR-54-NIST-1280-1959.psd
# Power spectrum* (dif=0,1,2) (really just |FT|^2)
# NOTE: only the first half! (symmetric)
# weeks: 1280-1959
# 1 clock-days, 5 excluded
# PSD: 1441
210.778 0.0323296 0.0885104
13399.1 0.412804 0.145588
231473 3.85755 0.120448
7240.17 0.408719 0.00985283
15242.4 1.15931 0.293692
3725.71 0.738954 0.32252
7302.91 1.04872 0.0447374
1539.99 0.0625784 0.31904
889.695 0.528609 0.519026
2333.33 0.667713 0.137491
2090.38 0.459678 0.174441
3161.69 2.10284 0.49571
317.83 0.201964 0.224808
431.539 0.508337 0.0283032
498.815 0.170238 0.246667
855.243 1.44634 0.129086
726.256 1.55278 0.00793851
429.603 0.597728 0.13416
123.51 0.617201 0.0657352
890.827 1.48626 0.0716721
143.518 0.997943 0.325937
583.529 2.31697 0.116235
285.886 0.355615 0.052137
592.766 1.35355 0.503681
335.212 1.23478 0.427129
91.5888 0.488971 0.0435452
967.841 4.21257 0.495566
647.996 1.51847 0.393129
24.3808 0.164536 0.0764816
632.273 1.12416 0.137665
4.37585 0.0198739 0.32886
469.583 1.38301 0.0602513
924.36 4.09557 0.0452564
224.945 0.506503 0.119801
40.8548 0.0950213 0.0260363
94.5775 0.0953402 0.0801465
811.094 3.38594 0.33347
324.073 2.37934 0.0623052
656.315 4.6038 0.127261
31.303 0.526845 0.465148
1012.85 4.9794 0.210714
290.567 1.55506 0.0631
315.552 3.45202 0.333861
1176.85 9.4734 0.779538
216.521 2.18817 0.125197
499.272 4.77559 0.134153
27.4304 0.19508 0.394895
124.568 1.13757 0.0258183
758 11.9615 0.4827
262.102 1.69253 0.210254
111.168 1.47672 0.0427926
1007.26 11.2018 0.466456
30.7246 1.06281 0.209804
38.2256 0.267906 0.00303403
183.163 3.45018 0.501389
1153.96 12.0852 0.669037
831.792 12.979 0.218428
918.333 18.8838 0.158876
742.47 11.9955 0.946901
510.236 11.0807 0.646153
180.946 2.31759 0.15496
89.0002 1.269 0.381645
70.6475 0.872468 0.217821
395.482 7.39432 0.169622
262.969 3.95778 0.508429
253.622 3.95922 0.0643974
132.452 3.05637 0.0379311
79.1923 0.840849 0.0519007
76.5495 2.9315 0.267454
6.54389 0.721173 0.0831547
45.8315 0.162306 0.157112
758.539 17.5902 0.349005
1465.44 31.2533 0.951638
62.1885 2.57464 0.430399
56.6239 0.747668 0.43308
195.331 5.69223 0.0241622
1178.71 40.6507 2.05408
440.559 8.97435 1.18833
39.3849 0.612159 0.120269
195.667 6.11309 0.583594
522.207 19.154 1.83011
209.071 5.79158 0.553899
134.673 4.86597 0.234016
278.908 5.94739 0.245601
180.296 4.7945 0.385265
63.3277 2.98309 0.219869
133.874 5.12756 0.659382
443.407 16.6725 0.734724
291.891 10.3794 0.538795
87.2968 2.75708 0.100541
350.147 15.03 0.158207
191.891 11.0654 0.949048
237.849 7.07955 1.22474
125.719 3.33446 0.254213
269.859 10.3105 0.641853
1036.54 39.6172 0.715404
743.432 36.4593 3.45473
1.57365 0.515535 0.00770165
769.956 33.5356 2.05658
80.4109 2.85369 0.0689323
157.408 8.51006 0.578469
336.919 18.0182 1.36788
126.828 3.09954 0.00763654
3.28694 0.115042 0.0253914
114.065 8.10685 1.07566
487.175 21.3277 1.54284
18.0553 0.133643 0.034163
257.967 15.9086 0.927047
200.944 15.0061 2.20176
151.525 5.50339 0.556324
93.2404 4.97826 0.245095
13.9576 0.643505 0.651378
51.601 2.92127 0.0795964
254.408 15.6995 1.08035
175.193 8.58205 0.045344
497.914 35.8973 3.47655
227.049 16.7462 1.43595
202.489 11.1668 1.1342
4.37245 0.493418 0.242463
116.542 14.496 0.827182
482.637 36.0585 2.27595
250.747 14.1631 0.51293
76.2303 3.22059 0.300645
174.14 14.1323 0.557249
64.8382 4.21442 0.10143
366.862 26.05 1.558
26.1416 0.403394 0.246786
17.0521 1.52026 0.6305
84.1539 6.71169 0.308879
319.615 23.4742 1.26883
15.5537 0.360464 0.437777
561.347 48.0422 5.55426
566.393 57.5366 5.12489
422.577 31.2564 2.94438
142.483 12.1837 0.557933
140.768 15.5819 1.05191
179.961 15.0334 1.0369
274.311 18.9924 1.33853
235.095 20.264 1.58539
83.4074 8.35723 0.184247
95.7641 9.17066 1.04399
111.223 6.47695 0.691434
127.087 12.6909 0.409036
76.5634 9.09789 1.02922
268.148 31.684 2.99189
373.304 25.326 0.773634
246.343 22.7997 2.63783
54.6992 4.80286 0.868655
39.8001 5.27792 0.912411
309.086 40.8806 6.68081
141.751 13.2949 1.60165
208.603 16.0484 1.37271
0.966038 0.765623 0.283635
46.0983 7.87641 0.669693
67.4062 6.84142 1.22617
39.2772 5.08915 1.3694
174.862 15.6055 1.79427
263.06 26.0991 2.97096
76.9464 16.5451 2.28829
104.946 10.2591 1.08328
343.156 38.8296 5.47446
102.761 20.082 3.65935
74.4821 8.83419 2.02768
39.6173 5.53476 1.04543
27.1481 1.72567 0.0274984
502.292 54.1743 3.92736
181.433 30.6511 3.68276
2.23253 0.703442 0.0738662
113.469 17.4172 1.89335
48.5784 4.64775 1.10062
224.934 33.3277 6.67587
270.525 18.6704 1.47932
271.165 34.4713 3.4475
429.021 56.87 6.24948
58.6624 9.59451 2.5039
316.759 40.8119 5.4829
48.5139 5.31934 0.176912
152.704 22.3586 4.56059
133.77 17.0346 1.4353
59.5695 8.80734 1.37526
152.127 26.0845 3.64252
408.044 52.8005 6.75173
48.0078 5.80571 0.64296
56.6556 5.76041 0.417078
109.256 20.3345 4.29229
95.4352 17.7763 4.1643
52.6912 4.92285 1.24365
41.3631 6.31554 0.832897
29.6851 2.22066 0.570701
30.8121 6.77041 0.786742
246.909 36.5232 4.8015
29.8117 5.59823 0.91878
306.843 45.1226 6.7103
31.7695 5.64798 0.677238
48.8735 10.2213 2.06767
23.5952 2.11469 0.139753
211.72 50.883 11.3671
367.749 50.9437 6.34872
200.041 34.0239 6.18666
88.3334 11.9624 1.24708
287.804 48.6275 10.0701
98.8006 19.5505 4.92065
246.088 38.607 5.70914
171.295 27.0943 5.47698
226.706 45.9612 8.50396
21.5703 5.67864 2.94677
112.064 11.4789 1.35142
148.503 24.5741 3.75413
453.464 84.2355 17.5657
330.606 60.3367 10.5892
77.7463 9.85688 1.29501
86.1001 21.4388 6.53976
26.757 3.32861 1.15817
129.529 22.8027 4.5171
246.296 45.6177 8.29324
66.2676 15.0605 3.46238
125.986 30.7172 9.45516
70.5836 8.50964 1.20675
48.9128 7.11239 1.81081
79.7018 13.3402 3.49555
69.8793 10.0841 2.64283
59.4353 13.291 3.09834
81.6576 11.098 2.51688
21.4356 3.83332 1.32571
105.281 22.6903 7.22649
185.713 33.7711 6.82737
10.0952 4.56441 2.65119
142.083 22.59 5.31971
206.31 56.3922 14.402
43.9075 6.83477 1.51484
42.8493 10.237 1.45555
71.8448 12.2855 1.95126
37.7605 14.4266 4.45797
89.7255 13.9617 1.96159
41.5785 12.067 3.99991
20.5097 1.82443 0.765011
155.385 49.4044 11.0085
250.859 81.6321 26.7016
362.456 61.527 10.9105
343.514 101.736 24.0012
77.5353 15.232 4.10583
0.186694 0.431481 0.170794
9.06652 1.95614 1.78693
30.479 14.8096 4.38721
42.384 7.75789 1.22846
144.674 53.9422 18.8217
18.2183 4.01863 1.59419
20.4739 2.18039 0.331763
18.2085 4.97377 1.39984
212.184 45.1074 7.55081
134.181 53.4372 18.3491
170.606 58.351 15.9137
67.0052 20.9835 4.78026
238.597 62.262 18.4544
2.08665 5.64572 1.85334
28.4108 9.06173 4.28874
61.713 15.5324 4.32948
17.6228 6.5477 2.79374
66.3057 15.0076 2.14715
119.027 38.5949 14.024
116.317 24.7188 3.79772
278.122 107.81 45.4017
363.234 82.0722 15.6074
69.9183 25.2284 6.88648
117.028 35.635 9.45428
13.3069 8.87841 5.66885
148.809 55.9257 21.327
11.3213 0.486175 0.42373
60.3468 16.2849 5.10688
194.06 76.4414 22.2904
42.7078 16.2396 5.39029
146.282 55.2088 19.0266
55.5525 26.1328 17.0732
283.793 70.4853 18.4007
77.2712 50.3831 22.3974
46.8184 10.241 2.52669
64.342 28.0372 12.7245
11.5051 0.331367 0.307553
138.026 39.8415 10.2358
4.02182 0.774319 0.346917
41.4826 13.2936 4.40282
5.01158 2.393 1.24542
128.474 33.1227 10.2299
197.637 88.0289 32.3238
91.7685 42.1343 19.3754
61.6726 25.2746 10.7449
52.0233 17.5365 3.46956
54.2145 12.2852 4.40095
126.872 69.3847 29.8937
52.1687 20.8309 5.04218
39.232 8.38361 3.42618
67.2142 27.9013 8.49935
115.679 38.6507 15.9148
3.45708 3.93865 2.74877
13.5489 8.84486 6.03274
34.3301 8.42845 3.69524
3.04362 1.5286 1.79655
142.637 47.7045 15.5442
182.481 72.2226 27.5481
77.4036 43.0454 21.9547
30.6898 13.6349 8.09427
42.6111 10.2519 2.70171
17.3232 1.94993 0.81609
97.127 48.0974 20.1731
60.8599 25.6828 8.62717
17.1193 2.34051 0.945884
29.8567 11.2287 7.25006
77.0156 21.3443 8.61952
115.89 63.9367 25.1886
3.05658 0.566271 0.171364
102.135 44.9819 21.9051
37.0457 16.5425 13.7566
70.2389 16.8567 3.5783
311.429 150.666 71.4328
30.0588 7.94878 6.46629
98.9197 42.2162 15.7278
28.9751 13.907 7.94735
10.079 1.21586 0.0613581
59.7088 22.0542 8.23265
3.8829 10.1167 5.66545
27.2233 9.11775 2.75444
58.9138 53.2979 32.2072
83.0154 32.1147 6.75948
46.4753 20.441 10.5224
63.8528 49.4117 23.6249
21.417 5.88849 0.656303
41.8263 17.8579 9.84611
5.32246 0.977536 0.142969
58.6393 43.0595 24.4498
27.9737 4.39894 0.161417
265.583 138.839 74.0754
94.3535 37.6971 16.8416
101.999 67.7296 37.3416
44.335 12.305 3.67266
57.5875 25.8637 13.8572
85.7295 40.3818 23.3784
76.3102 31.4351 13.047
77.1708 35.8762 20.3992
21.6443 3.78115 1.70374
18.8065 24.6063 12.6612
19.16 11.0128 7.71062
25.4283 3.81584 2.32683
20.5049 5.49325 0.239521
121.711 49.6887 15.9487
68.6487 35.0298 18.1977
213.317 122.436 66.9152
34.8877 34.2448 35.2743
69.5537 33.4834 18.4221
38.5328 11.4098 2.08939
20.46 23.1832 18.1144
1.63082 2.89029 6.22494
117.505 43.1257 15.6509
15.1442 19.09 11.307
14.8215 14.5403 9.70924
75.9233 48.1641 18.511
46.3612 38.6365 21.836
6.63992 7.76285 3.58834
6.18164 5.18127 1.89095
9.28359 4.23116 6.51596
73.4675 48.4536 29.0598
85.3763 44.1502 27.6066
10.2437 4.28166 6.66755
17.9493 9.08319 4.77828
32.1581 15.2907 6.19001
79.2427 51.4984 31.2658
4.17984 14.127 20.2158
43.7284 12.3517 0.860399
161.293 82.1586 45.1507
32.1128 16.1719 8.48442
30.5445 13.1422 9.63407
35.4721 14.3648 6.64757
35.254 23.5204 12.9868
57.3927 40.2958 32.1543
28.796 11.4453 7.59747
24.7877 8.90621 6.18484
5.18313 6.67092 5.0524
10.6682 3.50292 0.333797
86.4334 75.1364 48.9007
8.72159 3.66182 5.04481
101.848 62.2403 39.2161
48.3823 23.6906 12.7285
18.0033 14.6812 11.7206
34.2538 23.9357 14.1804
38.7484 36.6633 29.2761
78.4519 40.4547 18.9761
33.9774 52.9551 54.1035
87.9804 48.5987 17.5084
20.3084 3.77953 0.767749
50.7486 24.8581 7.32681
82.6947 63.9188 38.4242
16.4919 12.4719 2.99029
108.477 93.0938 70.8439
7.60252 4.94384 4.04097
2.05658 4.72032 3.27608
9.68834 5.09617 3.291
0.0541257 0.521944 0.0531908
9.61819 10.2725 12.4863
84.9968 68.1411 52.2538
24.0662 7.96577 2.45655
51.3866 31.9798 15.6365
109.218 109.45 93.633
71.9061 36.0236 33.6724
41.4848 14.4563 1.54891
45.9153 22.8673 12.4978
23.4958 13.6957 5.27683
39.0031 15.599 11.2451
34.3126 16.8925 5.53828
45.262 37.3922 27.0984
19.0264 17.7037 26.7413
59.3027 31.3959 20.5943
19.7806 12.2063 18.0686
78.0253 46.7704 29.1836
40.1272 28.1337 23.3676
28.5299 21.439 16.6705
32.9572 29.4058 21.2248
2.65275 10.2952 15.8721
66.1517 35.7885 23.3531
63.8461 48.5556 36.9717
7.51354 20.0024 27.6581
21.7554 6.51656 4.13846
145.057 83.6243 56.324
30.8558 14.1308 9.78271
0.205894 2.04552 4.11561
60.0656 35.4691 16.2092
66.8637 61.9421 40.8813
41.473 49.9905 56.5445
7.68143 29.1981 50.3223
162.7 117.416 57.3455
14.9206 14.0782 8.83937
69.8386 67.0987 64.6519
27.2561 14.042 12.4583
57.6141 51.5072 40.2474
8.93452 28.0553 44.8517
67.3077 34.0262 12.1511
44.34 42.8945 39.0695
32.5782 15.7045 10.0184
37.9384 56.4736 50.6097
4.91423 5.29111 12.633
44.2268 13.3603 4.6846
28.2126 43.134 40.2256
27.0335 17.1143 12.8702
0.623461 3.8486 11.9365
42.9227 29.5073 6.04794
45.5816 33.5576 26.4104
0.259218 4.55825 7.88884
50.4255 47.336 27.6745
19.3832 31.243 43.476
19.5654 3.90652 2.26028
48.6183 39.8232 31.4454
17.5849 6.03595 0.239762
15.3451 13.96 7.98995
46.0531 39.0825 34.0461
10.2337 5.26629 5.2001
19.7033 18.8786 16.7103
42.2031 29.5555 23.2943
20.3626 49.8291 54.7176
2.45753 4.11124 17.1253
73.3092 49.5289 34.6442
37.2518 35.5651 40.679
18.8722 7.49874 0.935429
27.9635 18.8494 16.5535
8.05455 18.2922 22.0562
24.5959 25.2639 17.2924
17.9714 13.7662 9.23836
47.1064 57.8205 55.3352
14.9273 18.0935 28.433
44.3438 26.4035 18.3772
74.8565 68.8215 53.3608
0.0365922 0.161682 2.12049
12.2016 8.80678 8.91844
2.14129 0.139579 0.248117
3.26139 1.51408 1.69348
30.0771 27.8094 40.1794
48.577 31.4736 26.1789
7.25411 3.93903 2.00964
0.798127 8.22892 15.0687
75.0898 86.0825 68.3394
43.9421 51.6044 54.1876
39.7833 45.5521 64.0852
57.1072 38.1733 22.6592
39.7886 36.0505 26.9835
5.6128 3.95751 4.96234
5.42318 6.25797 10.1561
28.4636 24.7458 25.218
31.3226 21.5274 11.845
21.3998 37.2123 41.7597
6.02983 1.77978 0.663615
11.1869 4.82797 4.98739
7.12908 16.4123 33.8229
60.3485 44.6289 24.7372
32.3058 45.3546 43.3058
7.40633 18.9357 25.508
7.88868 7.69656 6.90301
24.5587 33.9072 37.6988
45.8289 68.2045 73.326
30.4047 13.3731 2.88482
11.1769 14.4398 18.0729
29.2868 42.0528 46.5553
15.9322 8.57433 5.31785
18.5735 17.3165 13.2443
35.7309 43.0946 48.8056
4.04763 20.5399 49.8588
49.3745 35.267 10.3843
39.7082 51.6652 64.948
31.0183 20.0608 23.4883
17.1229 7.40918 11.1449
49.9982 54.6007 70.6099
82.9899 75.6864 91.7492
64.2063 56.1958 46.5207
12.4601 9.28621 19.0637
37.0612 29.1255 26.1159
1.06894 0.15073 2.53095
33.7191 46.9819 67.4724
43.241 26.8229 6.64654
30.1918 50.8228 65.8325
23.4356 18.1008 16.2162
1.34593 1.51379 4.25945
7.25797 8.04072 2.93133
20.0053 32.0759 43.2207
26.5731 19.0848 18.1039
11.5221 13.6896 16.0841
5.26136 6.11107 3.18317
19.9369 18.5323 25.7849
26.7405 31.6677 23.6172
38.9262 58.8995 61.4554
3.24178 1.81273 6.22763
49.106 81.6856 77.8531
3.09236 5.03588 13.6972
3.90252 4.06608 8.15434
1.39824 0.0880014 8.34998
46.6855 54.2686 58.188
10.8227 10.5124 12.0843
4.84216 15.1439 31.0907
7.49543 1.06252 1.76313
33.0051 39.2171 31.8871
27.5411 62.8097 118.313
68.0895 29.343 5.2767
50.2732 65.261 61.5827
15.7955 60.0775 116.122
27.9845 18.9411 12.3224
30.2384 25.493 19.771
14.2566 25.1002 16.9659
1.86324 2.63345 7.71937
30.6512 54.0194 82.5266
13.9269 15.0716 49.3251
65.1549 48.1063 37.9383
25.1929 22.2099 5.00753
34.8447 40.3876 28.8042
19.8002 37.0671 35.651
7.19984 20.4869 28.385
17.5319 35.3844 45.6056
1.12692 11.2669 22.7137
4.90055 22.9002 42.0436
0.842258 10.5915 41.837
10.1097 1.08206 14.312
23.1661 15.4918 1.48758
73.2733 91.2271 122.872
10.3117 1.86631 8.85568
11.0403 6.77111 26.4257
34.108 33.6088 12.4858
12.6289 11.2153 4.61521
57.7481 114.535 125.996
7.06105 11.2065 25.0836
18.4789 56.396 114.799
31.7644 14.9618 8.41892
18.3539 18.9062 19.8536
7.03312 2.90415 2.19456
9.64118 15.5532 29.8913
50.1617 57.4588 57.9529
0.862735 1.18294 11.9487
42.4066 46.6645 43.4019
6.04368 15.4656 17.3689
10.3523 40.498 84.0303
17.3636 10.0071 6.31624
7.28255 10.5905 15.4443
30.7549 70.6765 122.566
57.1187 34.5974 11.6187
23.2705 61.1065 96.1876
28.6021 42.4067 44.7859
9.49758 11.2076 16.6305
27.401 29.3892 36.0661
43.8853 74.1247 87.9986
0.831637 9.10138 29.3131
10.1657 1.94864 2.126
25.2688 35.0347 50.0071
49.8246 78.2774 111.923
45.3552 46.0995 62.731
7.35274 0.648231 5.20182
17.64 35.0897 35.759
1.92833 17.5345 45.8723
16.1995 7.43495 0.0781133
31.4797 55.8829 82.9097
7.92421 3.18822 2.05114
0.830793 6.67512 27.2779
50.2012 58.7394 68.2976
8.13419 9.7885 14.3416
10.0308 22.2576 38.7339
20.1598 28.0614 28.3927
9.00568 5.96323 3.70476
1.36634 6.68967 24.1632
30.7311 45.498 64.7737
70.213 126.411 163.642
2.6718 11.6732 45.7432
9.95125 0.576393 13.8608
12.2295 8.87074 27.1605
44.4578 52.912 53.0384
5.32982 17.9067 37.0352
15.3396 14.4736 6.73176
23.7698 27.7438 30.5264
6.14201 21.7081 51.1835
24.8979 32.3766 42.5251
2.12919 12.3414 36.7693
29.099 44.7886 41.8036
5.64958 8.42418 7.12696
3.67948 11.5875 35.2104
15.9102 17.7347 19.8571
8.8215 36.8662 109.057
66.859 89.2817 105.621
27.6355 42.6722 59.2761
26.35 35.1081 41.3261
5.7019 2.1529 1.99412
3.63522 13.973 29.394
4.5896 3.45012 2.58393
16.8751 14.2327 5.60356
28.0268 79.7188 147.842
12.5051 0.188747 18.6091
16.9786 18.4201 6.9218
4.82728 11.7921 23.9465
8.65551 14.0961 9.89971
1.46992 2.6424 9.47544
26.7926 56.3173 113.843
14.4216 4.98027 0.946482
36.8241 60.0746 78.8586
23.439 35.252 53.1705
1.67819 2.25231 33.3064
41.2859 86.2519 131.635
12.9411 2.07046 6.75345
50.8158 106.452 164.95
13.2734 8.81956 3.93094
1.51837 5.64061 18.8384
14.5112 16.895 31.5071
3.43624 0.330188 7.5415
15.5345 29.1888 32.9832
12.1894 33.4988 50.1192
3.92523 2.39155 9.18882
4.19306 1.93172 2.11693
0.113908 5.502 28.3761
8.28588 4.89558 2.17317
25.9751 32.4365 20.2397
22.9735 62.4671 95.2971
5.69916 6.32061 28.4051
16.2133 31.8321 49.5543
1.77668 2.79483 30.0751
19.6153 38.1509 55.1889
9.87507 20.5867 42.521
25.3062 59.2985 69.4928
10.2368 41.1938 126.738
22.0359 7.37563 53.0496
61.5382 84.9608 42.4008
26.6473 70.1303 140.062
9.02513 4.99253 2.11907
0.4136 3.85029 17.1136
7.03943 16.6843 18.5856
1.40696 3.16828 2.80055
13.6367 33.9777 53.8765
3.91153 2.03642 8.0577
1.5981 2.28667 3.1634
5.27703 21.5148 74.2999
40.787 48.044 43.3433
4.60597 12.0918 28.1337
5.46112 2.00299 5.67682
0.070658 0.839476 16.2262
30.536 44.3085 72.6192
13.9349 11.6982 10.3731
0.768682 9.42862 28.3107
5.87974 11.9976 10.2622
1.84791 2.95927 3.41009
0.997342 1.62355 13.8928
8.45588 27.6615 77.3237
36.2894 48.491 26.0555
8.26262 23.2363 45.299
50.7423 134.287 253.798
22.8366 15.7164 56.9056
25.1614 39.8865 38.4501
1.84865 7.89159 11.624
2.01811 25.5591 72.0257
2.35133 0.0119503 5.57761
1.52672 0.434115 7.69611
3.00658 1.92479 3.19152
0.326382 7.83117 23.5034
5.17668 2.96968 9.7194
25.2775 69.6513 147.147
1.57242 40.6745 240.169
71.0451 56.8828 16.4191
11.4583 4.71998 10.3369
60.8554 98.2837 92.2974
5.3247 27.0884 54.8916
1.77792 1.64179 2.91169
17.651 44.1492 69.051
1.64715 2.97441 41.7918
21.0377 37.7926 40.7482
0.36257 2.55391 3.99038
1.00911 15.6811 43.8217
0.718465 16.3131 97.769
34.6895 32.0844 10.7588
7.26685 15.4108 47.3074
32.2566 56.8365 98.8581
11.4193 5.5888 21.8824
16.0221 23.1663 15.9084
0.355885 7.53971 19.2655
8.60212 5.51626 5.85912
7.04958 8.82495 0.497604
18.1542 38.1735 62.8613
4.68011 10.1496 7.46472
7.31281 28.8357 69.1599
3.56843 19.8991 78.5373
21.0173 30.6076 30.3994
1.4432 0.711225 0.442747
0.36883 1.90346 16.8443
13.6445 50.5478 105.938
10.2416 10.8463 9.0636
2.28695 0.635372 0.587501
1.47481 4.80606 19.4017
8.40418 19.419 42.2768
8.9391 11.7853 9.80537
3.54487 19.1006 77.7599
29.2735 56.6535 92.235
5.20657 1.23653 10.1401
29.0067 69.2102 99.9755
5.76891 13.4431 44.9866
5.21658 4.90086 1.48362
6.59868 35.0997 84.463
1.35153 9.39345 61.9798
19.1645 26.0496 59.5148
23.0119 36.6203 112.293
38.1923 54.9033 56.6896
19.0481 23.227 16.6068
5.6723 30.4679 70.2522
2.77622 2.13339 3.75921
0.284722 1.08768 5.55677
29.2447 91.0568 194.343
7.3898 6.25793 37.1631
8.00132 2.67899 17.9874
12.0617 18.2293 46.5404
13.1076 24.9272 78.1856
27.6577 47.5883 43.7703
2.78098 7.79724 17.2249
1.66027 0.27069 9.66057
15.0908 52.815 94.4159
2.85487 0.289411 3.60819
1.43386 0.568416 5.56691
3.66155 16.0707 32.3668
10.6602 56.7085 171.518
28.402 30.5768 20.6116
0.754484 17.0373 79.8144
21.152 47.9183 72.907
3.07737 5.37656 1.45489
10.4249 34.57 99.1786
23.6729 46.2562 84.2195
5.80024 15.367 30.5158
0.123005 8.34299 61.3067
16.302 13.5001 33.8676
25.8495 58.1372 73.0301
1.53776 1.37437 32.9497
24.9339 70.219 110.387
3.69363 2.56609 1.36965
2.71718 6.60348 9.80939
2.3923 14.6262 44.8426
1.65797 3.27374 24.1794
3.32601 3.22467 73.0319
36.0609 84.8222 120.442
2.35176 8.67163 29.046
11.1866 33.6401 46.7127
8.46171 28.3678 71.2652
1.70474 4.96469 48.6961
8.37731 11.7704 50.6381
7.5623 6.53368 45.2079
18.3959 16.3833 0.993876
15.175 39.2761 55.3066
28.6423 94.8418 214.744
20.2557 15.2862 8.57993
2.21613 3.07176 12.5509
7.45351 11.1252 27.3425
20.4593 67.7429 132.949
11.0553 11.7641 56.377
15.3588 31.4619 117.857
36.5713 30.7728 3.87458
5.61655 9.30845 27.9819
51.3647 125.411 190.745
18.3399 49.6005 111.433
2.90597 3.70442 33.5602
9.59285 25.8933 53.0639
6.77447 10.1917 16.7481
2.09919 1.94543 14.4152
12.297 26.543 33.3288
0.371288 12.0548 30.0991
4.2293 14.7184 44.9185
1.00745 3.27906 35.0246
8.46652 18.3032 26.6228
0.572211 6.73366 30.9935
3.9964 9.88228 14.3186
1.56981 13.8375 72.8788
6.84462 6.09923 27.1898
25.6063 52.0257 102.25
7.55275 3.97989 15.24
9.66578 25.3078 34.5236
2.13787 9.08945 53.9763
13.1373 37.2641 62.2227
4.133 11.0708 35.6344
11.6946 25.2465 29.2001
1.84435 15.1451 22.6653
1.59794 24.5782 122.409
27.2058 76.8028 242.654
39.612 29.6354 4.26906
4.16318 12.1094 13.5435
1.65386 0.585141 4.52137
5.72478 22.1078 57.3498
4.08535 4.01496 1.7993
13.4471 35.8699 59.819
0.571168 9.10907 43.4337
16.0815 35 92.0023
9.62818 3.55377 0.496193
0.796825 2.34486 4.72644
