# pn-170911/RbIIR-57-USNO-1280-1959.psd
# Power spectrum* (dif=0,1,2) (really just |FT|^2)
# NOTE: only the first half! (symmetric)
# weeks: 1280-1959
# 6 clock-days, 0 excluded
# PSD: 1441
225.805 0.0510269 0.0206092
18296.3 0.382937 0.0101372
85166.8 1.4348 0.0195235
6497.1 0.39969 0.0197619
13286.1 1.17253 0.0179332
3402.95 0.296821 0.031981
2640.45 0.414568 0.00789291
1546.3 0.208923 0.0226786
3616.35 0.941878 0.0173155
2146.18 0.437718 0.0200886
1622.62 0.761901 0.0225233
685.175 0.244274 0.0108668
1308.41 0.857606 0.0240732
541.195 0.444006 0.0227328
556.728 0.631554 0.0208946
429.803 0.253111 0.0151475
609.007 0.583291 0.0164201
386.378 0.631517 0.0245236
150.228 0.295878 0.0234684
93.4628 0.28926 0.0150506
315.653 0.625147 0.0116819
641.418 1.10541 0.0305246
222.396 0.605242 0.0180565
215.074 0.709328 0.0199052
146.059 0.590583 0.0129829
317.914 0.842866 0.0188775
442.708 1.17905 0.0228455
244.094 1.07046 0.0124607
177.305 0.545278 0.0232977
158.894 0.833225 0.0134133
131.574 0.514608 0.0245002
161.615 0.813704 0.0183662
362.643 1.73406 0.0103298
288.017 1.13959 0.0384207
342.242 1.75686 0.0212078
198.117 1.1015 0.0260787
292.852 1.19781 0.034637
204.83 1.11498 0.0259453
233.549 1.61539 0.0376292
226.17 1.60169 0.0484393
147.179 1.05866 0.0285609
178.825 1.41572 0.024797
115.975 0.886265 0.0304364
326.975 3.03599 0.0499206
197.98 2.02275 0.0326169
82.8561 0.773189 0.0129427
212.859 1.95548 0.00790651
188.797 2.40201 0.0450459
191.881 1.68278 0.0340155
155.27 1.30702 0.0452063
224.38 2.42743 0.0335978
141.858 1.89274 0.0325185
291.192 3.37404 0.0468976
310.769 3.85528 0.0617037
199.923 2.83654 0.0715742
232.089 3.13811 0.0569922
191.48 3.00869 0.0576807
213.483 2.6484 0.0700845
111.126 1.67285 0.0499999
170.473 3.0241 0.0903212
184.821 2.87648 0.0777277
174.659 2.38149 0.103999
121.04 2.20497 0.0610538
151.555 2.91215 0.0686206
153.165 2.85188 0.0778446
280.591 4.72505 0.124592
188.548 3.12232 0.109684
133.822 2.88414 0.0630344
148.867 3.17932 0.121162
241.818 4.91473 0.203964
198.564 5.16407 0.128696
258.641 5.33184 0.207156
75.9327 1.67126 0.0325447
55.1765 1.75805 0.0669233
42.0229 1.3913 0.0577106
123.426 3.64254 0.134432
331.078 8.75554 0.285001
172.601 4.77111 0.167988
252.431 7.38149 0.233482
164.258 5.42168 0.165293
72.7683 1.97825 0.0717525
119.964 3.99491 0.119811
32.9724 1.04156 0.0840147
114.66 3.13763 0.106897
136.731 4.2495 0.153933
107.007 3.82535 0.126043
281.74 9.61732 0.351981
97.923 4.17627 0.15304
152.805 5.20389 0.237199
156.185 6.21421 0.197865
129.378 4.41724 0.146511
132.483 4.14599 0.235436
106.514 4.36591 0.160819
186.713 7.68784 0.344662
215.555 9.67625 0.523183
85.8279 3.0703 0.152993
194.286 8.31952 0.400106
128.457 6.26699 0.272731
105.92 5.04084 0.227623
91.4684 4.28073 0.259847
84.84 3.64746 0.218964
183.425 8.51546 0.41042
115.372 5.71585 0.323923
150.408 7.58271 0.440763
151.692 8.43959 0.536482
117.391 5.91702 0.31096
194.165 9.9655 0.597752
106.408 5.3743 0.237774
115.973 5.90185 0.331242
105.68 4.98522 0.335702
116.683 6.39525 0.448548
56.473 4.04625 0.221556
168.294 10.1819 0.661968
140.696 8.85654 0.459884
121.209 7.11701 0.401431
97.935 6.18727 0.462465
188.64 11.1345 0.749212
71.5396 4.15714 0.29312
161.172 11.9222 0.738281
128.526 7.50788 0.471709
167.225 11.5198 0.709937
97.5486 7.20561 0.383783
141.665 10.2739 0.763468
128.666 8.88637 0.696738
102.304 7.86541 0.522357
75.466 4.84954 0.35934
141.599 11.5053 0.831176
193.226 15.2616 1.09475
99.9105 6.99135 0.558661
39.1457 4.05954 0.349776
97.644 8.45941 0.610394
52.309 3.35681 0.267237
151.376 12.4192 1.06276
63.7273 6.30423 0.59333
142.748 12.2777 1.18519
66.95 4.32548 0.279914
47.8913 4.56748 0.412735
81.1084 6.85267 0.600753
137.762 11.5536 0.886149
97.8519 9.22604 0.861677
139.269 13.4984 1.34073
243.067 22.0593 1.72189
121.156 14.0436 1.4766
122.983 12.0818 1.24924
171.997 14.7561 1.35278
70.6175 7.07281 0.688592
106.395 11.0229 1.22906
112.792 12.086 1.14614
56.367 4.34602 0.481045
54.5309 5.83155 0.627495
108.962 13.2237 1.51226
156.51 14.0082 1.27806
99.1801 9.99957 1.15033
112.72 12.4739 1.35039
70.1848 7.97692 0.887737
103.624 11.4173 1.37732
64.5223 8.32962 1.00243
109.144 11.4683 1.19135
70.7363 7.21723 0.911701
78.8291 7.70319 0.818311
142.697 16.9362 1.75829
219.77 27.7337 3.55002
40.728 5.51714 0.736907
88.3404 12.3071 1.68312
180.507 21.1564 2.34659
94.6159 10.724 1.53014
34.0837 4.13898 0.495431
85.301 11.3538 1.45273
71.0222 8.47812 1.32338
44.2706 6.09461 0.929424
46.3074 6.4185 0.768734
86.1383 12.1664 1.81679
67.8458 12.1817 1.87489
42.1507 5.72764 1.06129
44.2704 6.47088 0.93256
209.738 27.0094 3.53766
73.2774 9.78758 1.3886
126.359 16.6579 2.59614
162.851 25.1697 3.65694
117.662 18.5257 2.47522
34.9446 4.58977 0.757987
83.7482 12.2708 1.74318
88.7751 15.8203 2.47149
147.201 22.3795 3.6627
206.416 31.8077 5.31264
105.597 17.705 3.08597
112.132 17.7831 2.60772
66.0827 10.2044 1.58437
79.6612 12.6843 2.33867
77.3742 13.6246 2.41173
61.4205 10.5308 1.96952
71.1191 13.8213 2.6231
117.126 19.636 3.40354
52.1338 8.87652 1.77566
113.989 16.3615 2.55043
125.269 24.8603 4.88576
56.7977 8.10249 1.37822
71.1313 12.4296 2.26565
77.7503 10.4018 1.69474
78.127 14.6913 2.82567
95.4453 16.9761 3.50411
161.775 30.1141 5.58884
65.9475 14.0392 3.28396
137.899 22.4687 3.63143
52.1203 11.3283 2.29571
52.9261 10.0316 2.29721
81.868 15.0184 2.84409
110.037 21.5464 4.23414
75.8347 17.5832 4.02492
66.5051 14.8139 3.02316
47.0969 9.78804 1.72071
29.7686 6.7284 1.44062
116.308 24.8358 5.14362
54.3372 8.49205 1.67638
101.748 22.3961 5.21529
74.614 16.858 3.8215
142.956 30.2594 5.80447
47.7503 15.4454 3.88069
69.6375 15.1697 3.36211
82.4915 18.859 4.34518
46.3973 9.92269 2.23288
88.2555 19.0996 4.15736
81.0368 17.8611 4.54312
82.9018 19.4382 4.55408
66.7978 16.1614 4.0608
50.0754 10.7874 2.50558
65.7223 16.4721 3.98311
75.4141 19.969 4.96242
32.052 7.43222 1.79844
114.015 26.2623 6.08433
53.0942 13.4354 3.42828
23.1284 6.53396 2.10188
96.7375 23.447 5.71337
98.9189 22.5527 5.70645
43.4851 10.1219 2.48615
114.778 27.1822 7.07158
90.3799 22.4754 5.14659
87.0505 25.7028 7.67787
99.5043 23.3778 5.70325
64.9916 16.7196 4.33089
72.0413 21.4097 5.80639
57.6905 15.2276 4.06331
59.5369 14.1743 3.87306
83.6448 21.8305 6.2358
60.1208 15.1023 3.79016
23.7034 5.62797 1.59988
50.6066 13.9488 4.00275
35.9011 11.1118 3.12716
39.35 9.68048 3.03156
37.1922 12.5709 3.98958
51.3913 14.4395 3.63471
64.3144 18.3891 5.28815
80.8463 24.7508 7.09031
43.0706 11.8143 3.58679
45.1028 12.635 3.56447
64.001 22.017 6.73601
62.2782 19.2795 5.95045
56.214 19.6054 6.30694
56.7998 17.2109 5.37937
36.7351 10.3695 3.16953
43.9474 14.6988 5.14479
26.2659 8.48148 2.88966
59.1089 16.1334 4.42844
28.974 9.53715 3.13329
47.6797 14.8905 5.0352
82.9928 27.6131 9.10348
46.8061 19.6267 8.25033
63.0719 17.2985 5.09288
76.5297 28.0099 9.19597
42.3404 12.2012 4.03788
57.7351 17.5956 5.7878
41.4114 17.6803 7.15961
40.3764 11.3698 3.02221
44.396 14.9478 4.55929
54.502 17.4726 5.5434
40.6906 14.7734 5.54137
86.6011 28.6642 9.57804
33.2842 12.3295 5.0144
35.0663 11.8703 3.87734
39.8092 15.1834 5.5342
62.0451 21.533 7.95091
50.5916 21.7124 8.30698
48.5541 15.8494 6.10048
64.373 20.7579 7.0959
42.8326 15.3248 5.22621
112.937 43.4095 16.5467
37.119 18.3479 9.29938
65.7735 23.1611 8.75604
80.0294 31.8321 11.7806
44.2544 15.9404 5.74642
39.2348 16.2475 6.25868
39.5028 17.2876 7.67577
42.377 14.8715 5.64841
19.642 8.26575 3.36808
32.3473 11.2059 4.78882
86.2335 33.9116 13.9878
65.6706 23.829 8.61902
26.7876 10.0169 4.20338
34.4888 15.9238 7.40027
68.6576 26.3389 8.97638
36.1938 18.0122 8.03185
76.1659 32.6946 14.9062
58.0053 20.3055 7.06224
50.5415 20.0358 7.58334
34.2454 14.8801 6.08757
21.3671 11.3287 5.75644
56.117 20.1883 7.18808
40.8162 21.7355 11.0356
58.0714 26.183 11.4637
24.0087 11.5108 6.0317
76.7522 31.2382 12.6548
35.9242 19.165 10.57
44.8277 17.2402 6.56753
17.2603 9.15127 5.27786
60.3651 20.7887 7.22586
55.5765 24.4272 9.71834
26.1494 14.2995 8.15451
67.683 30.8157 13.4985
36.4138 18.8141 9.31267
40.9707 18.8291 8.44341
55.0486 22.4176 9.69194
43.6857 20.7146 8.24133
40.3847 25.1759 13.1594
20.7432 12.6503 8.38996
38.98 15.2681 6.42146
36.4772 15.087 6.9684
22.8096 11.276 6.28414
35.5653 17.9318 8.39831
24.0255 11.2436 5.34677
25.1257 15.3359 9.61295
68.8754 37.8737 19.6897
42.4071 20.572 10.4119
22.8129 11.5797 6.59887
42.2886 19.8882 9.37867
33.1136 15.6203 7.23349
62.3513 31.7633 15.9109
40.1012 19.9829 9.71658
19.3848 9.72125 6.23261
44.537 20.9839 8.93928
31.9304 21.9863 12.897
45.3317 23.0528 12.1531
23.3994 11.286 5.34437
38.8779 25.4589 15.7999
16.4253 7.91972 5.02051
17.0937 8.06099 5.1704
65.8182 31.1763 15.3732
67.1001 38.1889 19.7119
52.2814 23.5218 9.99117
32.5204 20.6406 11.8266
29.1644 15.6588 8.40166
24.4827 16.0092 10.4638
34.6464 24.9179 19.5659
46.6945 17.7135 6.21935
32.2612 17.7401 9.28912
58.0568 33.4523 17.4933
27.2815 16.3912 8.89317
17.2202 11.5051 8.08532
16.3462 9.35146 6.05219
31.6946 19.2784 11.1595
52.5404 31.2173 18.0295
21.2613 16.0559 12.0372
17.6222 8.65778 5.89484
28.7864 15.042 8.66611
29.6434 16.2554 8.90382
41.1745 21.9179 11.7081
26.6173 19.0001 13.4523
49.9753 27.0633 14.5092
37.97 22.9146 13.5871
29.6798 20.3901 14.3616
44.6869 27.1358 15.678
39.5306 24.5001 14.8735
26.0145 14.7234 9.14652
44.6643 26.0146 15.2987
26.2403 16.6543 10.2936
50.4763 30.69 18.3104
45.9737 28.9932 16.3763
9.50661 6.6265 5.22951
40.1964 27.6616 16.2604
22.4587 19.2723 15.0117
18.1979 10.7581 7.7404
17.0065 9.85889 6.27709
37.05 22.8234 13.006
34.9709 31.639 24.7472
21.0641 9.60987 5.72774
16.2775 7.92468 3.93609
44.9442 35.9606 27.5242
42.0047 22.2948 12.3759
13.6776 8.42331 5.19695
33.966 26.7503 19.9226
29.6783 16.5699 11.506
19.1311 12.4647 8.99659
46.2418 27.2034 14.2205
21.2126 16.2146 11.0643
27.3074 19.7029 12.4428
40.576 31.3252 22.0649
17.2264 9.92833 6.77243
17.8386 14.3177 11.7031
26.876 16.9696 10.9336
23.2732 20.1358 16.2967
17.4927 19.4309 21.2318
63.2199 33.8827 17.7049
18.0989 11.4914 7.18042
27.2691 19.6414 13.0879
27.4545 20.9522 15.9571
36.9807 22.6685 13.4119
37.2559 29.699 21.1308
15.6727 14.1621 13.8536
42.0123 25.8692 16.4018
15.3184 11.1977 7.489
27.2328 28.657 25.9965
36.4336 21.7949 13.4302
26.2523 22.7872 18.8693
25.702 18.182 12.4472
17.7857 11.8563 8.50841
24.0815 22.0967 20.4187
42.8468 27.8023 17.673
56.7632 50.486 37.8899
25.9172 17.5497 14.3156
21.9078 16.133 11.324
16.4902 14.3568 12.9906
24.461 21.3142 19.8803
27.8637 18.4261 12.9925
23.0449 20.6228 17.0255
26.5182 19.1086 14.1472
41.1309 36.7608 29.3704
15.6748 11.9705 11.2499
24.0928 16.1727 11.125
13.2995 9.19556 6.72135
26.3406 20.4729 15.0693
15.5569 13.7221 10.7483
12.1674 16.1783 18.335
23.3253 14.0195 9.68374
27.1547 22.7826 17.4883
11.8824 11.131 10.7494
34.1099 33.8591 33.4713
27.6834 18.6575 16.018
25.9095 17.7321 12.4883
28.4158 27.0435 26.1084
39.5124 27.5349 18.4351
28.0592 29.6181 29.8438
23.1931 10.346 4.42147
12.5611 8.72985 5.35027
25.3631 25.005 21.1758
27.5937 26.1522 25.8059
27.0933 20.2947 16.3521
16.2567 14.3624 13.2368
20.8181 15.5519 10.3838
15.3203 13.1455 12.8492
24.3591 17.1607 10.5589
16.4887 16.6282 15.4967
30.8896 29.037 28.5558
38.1428 28.3817 20.4839
20.2609 18.9675 17.3878
31.7576 29.4778 24.0309
22.7468 27.5054 29.2968
33.0327 30.4543 28.9364
19.9569 20.4278 22.1002
31.4587 28.0098 27.1347
22.7503 15.7567 11.7202
13.2731 12.6871 13.0643
19.6354 17.7053 16.468
17.8996 13.5917 11.6483
31.5243 30.7054 27.2599
27.7151 27.9956 28.9934
24.8379 25.0536 27.8325
30.3548 24.1177 15.3188
4.56679 5.267 7.28069
17.1791 19.6875 20.3852
17.7299 12.8409 10.0034
21.8162 23.2165 20.8676
10.595 10.5739 11.5953
18.6632 19.1853 18.0688
10.2211 9.41499 10.115
13.9864 15.5058 16.7274
27.1152 28.5368 32.4961
35.115 30.0742 24.0938
18.0191 18.7504 19.7517
35.0161 37.559 34.6257
15.5475 16.2171 19.2778
27.8413 29.3127 35.8817
61.3933 56.9707 46.8169
14.8471 14.0132 14.0957
17.0098 18.5606 19.1613
29.8042 36.5673 39.5539
26.7395 21.7979 18.488
19.2171 20.5562 22.9349
38.465 39.7676 36.9512
15.8758 16.3766 16.3248
11.416 13.6717 16.8488
7.38374 6.58193 7.74378
18.9994 20.7781 24.6817
23.3003 23.9249 25.8419
17.0172 17.3811 20.3204
17.19 13.6467 12.4891
29.0321 30.3415 30.8775
13.061 9.53232 7.90864
12.5614 13.647 12.8728
16.9727 19.7111 19.936
5.76857 8.89098 15.5295
22.0602 19.7111 17.6971
6.47076 4.65726 4.09696
18.2396 20.4253 19.093
12.721 19.0098 23.9569
14.2251 11.6875 11.3774
16.732 22.6034 26.5668
14.3583 12.8656 10.9953
16.6686 20.9064 25.7487
22.4334 26.4584 29.0261
15.4884 16.8269 18.3436
14.8528 15.0708 14.4343
18.1149 22.0324 25.6871
17.9246 24.94 31.3295
16.347 17.2008 26.7597
19.782 14.5302 9.91537
25.6084 29.7274 30.6744
20.3712 21.0083 19.8606
15.1972 22.345 31.3262
26.152 29.9293 30.9577
7.03338 8.05984 12.1352
14.3076 15.0372 17.7874
9.3025 9.7583 12.8904
26.5122 34.2838 37.3551
7.92425 12.4912 22.9842
12.8539 15.213 25.0694
22.1719 20.0788 18.8221
20.9365 22.475 22.9189
11.5616 16.9263 23.1695
12.761 13.1618 17.5995
26.1499 33.0588 36.8422
8.43357 6.4 8.46949
24.0651 27.0077 25.869
17.6217 22.3743 28.3019
18.896 22.4351 28.7012
19.7367 21.2167 25.9534
22.548 22.9417 18.1416
11.3412 17.6319 22.5249
9.4863 12.2568 15.6873
16.5675 21.4018 27.3162
22.4236 24.0039 22.0499
18.2159 26.5435 29.9465
8.05295 12.4124 19.2589
14.5081 25.5418 41.5927
21.7071 20.3808 22.8239
4.75884 6.57692 18.6334
22.138 17.3091 13.8451
17.0019 20.0986 18.1174
7.33213 12.1321 17.1897
11.4786 13.4324 18.08
15.4113 20.5319 29.265
11.7537 11.7691 19.0745
21.1164 21.9728 16.1305
17.5095 26.3038 35.3717
16.2584 18.035 18.863
16.3895 23.8512 28.9434
7.72839 8.93371 10.6459
7.36984 14.8722 24.7487
15.9734 21.1538 27.1688
10.9215 13.6992 16.9883
8.35063 9.79123 10.7648
18.2718 31.3438 45.8928
17.7824 21.9175 29.228
20.9574 34.2823 53.7338
24.3974 21.9089 24.4499
11.3462 12.7693 20.0112
22.7351 25.0836 26.114
12.289 15.4061 17.5686
14.8159 25.0018 35.1767
11.1651 14.0952 17.3229
10.0368 16.7749 23.6303
15.7802 25.5032 38.0213
10.1543 12.7837 22.9815
19.2775 27.8769 44.3856
17.9727 19.2966 23.305
12.2736 16.1392 25.6479
19.1125 18.7443 15.4249
14.9113 23.6232 34.7197
30.7353 49.3553 61.3181
8.35239 6.51441 6.84755
11.5807 23.3725 38.5225
12.9386 12.8908 15.9874
10.9948 16.1891 20.251
5.30752 6.93209 14.5512
20.1344 28.8091 34.6596
7.78567 11.6269 16.9471
15.088 31.2673 59.4079
17.7347 17.7248 33.8301
21.9157 22.0356 26.3735
33.0333 45.0502 75.202
123.692 187.055 232.243
91.9714 174.455 284.396
49.3512 36.6993 40.0583
34.4609 44.8252 55.3552
7.4983 7.8337 12.8236
6.75542 15.2348 34.857
18.3967 15.6687 14.6002
11.2134 17.8217 28.1176
16.0631 19.3458 21.0828
6.84994 13.8713 28.1278
11.339 8.83344 6.35161
9.70337 15.0739 22.8097
18.2698 26.4194 31.3679
7.05268 13.9429 22.7197
5.82062 6.30529 9.92349
10.6983 18.3294 27.6301
5.91053 7.1111 12.2358
9.962 13.4325 16.3705
9.11863 14.5945 26.6209
15.9543 22.3337 29.0991
12.6393 18.5588 26.9939
16.2833 26.0155 38.5658
11.0809 19.4898 31.7688
5.01263 6.24361 12.5585
10.863 15.3126 21.6286
11.1845 19.9979 31.4312
8.96507 11.5158 16.2228
9.65349 19.3164 41.4227
22.4106 30.5005 35.8618
6.44185 9.19734 16.3158
14.7558 27.7455 47.0841
10.1057 10.8235 17.8571
18.2456 29.7481 41.5084
8.3176 12.1358 17.3291
11.0851 24.5222 44.6892
7.26503 11.2668 24.6768
12.9371 17.7845 21.0784
4.00145 8.86797 28.9527
33.3102 52.3127 70.1819
8.12672 8.8373 18.4016
12.8111 13.6467 15.5493
9.55759 19.5632 33.2717
11.3596 17.9562 28.6349
4.92718 10.2282 25.3834
9.53591 8.39161 9.4647
3.045 3.85195 5.86564
5.92751 10.3066 19.2144
10.643 23.3888 40.5056
10.8418 15.0909 21.3195
5.75095 9.07656 18.059
9.15915 23.3122 52.2339
14.6824 16.9566 28.0977
7.94903 11.8109 23.6711
9.63629 9.87014 13.6152
14.1269 21.5268 30.7393
15.9204 20.4029 16.7183
5.87296 14.1899 27.6207
8.21963 11.5248 23.1949
21.8546 40.7754 54.0281
6.55271 11.8842 21.1895
8.16483 18.5592 38.016
9.24585 16.3425 29.7525
9.31104 14.1712 22.3435
6.69271 11.2075 21.254
5.34609 11.1175 31.3783
14.341 20.1629 28.7225
11.6651 16.2582 17.4688
12.1861 28.6689 51.0188
11.1522 17.4555 31.4529
13.1969 19.6841 26.815
4.30234 17.647 52.4066
18.2225 18.9432 19.5989
9.03959 14.0589 20.4897
4.45912 7.48672 13.6022
5.77168 11.4708 28.6825
18.504 30.9134 42.985
4.48369 9.06537 21.187
5.25787 10.3583 31.0502
16.6663 18.4538 14.2518
7.26825 19.1864 44.0976
20.7176 40.6558 73.2044
13.2693 11.3854 9.18259
10.0186 17.3074 20.2124
10.2607 22.441 37.919
11.0517 20.4616 34.7108
9.72414 20.3147 40.3354
14.0658 28.6222 49.8089
11.4049 18.181 30.0864
8.25457 14.6928 22.7923
4.55308 14.0378 35.3712
11.8863 16.4097 22.6845
9.4192 17.1632 25.2462
9.5084 27.5591 56.5372
6.59672 14.4983 41.0881
14.1766 18.4532 31.0268
10.7427 21.7925 39.8268
8.34018 10.8704 14.561
4.05042 14.7633 42.0349
11.6671 19.3353 31.6112
6.41009 14.5069 40.9448
9.65428 10.1976 21.6828
17.1585 28.7239 46.6793
13.8241 23.1503 33.1614
9.35118 18.6173 32.965
8.95785 18.9961 42.0482
10.1162 17.0383 34.351
11.0313 15.8402 22.3698
6.15449 16.0706 38.2044
7.67496 6.73772 9.3603
7.7148 14.4513 27.5272
11.8064 24.8345 41.8981
12.2666 28.3421 56.016
8.63485 13.2754 31.1594
8.2782 12.1841 20.8885
14.9741 35.1598 60.238
5.51681 11.2246 36.0387
15.3693 28.669 51.7815
13.4932 26.7937 50.4716
10.8931 21.5719 42.7285
10.8255 19.5403 35.7633
8.00174 16.1494 30.5926
5.67383 13.5724 36.0465
6.06512 6.38338 18.7655
11.5842 18.4234 27.3476
5.8737 9.75075 23.5556
9.60257 14.105 16.9494
7.1862 15.7016 21.4331
2.6713 7.47962 18.071
4.22721 10.8105 28.8932
10.4709 21.1483 46.9604
11.5656 16.5201 23.7892
6.67789 15.4082 35.9617
10.9048 17.8481 29.2387
6.02104 8.22685 11.0658
12.1637 38.1202 80.8138
15.7119 26.5827 40.3169
8.72834 19.5813 34.4633
6.84465 18.5844 45.166
9.80634 22.1046 41.4729
5.29174 11.8949 29.7602
5.70447 13.5753 42.2973
10.4999 20.0317 49.57
15.1282 23.3246 28.5987
4.86142 21.0046 67.3327
14.5659 17.5252 28.741
10.5403 17.4473 21.2584
3.69523 11.2026 24.3828
5.07487 10.994 20.6724
5.29833 13.0747 27.6918
6.87989 18.5518 48.911
10.1142 13.658 26.515
9.88111 20.8625 33.7826
6.12803 11.6937 24.7437
6.62319 16.4436 31.7227
2.97788 7.44381 23.0997
4.08835 7.85955 33.6174
13.7655 24.3778 40.4006
7.99154 15.6857 33.2
7.0853 12.8519 28.7252
12.578 33.5861 70.9829
9.86577 14.9582 36.4536
7.87297 10.2376 14.0933
3.70942 9.33833 28.2272
9.20433 16.7873 30.7697
5.53028 10.969 31.1546
9.90485 17.2898 27.1053
3.74072 4.99954 9.15861
6.9628 16.8319 37.6723
11.6169 25.555 43.8707
7.7512 12.5316 17.2672
5.01603 14.268 28.1499
4.32335 8.62422 16.4253
5.21383 15.3586 28.1902
3.36626 6.85162 16.1265
6.28837 22.4973 54.4251
8.74715 17.132 40.4786
8.58801 16.5113 25.8915
4.14779 12.1757 25.8724
4.77269 14.5172 38.126
6.49283 12.4636 26.2374
5.09825 12.9108 31.1851
5.70533 10.9981 26.1414
5.80791 12.2838 28.3718
7.46372 16.5883 41.5545
7.88166 14.2589 32.8276
6.84438 14.9781 34.303
7.87099 14.5665 23.4571
5.11877 14.0362 25.0842
3.12682 9.52749 22.4338
5.96381 20.7603 59.3005
7.56072 11.3786 23.4051
6.32935 13.3967 27.3548
4.54531 12.6504 39.4906
6.45948 6.60275 6.90663
2.80956 7.40492 19.3031
5.19908 9.83297 21.9578
4.97814 10.318 17.867
1.89701 6.11071 29.9032
10.6582 22.5986 32.6334
6.45477 26.6238 65.2476
7.23912 16.1334 56.9332
8.91041 10.1654 16.3462
9.59338 25.8959 47.871
5.13018 12.4201 38.9805
7.60986 13.637 23.5574
5.4283 12.3613 22.3808
3.30384 6.5313 14.6847
3.46524 11.2425 34.1272
7.15352 18.2169 49.2588
10.6486 18.0264 29.3142
6.95497 15.3095 21.3527
4.36675 17.2405 40.9359
5.96074 16.7007 52.8722
7.32263 12.8452 28.3247
7.78984 17.8043 27.9673
2.71432 10.5521 35.0582
6.21357 10.7642 24.0787
4.59302 11.1684 29.0165
5.91902 15.6555 46.8904
8.96607 19.9536 35.1823
3.51138 7.00498 17.6738
4.19086 13.7061 44.2048
8.42937 20.8008 50.9144
6.51899 8.96466 21.3863
8.75666 21.2683 37.9409
5.96681 19.7462 55.2147
8.1543 17.0136 33.8744
2.50209 2.71365 14.2683
5.438 12.5545 28.7558
6.35196 14.4238 21.1277
1.68491 6.97051 23.1873
5.91468 16.8544 39.4764
4.63087 12.6898 36.9376
6.05763 17.3721 48.0475
7.97514 15.1721 36.3353
5.5388 11.378 32.2201
7.58962 19.2271 38.3744
5.91957 14.3117 31.4122
