# pn-170911/RbIIA-37-RbII-1280-1959.psd
# Power spectrum* (dif=0,1,2) (really just |FT|^2)
# NOTE: only the first half! (symmetric)
# weeks: 1280-1959
# 277 clock-days, 56 excluded
# PSD: 1441
57211 1.04753 0.0172096
1.98983e+06 53.9229 0.0334401
2.45602e+06 36.9336 0.0374087
830596 17.2165 0.0305562
548859 17.2185 0.0382087
340516 10.9201 0.033083
245023 11.3219 0.0358568
171824 10.2318 0.0336228
138217 10.0957 0.0392676
112702 9.97151 0.0408635
76707.6 8.10921 0.0405575
89413 9.83283 0.0364219
53013.7 9.24339 0.0412741
56655.8 8.6177 0.0425236
42223.1 7.84748 0.0465826
45880.7 8.47937 0.0417887
33401.3 7.58189 0.0470136
33871.8 7.78647 0.0494005
31390.4 6.96153 0.0540294
25678.4 7.15504 0.0483536
15540.4 7.13672 0.0523165
29727.6 8.41118 0.0563091
21564.3 8.01258 0.0623741
15664.9 7.76882 0.0533768
14026.3 7.06486 0.0546885
13705.1 7.73513 0.0553865
10225 8.52901 0.0719066
12508.8 8.07282 0.0642046
10362.9 7.52269 0.0632307
9557.82 8.26917 0.0743007
8281.4 7.22504 0.0680412
8642.96 6.56344 0.0665385
8676.21 9.13727 0.0752568
6667.14 7.32762 0.0703959
8276.84 7.31668 0.0813423
7532.55 7.44137 0.0731084
5869.51 6.41002 0.0740917
6094.8 7.39344 0.0787873
5762.62 7.94277 0.0850946
5969.03 7.38827 0.0971221
4723.56 6.62448 0.087805
4525.33 8.28229 0.0916223
4986.7 8.15031 0.102019
4467.86 7.52645 0.120535
4178.4 8.53757 0.120504
3967.26 7.50924 0.105419
4229.34 7.23053 0.0986241
4578.04 8.16705 0.130966
3189.83 7.23688 0.124795
3698.45 7.26066 0.117383
3645.26 6.62512 0.118174
3473.61 6.47716 0.110116
2856.8 7.52629 0.137355
3054.12 7.56111 0.146436
2835.14 7.61274 0.132895
3066.05 6.21984 0.121218
2795.55 6.99738 0.157327
3231.93 6.96059 0.156852
2924.22 8.18218 0.167707
2796.62 7.4275 0.171778
2566.25 7.42699 0.157707
2744.35 7.12825 0.161356
2617.28 6.27845 0.154557
2533.43 7.24296 0.18222
2436.59 7.6183 0.210167
2445.72 7.91038 0.21009
2003.15 7.47392 0.23221
2484.49 8.27571 0.229769
2038.69 7.74922 0.241423
1959.51 7.26583 0.20957
1811.28 7.07036 0.228685
1903.59 7.80275 0.249845
1805.86 7.10678 0.249901
1520.86 7.66143 0.272976
1701.57 7.40033 0.241555
1859.67 7.73084 0.262306
1753.59 7.38226 0.244026
1616.78 7.12399 0.266442
1436.73 7.6146 0.273199
1340.43 8.26305 0.326342
1421.85 7.24222 0.292778
1196.33 7.69151 0.28155
1125.66 7.47835 0.323808
1172.38 7.5569 0.336283
1181.34 7.44397 0.300863
1353.45 7.96321 0.30181
926.177 7.51294 0.309552
1103.34 7.87955 0.374682
1165.18 7.23687 0.30772
1092.95 7.09158 0.32366
881.493 6.69511 0.294531
1224.22 6.65003 0.333986
1066.95 7.45178 0.336163
941.408 6.64906 0.318368
1106.96 7.14328 0.367591
1084.95 7.66243 0.408183
865.674 7.15439 0.353176
1113.88 7.93671 0.388979
981.965 8.00592 0.427132
808.316 7.93889 0.447478
846.798 6.77882 0.37028
1160.24 6.83533 0.410548
942.26 6.83617 0.383023
957.623 7.01344 0.37718
973.463 7.95541 0.453831
958.352 7.43378 0.428961
633.464 6.94246 0.397239
951.692 7.4574 0.434267
735.278 7.79106 0.456646
714.886 7.26132 0.454451
664.119 8.39366 0.547536
856.117 7.85944 0.488782
766.753 7.01995 0.463313
562.067 7.65174 0.538613
666.262 7.2879 0.483889
832.943 6.82472 0.463165
488.985 8.34217 0.563542
535.181 7.33457 0.513509
632.801 8.11057 0.55603
571.207 6.96435 0.486914
601.676 7.09224 0.506678
512.683 7.70389 0.560469
549.583 7.11627 0.531228
617.306 7.51767 0.571555
584.503 7.53741 0.576492
558.925 6.67955 0.525633
527.23 6.96892 0.534678
430.306 7.04121 0.574124
504.515 6.30708 0.526682
443.938 7.20342 0.612199
542.007 7.10802 0.641917
530.789 7.3315 0.639658
460.026 7.52502 0.708861
524.563 6.27756 0.562814
483.374 7.20246 0.629875
534.135 8.0356 0.718007
512.927 6.60868 0.657519
434.233 8.64124 0.802956
416.982 7.8807 0.708799
466.662 6.70032 0.646659
489.572 6.80383 0.682711
495.407 6.93781 0.696429
395.992 6.84805 0.715936
457.979 6.99197 0.724259
429.695 7.42352 0.820818
458.859 8.36637 0.885675
354.7 6.66546 0.718963
417.372 6.21655 0.711274
410.469 7.0713 0.776817
420.224 7.22836 0.829356
370.682 7.73825 0.841738
402.166 7.96087 0.912376
424.534 7.92536 0.890828
448.811 8.57455 0.978293
347.579 7.37608 0.860915
389.136 7.85875 0.88958
338.296 7.18909 0.836103
429.889 7.69026 0.909252
348.188 6.91733 0.832937
304.516 7.37977 0.976795
330.117 7.60907 0.975978
286.172 7.5331 0.968954
327.423 6.8167 0.853542
304.843 7.35209 0.943885
383.256 7.15395 0.932289
322.131 7.35823 0.963479
295.003 8.37681 1.05698
261.622 7.61713 1.03273
360.931 6.60237 0.900823
299.973 7.7368 1.02711
302.236 7.51745 1.02485
231.663 7.29115 1.0271
224.901 9.40592 1.30681
364.643 7.47079 1.05809
278.29 7.83104 1.1218
236.131 7.17873 1.0553
293.317 8.11255 1.22772
325.189 8.13343 1.23719
257.228 8.55689 1.31733
260.136 6.67491 1.05633
302.477 8.64216 1.34314
359.379 8.00717 1.32505
217.131 7.57408 1.19376
343.367 8.38109 1.33151
318.043 7.11931 1.16134
333.06 6.81174 1.14385
294.442 7.52577 1.22668
342.147 7.57354 1.30069
249.671 7.94976 1.33394
218.64 7.54949 1.30078
274.108 7.58065 1.30168
305.161 7.85125 1.31719
219.942 8.88686 1.53566
283.569 8.12292 1.38865
264.791 7.43208 1.3518
217.789 7.69004 1.32577
247.451 6.88803 1.26693
286.422 7.51877 1.38594
194.794 7.87483 1.44691
223.463 8.09857 1.4821
220.668 6.87978 1.24208
201.101 7.57365 1.47296
185.308 6.77368 1.33793
254.868 8.63975 1.75964
201.213 8.02673 1.5886
178.641 7.27847 1.43518
186.524 6.83768 1.42246
203.733 6.79065 1.34152
203.976 8.04816 1.67706
205.574 8.42987 1.75341
188.794 7.21115 1.47136
242.303 8.04537 1.60858
231.585 7.78178 1.64042
226.588 7.91595 1.70506
213.564 7.88353 1.68725
179.872 7.74931 1.71
217.625 6.96892 1.51322
209.06 6.9628 1.55403
185.818 7.42615 1.67382
200.048 7.53326 1.72096
184.025 6.3932 1.49002
221.153 7.10737 1.70955
191.354 7.53052 1.74513
216.171 7.73062 1.81899
216.138 7.31339 1.75621
205.999 7.78955 1.92381
219.32 7.39679 1.7775
199.823 7.34162 1.80926
189.523 7.34773 1.83785
200.688 8.94653 2.1873
183.429 7.12325 1.75444
177.856 7.61068 2.00703
186.61 7.98464 2.10453
190.253 7.65339 1.91133
156.645 5.99877 1.64856
173.563 6.99096 1.78202
148.576 7.25576 1.91964
179.661 7.51102 1.97517
184.839 7.88452 2.11369
187.344 7.30005 1.98886
154.107 7.25369 1.93831
184.201 7.88855 2.16649
158.846 7.05803 1.88269
158.932 8.03948 2.19967
143.25 7.4196 2.08118
154.461 7.57089 2.15517
168.273 8.41616 2.44134
128.763 6.87761 1.94269
144.632 8.72165 2.48686
174.822 7.37941 2.16225
150.056 7.31496 2.12649
149.976 8.19697 2.50207
138.758 8.28408 2.44019
145.267 8.02021 2.49047
158.077 7.51456 2.33387
115.933 6.64168 2.04025
149.725 6.09111 1.9515
154.557 8.4128 2.63955
141.07 7.56716 2.38197
123.766 7.40429 2.31059
141.902 7.83027 2.4409
141.534 7.52833 2.36494
111.596 7.12613 2.26552
134.51 8.35232 2.65517
136.292 7.55587 2.45988
125.51 6.94608 2.36581
164.01 6.97941 2.20491
180.049 6.39171 2.09825
107.817 8.1296 2.72306
150.654 7.40492 2.4982
154.961 7.54088 2.5931
138.957 7.98035 2.77435
127.165 6.78031 2.26847
136.59 7.03887 2.50362
125.415 7.16465 2.51355
145.746 6.38641 2.22579
107.876 7.54589 2.65749
142.301 7.06117 2.5673
106.821 7.23356 2.58593
122.6 7.16519 2.63537
116.674 7.019 2.61458
126.161 8.05801 2.97045
106.254 7.42737 2.77566
112.785 7.91774 2.98941
98.6543 7.62862 2.97221
77.8203 8.10985 3.05063
73.5092 6.79425 2.58736
132.165 8.05767 3.10097
84.2992 7.43118 2.91548
80.219 8.575 3.24456
98.7047 8.98748 3.61467
85.6844 7.23395 2.90806
94.4564 8.18184 3.18425
109.295 7.30842 2.81853
106.719 7.71411 3.06514
101.981 7.55525 2.90438
115.793 9.75034 4.2194
95.8504 7.72073 3.14802
101.98 7.5471 3.03058
126.099 7.92993 3.15307
90.6062 7.78826 3.36083
106.713 7.56349 3.08449
102.969 7.86778 3.23184
112.439 7.70709 3.21741
106.175 8.46449 3.58936
102.672 6.88289 2.95426
106.292 7.73576 3.35508
94.4213 7.57612 3.20145
83.6278 8.85285 3.70255
143.372 7.78774 3.39587
107.64 7.2318 3.29696
92.456 6.90218 3.05331
85.1325 7.04843 3.16101
96.3132 7.35612 3.35797
74.0421 8.03668 3.6351
97.7299 7.40994 3.31889
88.3156 7.88642 3.70327
84.7087 7.18453 3.43177
71.6543 6.99111 3.46202
96.2071 7.92153 3.67477
87.2318 7.23903 3.52876
86.7124 7.86348 3.83123
105.797 7.29376 3.42845
99.0457 7.2653 3.8612
90.9973 8.51493 4.00274
87.0484 7.29919 3.60767
92.6501 7.84109 3.80378
87.2486 8.30692 4.20731
79.8042 7.69528 3.84733
75.1578 8.11105 3.91048
84.5664 7.71153 3.9082
75.403 8.29268 4.16188
78.037 8.48173 4.0492
75.3166 7.60447 3.92455
74.3879 7.95295 4.08475
90.5654 7.60257 3.95225
65.298 7.20869 3.70903
72.3509 7.20866 3.60111
87.0824 8.0792 4.24956
95.3126 8.7065 4.65824
70.7382 7.22404 3.79969
74.5359 7.20727 3.92868
75.7302 8.13148 4.43539
86.0394 8.89761 4.69471
76.7895 6.40447 3.46317
94.4753 6.63557 3.52482
87.2995 6.50635 3.58557
81.8681 7.34047 4.01631
87.626 7.90939 4.49883
86.8242 6.59948 3.66488
85.6294 7.18847 4.10887
81.6084 7.00554 4.12492
76.8749 8.27931 4.4946
89.1415 7.68712 4.38218
74.2771 7.09836 4.03037
98.4694 8.78481 5.18017
76.6835 7.70509 4.51734
86.6305 7.4339 4.30572
79.0061 7.81373 4.57432
83.7604 8.15094 4.85784
79.878 8.59535 4.66053
66.2469 8.27397 4.98474
76.6909 7.67132 4.46762
83.6049 8.07819 5.01686
77.0435 8.64034 4.95736
66.0446 7.06427 4.14949
69.6305 8.32026 5.04019
75.1166 8.51567 5.13719
71.1145 7.00868 4.31362
64.1992 8.46812 5.11389
58.8452 6.73132 4.13816
64.0515 7.8413 5.16833
72.6131 7.85825 4.87593
78.4498 7.89162 4.92426
52.5246 7.48831 4.8997
74.0092 8.39311 5.27101
75.2133 8.70745 5.49643
68.1005 7.33952 4.71829
58.567 8.26446 5.15928
75.6835 7.86821 5.16407
66.3817 9.03496 5.50556
57.8165 6.97647 4.65602
73.9279 7.83775 5.07016
64.7023 7.2992 4.78488
57.4389 7.70131 5.26061
77.6935 8.12372 5.58067
70.7837 7.58138 4.63316
56.9431 6.60349 4.68724
66.8286 7.59116 5.13761
82.0126 7.53025 5.08436
66.1817 7.52542 5.40278
68.5723 7.99325 5.43993
67.7025 7.16985 4.91267
73.363 7.56977 5.23177
55.7366 8.82757 6.22879
71.0532 8.09459 5.72545
54.3699 7.25731 5.39378
61.4414 8.37597 5.96719
56.9957 7.85652 5.60951
70.5809 7.70034 5.52683
62.9911 7.22771 5.32403
50.9932 7.37711 5.53705
59.526 8.52355 6.20714
74.2055 8.34034 5.91526
47.5384 8.14836 6.01204
52.8952 7.26814 5.33644
63.5018 8.19589 5.90103
62.5755 7.47892 5.6821
56.9635 7.63759 5.86208
53.7571 7.5172 5.6294
58.8664 7.65704 5.79591
61.924 7.29737 5.53494
53.8691 8.31365 6.40395
64.9205 7.27889 5.7251
56.3244 7.3604 5.58546
49.6884 7.25037 5.77679
55.0483 7.52521 5.90378
54.6312 7.58584 5.85591
59.593 8.03291 6.08611
50.1394 7.31976 5.53543
50.3523 8.304 6.44838
56.3238 7.69108 6.11075
52.0098 7.7789 6.48244
53.7101 8.28422 6.39344
55.6107 6.92725 5.59454
45.0558 6.93437 5.63964
47.4153 8.04627 6.23904
54.3419 8.17311 6.61539
58.476 7.12144 5.9172
57.8477 6.63782 5.60926
46.563 7.84339 6.2818
53.2527 6.99829 5.76139
55.8191 8.81009 7.32862
57.3023 9.72033 7.67154
50.7983 8.1434 6.72642
53.6623 8.85717 7.55605
51.1718 6.57807 5.90331
49.0062 7.33651 6.27056
49.1972 6.96908 5.66844
54.4639 9.60382 8.3302
54.3021 7.27758 5.82003
61.5995 7.93302 7.22647
48.8335 8.42392 6.93171
53.8322 7.97619 6.78939
47.521 8.63935 7.61491
59.8857 7.77748 6.98062
48.0822 8.71376 7.42192
44.2738 7.50118 6.87481
46.8895 7.9886 6.66753
39.7131 7.33195 6.64586
46.4049 8.57656 7.42234
40.9563 7.70059 6.85447
58.3652 8.84556 8.1214
48.045 7.42778 6.72859
35.9729 7.77282 7.15817
43.1728 8.60894 7.89204
60.5329 8.35325 7.85805
43.6912 8.6424 7.62774
49.2005 8.41331 7.65888
39.2994 7.73415 6.8796
39.9949 9.59717 8.86265
52.5334 6.80798 6.26654
44.8889 7.83934 7.11593
37.9512 7.15348 6.8787
41.8952 7.45733 6.9638
50.3751 6.69778 6.21843
43.2972 7.08992 7.06622
44.3719 7.67175 7.27546
49.444 8.72488 7.826
56.12 7.87122 7.48257
36.7325 7.40957 7.1801
48.8985 8.20758 8.28089
47.0696 7.9761 7.51176
53.1092 8.13258 7.94783
46.7074 7.46008 7.12055
48.6966 7.73903 7.40352
40.5154 7.95688 7.35245
38.5414 9.30643 9.14232
46.278 7.66297 8.0561
48.3631 7.9751 7.99626
35.1083 7.40762 7.48698
48.7255 7.51168 7.46198
47.4411 7.39803 7.92358
34.089 7.90971 8.06966
46.8287 7.85573 7.92112
55.4612 8.21972 8.45244
38.8727 7.44144 7.51441
44.7704 8.25867 8.96926
41.9214 9.0579 8.80841
37.4746 7.36982 8.04532
39.1965 9.05674 9.18028
46.625 7.44257 7.82034
39.3975 7.85188 8.28742
37.1895 8.07435 8.29389
38.1419 7.46184 7.89176
40.9208 7.42077 7.92865
38.7194 7.0003 7.81695
39.0773 8.90228 9.206
39.9238 7.97702 8.52009
48.9234 7.7229 8.36505
42.7173 7.88948 8.70913
44.7612 8.17936 8.56328
39.0886 8.43698 9.36227
37.0709 9.25705 10.104
41.0035 7.49315 8.50768
40.0208 7.40468 7.77032
34.3794 7.69845 8.78563
37.6403 8.56975 8.99475
37.9346 7.49313 8.95261
43.9796 8.27519 8.53049
39.034 7.15114 8.36945
46.0343 8.35216 9.25659
41.4219 7.69778 8.42004
41.6857 8.70615 9.97211
49.0535 8.16576 9.60225
39.1756 9.02651 10.1421
39.3932 8.01477 9.52198
42.5611 7.5482 8.35069
32.9688 8.82463 10.2896
37.9951 6.81534 7.90777
37.6742 8.1583 9.29757
46.7469 8.30042 9.37122
33.761 8.12471 9.56132
39.0144 7.64522 9.0842
34.5805 8.29509 9.78029
38.9352 7.11844 8.36857
37.2295 7.98356 9.28455
43.3117 7.4229 8.79008
35.872 7.77738 9.38479
41.8727 7.96593 9.58052
36.9498 7.81497 9.53927
39.0547 9.07942 10.4224
36.9863 9.0517 10.7632
36.6627 7.17483 8.97218
36.9929 7.39301 8.91063
36.3391 8.30735 10.3093
36.026 8.44763 11.0054
43.0433 7.92192 9.74953
33.7706 7.5938 9.76819
37.4046 7.43766 9.08108
34.1338 9.00585 10.9086
35.1379 7.83914 9.9009
34.7785 8.30924 10.4069
30.71 8.6751 10.5711
35.3831 7.6818 9.66433
39.1121 8.3623 10.605
40.2149 8.57347 10.4938
32.3157 8.85852 11.0746
41.0668 8.52106 11.1716
35.2992 7.76697 9.86073
30.4333 7.9806 10.6061
37.5553 7.08878 8.81579
33.0857 7.5837 9.83416
29.5499 9.27164 11.6325
40.7426 7.9603 9.97845
39.8233 7.48602 10.359
28.3643 8.24849 10.7969
42.9472 8.43041 10.6379
41.5394 9.71657 11.9613
34.9493 8.62156 11.6257
31.4185 8.18091 11.0973
34.2135 7.76557 9.59732
34.4908 8.70099 11.2021
38.1614 8.46758 11.5593
32.017 7.77249 10.9652
38.2409 8.62281 11.7682
31.7655 8.8101 11.8613
35.961 8.61876 11.4505
32.4124 8.14233 10.7662
34.8961 8.83467 12.2161
32.4135 9.69923 13.6534
33.2932 8.28505 11.1305
30.2839 9.40947 13.1846
25.4535 9.44472 12.904
24.4915 8.1341 12.0397
49.5517 9.09447 11.2271
26.7072 8.85876 12.2169
27.1588 8.69821 12.5458
34.9049 9.12658 12.3882
32.7464 8.94257 12.3724
31.9008 9.49195 14.1713
31.6867 7.55825 10.1291
31.8681 8.01864 11.8597
29.1092 8.14153 11.2441
30.9632 9.457 13.6902
25.2159 7.93816 11.2596
30.8571 7.77764 11.1078
28.1023 7.79725 11.8146
24.9565 7.93732 11.4232
29.673 8.38447 12.1707
30.084 8.85923 12.8817
31.2562 8.42662 11.7649
28.8064 7.67226 11.3523
32.2947 8.26864 12.0273
30.2409 9.18917 13.6225
27.1419 9.40489 13.6759
27.8359 9.56911 13.8204
36.3828 9.21692 13.3469
31.2093 6.93093 11.0791
32.0991 8.27151 12.7657
26.987 8.08233 11.7259
31.7773 9.02259 13.0543
24.7296 8.11108 12.5066
32.0888 8.98795 13.4884
29.1473 9.14158 13.762
28.9136 7.65933 11.2214
19.3658 8.67263 12.7686
32.2481 8.25158 12.3919
28.9647 8.48687 12.4171
28.8055 7.55431 11.6417
31.3137 10.2142 16.465
33.326 8.14379 12.554
27.2927 8.15748 12.6906
28.8262 7.67106 12.3042
27.462 8.59742 13.2017
26.4004 7.9938 11.3532
23.9 7.75116 12.4038
26.5482 7.96818 13.244
30.2843 8.88694 13.1045
24.056 8.63654 13.3226
25.6945 8.78496 13.6807
28.3845 7.20181 11.1007
27.3595 8.75376 13.7415
28.1019 8.84885 13.8314
24.5136 8.7673 12.9038
24.1769 7.34149 11.6597
26.2124 7.2978 12.3299
32.8101 7.48952 12.1784
25.5318 9.13465 14.3632
26.0316 7.98222 12.5098
26.8132 8.91362 14.1647
27.8881 8.1203 13.394
25.4239 8.23999 13.3191
29.873 8.06197 13.846
30.8609 9.09328 14.6862
27.4565 9.32465 15.2995
29.6508 9.73716 15.1503
30.4628 9.1341 14.1184
29.2174 8.68008 14.4755
27.1966 7.91936 13.4738
24.7882 7.87437 13.4544
28.6156 9.05876 14.6695
24.1318 7.84881 13.0906
28.8588 7.7968 13.6174
26.0195 8.50293 13.7309
28.2109 6.79746 11.0355
27.4179 8.61244 13.8612
28.2808 7.5424 13.8693
29.9207 7.89352 13.3999
21.1682 8.13333 14.2296
30.3453 8.18034 13.4194
30.1244 7.92475 13.4723
26.1971 7.16113 12.829
24.0914 7.30703 13.1848
27.3919 8.82947 15.023
26.7817 8.81118 14.9642
29.3253 8.24941 14.3573
24.6182 8.22417 14.0131
26.8989 8.00329 13.324
28.1396 8.7956 15.9077
28.9061 8.77623 14.4308
28.6363 9.09212 16.3111
21.3388 7.86369 13.8129
29.409 8.56862 14.7288
27.564 9.31955 15.5642
23.5265 8.10769 13.6417
24.6839 8.79833 15.7237
29.3923 7.66871 14.1029
25.1151 8.37097 15.0235
22.6338 9.10056 16.629
26.8863 8.45592 15.8276
27.5857 9.78373 15.6449
24.2963 8.27296 15.2209
27.0871 9.37928 15.9296
28.7351 9.12078 17.5166
24.4253 8.09153 14.1045
27.2983 9.05651 16.0415
30.2735 8.03254 14.9459
24.1192 7.8604 13.1967
23.9517 7.10088 14.051
27.5449 8.93693 15.1927
25.3495 8.44886 15.2767
21.5957 7.75845 13.2861
23.811 8.03451 14.6344
22.8784 8.51275 16.0617
23.0687 9.13931 17.8372
21.7522 9.18233 15.7813
31.7254 8.58774 16.9391
27.2705 9.4633 18.5058
21.8115 8.60028 15.5165
26.7573 8.65784 15.8404
25.9857 8.20134 15.363
18.9937 9.27522 17.6475
25.9617 9.03181 16.1334
22.9533 9.70296 18.092
24.5169 8.82219 16.5941
21.0279 7.61182 14.7607
23.2928 8.04832 14.6411
24.2026 8.76352 16.2363
25.1265 7.94087 15.7324
20.5691 7.99595 16.7805
27.1643 8.18836 15.7622
24.2946 9.98972 18.1912
23.2755 7.91566 15.7228
23.1313 9.73127 18.2189
26.8529 8.62989 16.8291
26.3047 8.22509 16.3297
22.1401 9.63437 19.0161
22.4237 8.98271 15.4153
24.7009 8.01689 16.7166
21.5157 8.58197 15.8556
21.9645 8.22077 16.2681
20.9854 9.15945 17.113
16.244 7.08017 14.7983
22.2259 8.71942 18.3437
22.5954 10.1642 19.3075
26.695 7.75196 15.9139
24.8295 8.73224 17.3739
18.6476 9.02587 18.3541
26.214 8.75277 16.7502
21.5979 9.35666 19.7768
23.7411 9.5382 18.2211
24.5445 9.17719 18.5492
19.0031 9.89166 18.6961
22.0517 8.61987 17.4425
21.4847 8.77256 17.1185
21.2004 8.36619 16.7014
23.8684 8.91693 18.4645
21.7761 8.9179 17.1906
24.7145 8.78411 19.2121
19.6127 7.63698 16.4637
21.8284 8.86985 15.8927
20.1801 9.14901 20.2416
28.9723 8.49146 16.3225
20.1288 8.91021 17.978
21.1549 9.498 19.5798
22.7457 8.41459 17.9212
22.1256 7.8707 16.9712
23.5111 8.05958 16.2247
20.7068 8.46114 18.0164
27.0597 8.56871 16.7051
22.3439 9.0267 19.7622
18.3504 8.6851 16.5567
21.7042 9.82452 20.958
27.5806 8.44842 18.4133
18.6976 8.50518 18.1005
22.0123 10.2505 19.7509
20.3961 8.65007 18.1648
18.1376 8.30769 18.7835
19.791 7.99733 16.8305
20.6192 8.66337 16.6339
19.473 9.4783 22.1156
17.1947 9.01507 19.5219
21.8095 8.98475 19.6158
22.6737 8.5829 17.8905
19.5378 9.46873 19.049
23.3455 7.63639 18.006
24.454 9.98149 22.0664
17.6094 9.37343 18.7111
20.7551 7.91679 16.8959
22.1261 9.77237 21.8256
25.0384 9.18977 18.7902
18.7777 7.33511 16.6189
19.8106 9.00218 18.9211
20.6081 8.48958 18.1027
19.3765 8.47804 17.9197
20.0733 7.86335 17.9384
24.6738 9.95603 19.1088
17.3444 9.70182 21.2367
23.235 8.76294 19.196
22.3677 9.24755 22.9634
17.8969 8.76675 18.6663
20.7815 8.42701 18.0731
25.713 8.8103 20.8956
20.1102 8.50716 19.2558
20.1128 8.82274 17.8327
16.886 8.11041 19.0158
18.2668 9.19819 23.0868
18.9898 8.20637 16.1151
20.74 7.96982 19.9393
17.8339 9.86007 19.9384
18.417 8.47983 19.3658
20.2139 8.65025 19.8631
20.4695 9.42074 20.1134
17.3137 8.90699 21.4548
19.7692 9.27024 20.8281
18.5571 8.19629 20.1093
27.4424 8.88501 19.7894
19.8013 8.94139 19.0054
21.4544 9.52072 22.9768
21.306 9.25602 21.4324
19.189 8.62084 19.836
20.7956 8.48241 19.5079
21.6976 9.01156 19.2447
17.2224 7.70448 18.2291
19.1144 8.89174 21.6391
18.4262 8.0568 19.9619
19.7333 8.86345 21.6592
20.0491 9.15073 20.1876
21.8479 8.08194 18.208
18.0548 8.71175 19.6411
19.4844 9.66471 21.7606
22.4346 7.81315 19.5524
16.5695 8.0237 18.616
17.6281 8.23425 19.9642
21.203 8.96996 20.6662
16.6275 9.68685 22.6735
14.799 8.16101 20.69
18.5623 8.8177 20.9733
23.299 8.12774 19.9977
17.2936 8.85545 20.0183
20.2368 8.22745 19.2306
18.7501 8.22929 21.109
22.5944 8.38155 20.1094
18.6559 9.80636 23.7347
20.7101 8.21807 19.3984
21.1736 9.39369 20.7653
20.0103 7.62181 19.4964
17.9031 8.64428 21.417
22.1146 8.89974 22.3905
18.1153 9.43375 20.6882
18.6624 8.40865 20.1175
21.8779 7.5342 17.9113
20.3004 8.99054 21.9539
17.858 7.25216 19.9286
21.5759 9.91512 24.527
18.72 10.0644 25.2212
