# pn-170911/RbIIR-54-WTZR-1280-1959.psd
# Power spectrum* (dif=0,1,2) (really just |FT|^2)
# NOTE: only the first half! (symmetric)
# weeks: 1280-1959
# 12 clock-days, 7 excluded
# PSD: 1441
819.951 0.154285 0.0511923
45141.2 0.464273 0.0547602
207276 3.81456 0.0878569
8278.42 0.441132 0.0419471
28969.7 2.09643 0.0789697
3603.58 0.456938 0.0615537
2526.95 0.434408 0.107341
2801.22 0.892064 0.0565193
1762.86 0.508197 0.0834024
975.602 0.443895 0.0663208
1128.49 0.461487 0.0755272
1336.86 0.49569 0.0499702
1198.21 0.5928 0.0714967
590.67 0.348484 0.0726906
1145.12 1.00947 0.0662032
764.562 0.646374 0.0906916
919.628 1.00316 0.0797017
607.264 0.542424 0.0988405
497.568 0.782094 0.0598302
393.125 0.475663 0.0912238
610.445 0.73839 0.0611036
681.196 1.1366 0.0849758
500.523 0.737177 0.0446675
446.396 0.836395 0.095038
429.797 1.30898 0.0675918
569.948 1.0952 0.0972079
252.554 0.581199 0.0665517
418.748 1.30264 0.0842715
289.928 1.07665 0.0616779
354.861 1.37435 0.0798413
259.05 0.955314 0.0607219
537.435 2.17663 0.124611
486.629 2.2724 0.0847592
234.64 1.28473 0.0904439
354.956 2.0563 0.0929011
525.315 3.03142 0.133597
451.849 2.40127 0.084986
373.816 1.78954 0.102132
310.952 1.99441 0.100651
487.532 3.15462 0.113116
562.804 4.67069 0.132771
661.173 4.70158 0.111525
514.395 3.89287 0.146134
281.089 2.30837 0.0809975
196.818 1.7734 0.109441
512.334 4.9699 0.104037
476.153 4.67813 0.103877
375.484 4.52554 0.0671964
160.224 2.04112 0.124571
310.418 3.75826 0.0742232
474.46 5.63418 0.113653
362.168 4.38174 0.123884
466.56 5.52213 0.173103
336.574 4.66887 0.104223
285.625 4.33726 0.167226
290.539 4.30601 0.0824029
360.975 4.52063 0.141915
267.372 4.2424 0.0499526
354.064 5.42387 0.20985
464.178 7.32428 0.149261
185.474 2.75951 0.165922
207.321 3.81061 0.121751
190.887 3.48999 0.147664
280.853 5.5988 0.148403
380.824 7.02734 0.185978
266.158 5.56877 0.189154
298.179 6.859 0.21353
225.297 4.43911 0.18868
405.428 8.32407 0.360889
192.705 4.69677 0.167524
300.101 6.35835 0.225477
362.452 7.8836 0.343247
193.567 4.36284 0.159952
299.208 8.15005 0.381982
463.863 11.6098 0.409248
289.685 7.95446 0.223999
432.038 11.9177 0.35161
242.558 6.26932 0.274412
131.33 4.07728 0.16304
168.26 5.30308 0.314205
265.282 7.9812 0.361044
282.008 8.8157 0.419602
234.225 6.986 0.288944
492.017 15.8135 0.509408
211.553 7.49782 0.295868
237.36 8.06867 0.353458
264.479 8.78018 0.413748
343.221 12.0986 0.490134
223.987 8.34586 0.326469
354.149 12.6386 0.785351
282.338 10.8461 0.39837
190.483 7.84492 0.450542
204.81 7.85347 0.447681
208.017 9.70308 0.504276
175.941 8.14821 0.458182
306.61 13.9623 0.463394
439.483 18.2994 1.05449
226.132 8.93276 0.378023
148.941 5.85375 0.314695
192.466 9.25627 0.469335
137.75 6.83589 0.34771
256.695 12.343 0.55919
166.511 8.99364 0.508476
191.629 9.31482 0.583155
200.924 10.0084 0.61508
289.374 14.7573 0.788537
164.131 8.34808 0.551994
211.591 10.8801 0.52383
319.237 18.3516 1.11871
179.302 9.92147 0.7176
122.534 6.99097 0.48076
257.045 14.0747 0.834816
235.417 13.4254 0.930268
322.409 18.6468 1.241
144.369 8.71299 0.669043
231.786 14.0527 0.749015
221.333 14.5387 0.980064
266.7 17.2737 1.09259
113.696 7.55957 0.444092
125.357 8.41903 0.632392
246.6 17.0153 1.39974
227.444 15.9892 1.287
257.144 18.5765 1.23366
210.18 16.4946 1.18897
179.079 13.2662 0.951909
213.657 16.6977 1.27023
336.981 24.2936 1.92111
241.435 18.4857 1.6411
112.876 8.60233 0.648999
132.413 10.5916 0.876372
225.514 17.08 1.28153
191.723 15.8217 1.18716
187.638 15.8003 1.11861
200.921 16.4837 1.398
223.28 20.9814 1.96481
283.215 25.6591 2.0608
284.643 23.6731 1.82361
154.687 14.6017 1.52858
248.857 21.4332 1.96852
203.078 19.1419 1.52591
117.387 10.7593 1.06937
135.178 12.9466 1.20259
196.045 17.7988 1.77802
205.319 20.0986 2.04795
259.264 25.5887 2.61562
163.777 16.863 1.76502
199.639 20.8032 2.15195
148.898 17.3059 2.11579
188.956 18.0615 1.66631
209.858 20.1222 1.89272
166.175 18.0008 1.89358
166.968 17.6932 2.14244
173.282 18.5948 2.35653
138.288 14.0303 1.52043
261.8 29.1447 3.38858
95.4764 9.69443 1.05593
168.815 19.168 2.19079
107.24 12.443 1.69322
121.871 14.2819 1.83394
161.061 20.1081 2.13849
224.174 26.8444 2.71918
122.186 14.5638 1.68658
148.446 16.6091 1.94794
129.274 16.6449 2.07306
112.957 13.5379 1.58696
109.397 15.2111 1.72309
147.84 21.0995 2.93409
106.072 11.8691 1.44682
115.491 16.1403 2.34868
279.082 36.9847 4.75306
110.218 15.4552 2.41007
120.991 16.1654 2.07339
166.226 22.2077 2.75498
172.248 24.0287 3.32147
141.999 19.1534 2.8024
207.543 29.5268 3.98036
158.893 24.6809 3.98364
200.014 30.1185 4.16721
100.225 16.7635 2.90067
113.617 15.8675 2.41846
137.817 22.9332 3.69269
89.8434 11.728 1.66192
82.1135 12.2282 1.97498
136.508 19.5454 2.99928
87.7664 14.2678 2.3909
158.463 25.6741 3.97567
163.379 26.7756 4.22462
190.5 32.0005 5.3111
93.977 14.6611 2.13362
104.802 19.1463 3.15209
142.412 24.0188 4.40639
143.128 23.7831 4.43616
240.171 39.9774 6.78272
126.699 20.5241 3.4563
145.084 25.8121 4.77539
117.133 22.9131 4.35599
93.5881 15.2416 2.33576
104.795 20.8598 4.26312
87.2975 15.6396 2.98368
152.188 29.5147 5.16355
139.026 25.8612 4.88274
90.4723 16.4503 3.15023
106.643 20.0651 3.39101
103.245 20.3301 4.46385
67.8872 10.4184 1.97796
116.21 23.2789 5.14108
78.6709 14.7495 3.07628
79.071 16.7271 3.41763
128.494 26.4871 5.4729
125.321 26.3826 5.7318
138.764 28.7123 6.28116
102.945 21.3066 4.18183
123.641 25.6895 4.91624
92.5427 21.0274 4.59083
90.9517 20.324 4.61905
131.162 30.0326 6.752
111.297 22.2299 4.8113
106.884 23.9352 5.59202
163.581 36.5959 8.95914
119.251 25.7516 5.82788
57.02 12.1746 2.48055
88.9936 19.646 4.32376
78.6752 17.3012 3.78674
94.7218 24.5614 5.66926
113.67 25.4205 5.5427
95.5765 21.3928 4.65395
72.6932 16.2658 4.44434
181.63 42.1224 9.47829
98.5343 24.2767 5.99481
161.823 41.6848 10.6385
176.724 36.9621 8.40816
92.7502 25.7704 6.56226
131.342 34.0524 8.72296
126.103 32.2559 8.23245
115.081 29.6342 7.37499
124.368 33.5691 8.72793
71.0583 20.422 5.9661
55.3418 12.5207 2.64336
58.8178 17.9372 5.35339
96.8548 23.7151 5.76281
94.9774 24.9067 6.8278
64.6578 18.9541 5.64883
112.933 30.3187 8.19262
114.819 30.2695 8.45073
116.681 32.0814 8.67162
89.594 25.3568 7.30944
72.5768 20.5314 5.4149
61.3669 14.7066 3.92633
102.569 29.5977 8.25361
111.743 32.0169 8.75063
91.7742 27.4175 7.98976
72.282 19.6459 6.09966
59.1485 20.2058 7.19898
75.9007 19.243 5.03362
68.0098 19.717 6.3381
68.8511 22.3731 7.38962
104.409 30.2016 9.50115
93.7111 25.3317 6.86296
94.1251 27.9464 7.93493
129.32 40.5045 12.4183
94.3418 27.9433 8.59778
80.2355 24.5899 7.32271
123.945 39.761 12.2255
93.1335 30.1758 9.69684
49.2639 17.2386 6.56643
105.81 33.7139 9.79222
38.1847 14.8938 5.78509
87.0635 29.9775 10.162
83.7098 26.7604 8.56291
90.5398 36.2789 13.6389
70.9076 21.2679 7.26608
112.737 33.0654 9.60709
69.9965 26.0472 8.75756
78.28 27.3593 9.94907
78.2914 28.5229 10.2909
114.883 37.6594 11.8867
89.8816 33.1381 10.9959
60.1038 23.4847 8.9753
79.3622 26.1413 8.36683
76.3981 27.5484 9.33378
73.8983 27.3629 9.14054
77.9484 31.4092 12.1096
63.3488 21.6687 8.30037
63.6713 24.7156 8.95286
50.7771 17.3251 6.66988
68.7723 24.0479 9.03243
52.6001 18.6628 7.06054
63.2332 22.7713 8.41462
93.1185 34.1978 12.7819
90.5067 41.3866 18.7131
70.5519 26.6208 9.58661
65.2149 25.7824 11.2954
83.3843 33.5184 13.8121
95.2966 34.2364 11.8273
43.8232 17.2082 6.88065
66.8293 26.4461 9.43468
43.3814 17.5897 7.25439
54.0845 21.1567 9.43585
64.9601 24.1041 9.21729
48.1091 20.0499 8.24245
68.3386 28.8445 10.1531
51.932 22.6117 10.0476
61.7372 26.8912 12.0304
58.3799 24.488 10.1974
56.9702 24.9732 10.5753
60.5106 27.3244 11.8866
49.8589 23.8875 11.2813
108.202 42.4185 15.5019
48.627 22.6435 9.01502
73.8496 35.4137 16.4158
60.7084 25.5056 10.2813
53.4896 27.8805 14.0481
66.4332 29.8646 14.0487
53.6512 22.7176 10.4576
76.835 30.8166 12.1611
61.6523 30.8872 14.2371
33.7699 16.25 8.84099
86.3583 34.5616 13.7039
69.1704 33.262 16.3258
88.2355 42.7757 20.019
49.0086 24.3669 12.0688
53.9609 24.7712 11.4882
55.3563 25.4475 11.4245
63.8689 35.8306 18.9078
64.8439 29.9077 14.7832
76.2383 37.4066 17.4212
47.2245 21.6263 10.0912
60.9552 25.3631 10.7504
56.5062 28.1251 14.2963
88.1098 43.8995 20.0567
34.6016 18.7409 11.345
73.2374 33.535 15.9227
57.7624 26.6012 12.5017
66.2691 35.4101 18.8544
46.5643 24.4331 12.3377
37.9852 15.9268 7.36642
69.9833 35.0375 16.5897
47.6063 24.6186 12.3068
26.5236 12.5439 6.662
73.7871 40.6486 22.2567
95.2094 47.3176 22.1473
88.4093 49.9131 26.1978
42.6029 20.4077 11.9291
77.3494 42.4004 23.5605
64.8517 32.9084 16.6367
52.3468 28.4467 15.0784
28.7064 21.0566 14.4434
52.6269 23.3267 11.877
44.6864 22.9263 11.8721
51.5791 27.2012 14.0145
52.7261 29.8095 16.9695
38.7001 20.8548 11.8061
84.8628 51.0611 27.6677
41.9529 25.3731 15.6893
34.3592 21.0537 13.2317
56.3231 30.0984 16.532
71.0973 43.053 23.7776
35.4508 21.3386 13.4154
38.3396 18.6512 8.89347
25.7174 16.9981 11.7468
33.93 21.7496 12.7213
72.8472 45.2844 26.0693
45.3704 24.9436 14.6726
46.2451 23.753 12.7855
40.2101 23.7951 14.0987
48.9571 28.1952 16.2006
46.4596 29.0233 17.3103
60.0763 40.0674 26.2971
32.8547 23.3276 17.5121
42.1913 24.3299 16.5949
75.763 43.4638 25.6246
91.6382 54.2121 30.5647
34.1242 19.9449 12.6056
44.3926 29.3118 20.387
57.4512 29.7842 16.6058
60.5486 39.9252 27.3777
40.3887 24.5175 14.9745
34.9727 21.5796 13.8178
51.7382 31.2203 18.2694
40.9775 33.737 25.2741
60.552 36.7286 21.7466
78.3499 50.067 31.5382
42.9903 29.7729 20.7375
36.9678 23.8449 16.0101
34.9252 23.4581 15.5236
55.7436 36.5846 23.9297
39.9855 29.4581 21.0682
57.6572 39.4564 26.7708
53.051 33.3212 21.3954
52.3109 31.1298 19.7478
39.283 27.8526 20.2396
41.544 30.3376 22.62
38.0097 23.3097 16.3823
38.2393 24.7248 14.8307
69.1297 53.3974 42.9066
70.3882 43.9173 29.002
29.3684 18.0526 11.006
44.8733 33.7694 23.151
37.837 30.1144 23.2053
40.8309 27.4911 21.2394
38.9892 25.6235 19.7627
55.5607 36.7575 23.3148
37.2535 25.7526 19.079
59.5377 45.0991 32.6079
35.6386 22.0364 13.3889
30.7918 29.2449 25.1131
24.2095 15.8349 13.6631
43.0962 29.2034 20.3129
45.832 36.3267 28.0182
45.5209 34.2823 25.501
35.358 23.644 18.6347
32.4055 25.915 23.0947
39.9902 25.1656 19.185
52.8786 36.8435 23.0454
50.7115 40.2748 27.9981
15.5325 10.7816 9.33318
42.6278 31.6287 23.446
29.5214 22.2871 17.6366
40.2386 29.8831 22.5619
62.6175 51.6657 37.3926
30.9542 27.5022 25.2957
59.8077 41.5965 30.7396
45.202 35.6842 27.2885
32.3247 24.5216 19.585
51.2589 43.8934 36.6829
20.9246 17.3084 18.9632
55.7228 40.5054 27.2523
38.5689 37.571 35.3672
43.7322 25.2929 17.2612
31.5291 25.9827 21.1568
62.413 50.6959 38.9239
20.9474 19.0899 22.1551
41.8477 27.7265 19.6174
31.9977 26.0421 22.5451
39.006 31.0969 23.6071
45.3956 35.879 25.296
21.0294 20.3297 19.2145
25.558 19.7484 15.9468
41.4002 36.1474 31.2491
32.6394 25.2391 21.1162
38.8412 33.6899 28.1956
24.8642 20.8578 18.4797
35.6277 27.2891 19.8239
41.6714 40.4475 40.3204
38.315 27.8995 21.983
12.7517 10.8899 11.7275
40.5216 33.2241 27.3839
23.1473 20.7012 19.6913
25.3515 21.0979 20.6843
34.4982 29.5176 24.5714
21.8137 17.829 18.022
41.1903 29.1466 20.3767
46.2011 51.4657 46.1167
36.0584 28.625 25.6929
25.641 32.8771 37.8368
31.3245 23.9203 20.8231
26.1499 19.7917 15.5562
30.7722 25.9702 22.6558
43.1029 38.2683 33.2664
39.107 35.91 31.2888
27.1852 21.7576 19.6593
24.596 21.8567 18.6498
21.9255 22.0987 19.9652
29.9497 31.6157 29.2754
20.977 21.469 22.2835
21.4645 19.7123 18.2414
27.7798 28.4288 31.2543
34.7407 33.1287 31.9285
41.2007 41.2754 42.3578
41.5263 33.5619 29.3496
27.4672 24.1402 22.2825
34.9417 32.1028 29.5605
25.9827 24.3282 23.9264
50.6909 48.8091 43.8369
27.0801 29.2919 32.7149
31.7459 32.12 32.6469
20.8865 21.6011 25.8431
23.3147 17.7247 16.9442
32.7469 32.5773 30.4674
21.1325 22.9789 29.6771
74.1907 68.7421 60.7943
16.4345 13.7661 15.6249
34.6969 35.7647 34.8355
35.1156 36.2362 36.6727
25.9608 26.9043 27.5628
20.7037 21.6086 23.844
20.2406 20.0219 21.7188
40.2702 40.43 40.1746
30.8531 28.3629 26.6695
10.7848 8.76824 11.1838
28.8279 27.1355 23.9099
35.1373 38.3557 41.2522
31.748 29.0606 26.9072
24.2253 26.521 27.4023
20.428 23.9569 26.4078
32.9918 38.6061 42.9648
26.8438 24.599 23.4716
31.3814 40.5982 46.7298
49.6703 49.0247 45.3396
18.55 25.1126 34.5604
47.694 53.3127 55.938
33.298 31.762 31.2099
24.3957 32.8955 47.1661
41.1296 43.6369 47.6986
38.6525 36.2379 33.1779
32.6995 36.1435 41.2421
21.2393 16.6504 14.2169
21.5879 27.4623 36.4488
37.232 37.5895 44.261
47.1519 50.897 50.7225
20.0508 22.1723 28.6359
24.9951 24.1656 24.1788
29.015 37.5967 43.2534
33.29 36.7201 39.7372
21.889 31.2507 45.0861
34.2518 31.5199 30.495
12.5281 11.0598 12.9167
26.6195 28.7945 29.4589
19.6393 23.7838 28.0831
17.6037 19.2372 25.5052
25.4318 29.9593 39.9119
27.418 28.3443 28.5799
24.5145 26.0991 28.4272
26.3792 27.6333 28.9832
18.7965 17.7557 19.6579
21.336 31.2542 42.8541
25.061 22.9456 24.0554
35.5055 47.3333 57.8611
27.8951 27.7998 27.6697
13.5588 18.0906 24.2878
24.7234 28.7393 32.5235
15.1632 20.1808 30.5577
15.662 18.4678 27.6393
35.4211 42.1745 42.5796
31.614 37.7822 47.8342
36.703 47.5166 51.8774
17.5482 18.2916 25.1289
30.5637 37.9287 41.9008
19.6767 24.742 33.3577
36.7338 46.1005 52.8527
19.2751 33.2043 53.0331
24.2717 22.004 29.0432
34.7573 37.5681 42.532
37.0217 45.344 55.1414
24.2929 24.9753 29.1298
16.4362 20.8628 30.1891
34.9364 41.6201 50.1696
25.0577 29.89 40.3909
51.269 70.1585 81.4121
30.6308 43.7885 69.4811
30.546 29.1288 33.4062
24.3275 27.2739 34.7129
26.2188 33.7836 44.1456
22.3566 22.1241 20.174
40.0379 63.7244 88.4962
33.8423 34.9428 38.6673
21.6433 27.8471 35.915
23.8886 29.2095 29.53
17.1415 27.2203 41.6962
16.3641 21.9208 29.3277
17.6897 26.541 42.639
25.6273 29.4558 35.2537
23.4323 32.6413 47.4428
21.458 20.9607 26.016
22.2344 34.4637 48.1248
24.2304 30.3935 39.2983
17.3123 22.2589 30.9199
19.4155 21.923 24.683
15.2986 28.361 46.2285
24.6894 32.6043 47.8936
30.1537 28.2743 25.4653
10.2772 15.5938 22.0874
18.4142 24.0358 28.5266
24.6071 43.2508 62.7727
12.3527 17.898 32.3686
11.102 14.617 34.2421
27.275 27.2263 32.6014
28.0592 35.9727 40.4212
14.5069 15.6944 17.74
29.1515 44.3032 58.9936
19.1957 31.3798 53.251
28.2148 29.2809 28.8441
17.4911 31.4502 53.1515
15.8493 19.8421 31.4981
16.2909 22.6862 36.0575
22.0011 26.4995 33.6968
18.5833 23.4603 26.2055
16.8813 30.1073 47.1225
19.1028 20.6082 25.7785
20.0633 29.7969 43.2442
17.1525 23.021 33.5811
9.8837 10.7504 18.1113
26.1745 35.6235 43.0135
15.4386 30.3495 53.2991
19.2091 19.4802 25.3712
12.0836 16.4924 26.3394
17.0199 21.5974 27.0494
16.91 25.5998 32.3668
10.9889 16.4946 28.8586
18.5726 33.0873 60.3618
24.4593 34.8739 46.8929
13.339 22.0285 43.7953
25.2003 30.1446 40.8091
25.2338 35.8775 50.7302
19.9116 28.6811 51.0867
28.2708 38.389 49.5045
19.3002 26.952 38.6642
22.0162 35.4089 51.2396
19.1618 25.7836 33.0433
19.4663 36.0189 55.8273
20.9698 27.9311 40.3849
16.7779 29.7746 46.3291
19.1034 29.8776 46.6581
17.2267 25.257 43.6283
27.3368 36.3458 45.4636
12.5963 22.3903 44.5553
24.2879 36.4945 57.2882
21.8893 36.4599 58.4899
16.7802 18.6591 25.7482
20.0263 31.4383 48.5535
9.83937 12.7846 30.1631
20.6643 33.4885 55.307
15.9072 20.4214 34.5136
18.591 24.348 34.6228
16.8561 26.0146 40.3263
22.4394 34.2207 45.909
13.6532 25.7166 52.5606
16.9423 23.7205 34.4209
9.88677 12.5392 20.8308
13.7948 22.9884 36.1368
18.5863 31.0804 51.9967
17.3831 24.3055 32.1602
14.1823 20.3829 26.7932
9.86664 16.0291 26.2015
12.8507 21.4295 34.3812
17.3732 27.9604 47.9669
17.817 28.1818 42.4682
11.9788 19.1498 36.8887
18.8457 26.9097 42.8545
18.913 27.9422 39.6911
15.0433 26.2671 47.4815
15.0372 17.6803 17.2908
11.9976 23.6388 36.2774
11.4473 23.3125 42.4308
19.4612 33.0582 59.6216
15.4399 18.6266 32.1021
15.1045 23.4439 37.5508
10.4008 13.5608 19.1996
7.36586 17.2775 40.2436
21.5121 32.5111 52.5018
14.3738 21.6428 35.9597
19.7813 31.1305 43.8192
14.3496 28.3397 45.2914
13.9496 33.1919 75.6124
21.4139 30.9069 45.8142
19.9239 34.9792 56.3613
11.5441 21.8926 47.4373
18.5735 28.8964 46.894
16.7318 29.3659 52.3003
16.1378 24.6755 31.7196
10.6533 20.3135 32.7147
6.6703 17.496 40.2274
16.1119 26.5427 56.0767
22.7553 37.6075 60.1305
14.228 20.0817 29.1687
8.95913 15.563 30.2387
10.7392 20.5075 38.128
14.7426 25.1607 41.3813
9.4787 13.9157 27.582
9.82245 17.9275 32.8145
11.4046 19.3457 42.2125
16.7619 24.0271 39.1772
29.0152 54.2376 84.7391
12.98 18.5048 29.3145
8.35938 15.6807 30.5299
10.5655 20.0809 42.2926
11.7227 19.1089 42.882
21.3364 37.9305 61.6792
15.1538 26.1927 42.4652
11.907 23.438 48.8563
19.4715 33.2454 49.9074
12.58 20.9213 48.3439
22.6376 40.3553 62.959
13.239 24.5528 49.6257
11.2975 18.897 37.8456
15.0691 25.6652 42.2041
11.7 19.4729 33.8949
7.3474 9.47858 18.2241
14.7012 34.2942 59.4574
13.0839 24.5023 48.5476
12.4785 23.74 37.1047
6.91302 15.9568 42.531
14.7098 25.4975 43.4533
10.0224 21.6347 50.5929
16.1377 25.9241 44.3888
14.2819 27.3652 49.5292
11.8962 25.6771 55.7553
15.1826 20.7838 27.1297
8.76219 17.6865 35.0499
17.1873 32.2107 56.7142
18.1726 41.7707 92.742
18.2507 29.3759 49.7933
11.8176 14.7782 21.5004
7.03946 13.0141 30.4591
14.9329 27.934 41.293
9.88623 27.4716 55.4292
14.9274 30.8107 61.5594
11.2476 18.1984 38.4225
14.6328 25.3102 39.2561
9.02678 26.1046 73.6763
24.0342 37.3915 55.9865
14.4125 29.3202 53.2302
13.384 29.141 55.87
13.566 28.3496 53.5263
7.5719 12.3029 34.152
11.3663 22.8007 40.349
8.42778 22.1655 53.647
10.9632 16.7247 39.809
17.507 31.7539 51.5611
8.85955 13.5119 31.0203
11.2709 25.274 47.0134
14.9218 26.7366 41.9977
10.2845 24.4785 46.5267
10.4235 29.8269 68.5908
13.0915 20.5328 46.5435
13.4666 27.0621 39.1167
9.02958 27.9869 69.5935
10.2295 15.1237 37.2405
10.437 18.1617 31.995
10.7014 25.5184 56.5585
11.2689 24.7988 70.5236
22.8056 37.099 54.911
7.34423 11.5118 21.5555
10.1214 26.819 61.9678
17.8172 32.6903 57.0891
13.2795 25.5574 48.5152
8.81427 19.5531 43.6878
9.20362 20.1436 42.4488
10.663 28.6582 68.1867
14.7969 28.3397 57.7074
10.9114 17.5517 43.0486
11.3516 24.6852 56.5279
16.5096 28.6996 47.0137
7.45086 19.3287 58.1405
15.0481 30.5144 62.7911
12.1357 23.9203 61.1397
11.2307 14.7165 23.0435
8.89947 14.4849 26.3224
9.26646 21.2746 36.7728
8.02753 22.8613 57.7082
7.8097 15.9551 37.1422
9.26701 17.6466 32.7489
8.80892 25.2103 61.0186
9.88217 19.6131 50.7273
9.03126 12.6151 33.7607
12.3702 27.2052 43.5777
10.9683 21.6273 44.6897
10.082 19.7424 34.825
9.74274 22.622 53.1711
11.756 25.6101 63.7719
15.2037 23.4265 29.5284
7.26043 20.3059 39.5605
10.5057 28.7292 65.4564
10.4494 21.3007 45.1021
9.67321 31.0111 81.2957
12.7374 21.5998 44.959
9.58353 22.8314 55.5513
9.88087 13.5966 26.7032
9.49835 19.9614 35.1543
6.93721 19.6148 48.2919
10.5362 26.6081 67.7603
11.1391 20.2029 46.6323
10.7931 22.6153 55.7551
16.984 26.2044 42.9917
12.228 34.9873 79.0363
10.8648 18.5522 43.5982
8.86557 18.8121 36.6323
5.22673 10.92 31.2964
9.8841 20.2362 37.6448
7.29579 23.102 58.0985
8.04515 18.7922 63.2378
17.0788 39.6293 85.1053
9.6795 14.7781 26.2105
7.50485 19.8867 46.9211
10.0928 21.3267 44.6462
7.20732 14.1923 27.4385
7.00056 18.5562 41.3192
6.81428 17.1491 57.3704
13.1813 24.2576 43.3791
5.54963 17.4823 57.3127
12.4675 20.6983 31.8398
9.35053 25.0422 57.0467
7.35804 15.7548 47.779
11.9648 22.456 41.7722
8.28747 25.2019 62.4056
9.75807 16.8142 31.0231
9.19968 21.3892 41.3135
9.55899 25.7188 56.0078
6.35835 12.7594 34.3656
7.18407 16.6601 40.6143
6.40857 16.2114 47.4581
9.9445 17.8846 32.4587
8.9607 22.4301 42.6054
10.0381 33.0666 85.4893
9.76004 19.1321 38.0936
6.14585 23.1932 66.1461
7.63724 11.1088 37.8804
11.5958 21.3437 46.0147
10.7106 30.4707 90.9182
16.142 27.7405 52.4541
10.4957 19.5421 37.8436
7.04058 19.7836 55.1433
9.97495 18.9804 40.2449
11.3466 29.3686 51.3976
8.07373 22.0113 53.6028
9.109 31.9433 82.2398
10.6159 21.9687 57.2274
7.83343 18.5447 47.5979
10.5382 22.0186 56.0261
9.93131 27.9795 72.1913
7.71531 17.6521 62.2726
13.5767 21.8699 32.3991
6.74957 15.8393 32.8365
5.64468 18.2583 55.0504
8.00962 12.0167 23.8184
5.53804 16.7685 57.7287
16.511 43.1991 114.319
19.2667 40.2592 74.5218
7.42379 14.6657 49.5751
10.2344 23.9409 44.6424
