# pn-170911/RbIIR-47-NIST-1280-1959.psd
# Power spectrum* (dif=0,1,2) (really just |FT|^2)
# NOTE: only the first half! (symmetric)
# weeks: 1280-1959
# 3 clock-days, 3 excluded
# PSD: 1441
101.694 0.081436 0.0381105
14368 0.139303 0.0615155
104333 2.09649 0.0653759
21331.4 0.875429 0.0642696
35540.8 2.54439 0.0799467
5243.68 0.87904 0.0684405
3151.01 0.512262 0.067006
4479.39 1.09107 0.074085
890.462 0.385315 0.0732011
290.585 0.121172 0.0916579
1048.33 0.5305 0.0952201
784.743 0.370349 0.0896206
442.988 0.447088 0.100822
268.383 0.249056 0.0940679
1158.61 0.928182 0.103115
557.956 0.547926 0.118712
533.344 0.757047 0.111801
266.703 0.544678 0.105421
207.344 0.118862 0.120994
271.418 0.731564 0.0985076
750.403 1.44934 0.0867238
449.937 0.963831 0.105604
481.82 0.925861 0.111052
185.008 0.838953 0.103946
119.015 0.370199 0.103274
126.201 0.305444 0.110598
328.72 0.669373 0.108843
177.615 0.907624 0.087391
236.246 0.771733 0.0975412
291.971 1.47658 0.0918189
287.984 0.827349 0.100135
103.548 0.495663 0.0939046
523.757 2.72653 0.134704
323.67 1.52782 0.0660435
76.5675 0.614912 0.0953827
75.0181 0.465891 0.0736952
170.624 1.17121 0.0987789
339.9 1.90606 0.135611
278.061 1.61916 0.119115
141.112 1.31391 0.15605
53.3744 0.367644 0.0899326
15.83 0.0806427 0.099152
118.86 0.724689 0.0644455
425.652 3.61241 0.144913
261.601 1.97604 0.0512658
143.607 1.74166 0.095433
152.41 1.79547 0.169839
143.156 2.17026 0.142459
78.0572 1.07716 0.0962414
397.996 4.97255 0.120852
249.264 2.54572 0.0772969
245.191 2.08773 0.0770645
182.852 2.09897 0.130901
165.372 2.45828 0.151973
200.58 2.23129 0.10716
63.6521 1.30748 0.084203
135.092 2.0373 0.0727915
161.174 2.43701 0.142583
155.311 2.12443 0.140494
149.818 2.34606 0.0382414
172.07 3.36549 0.178564
196.733 4.01394 0.0585775
117.693 2.61451 0.0181948
100.47 2.22748 0.0795234
129.453 2.6581 0.170101
674.719 14.4631 0.192453
101.704 1.98596 0.20706
187.856 4.16264 0.0872146
126.77 2.98446 0.131582
317.926 7.78514 0.0669863
181.536 4.33227 0.125647
675.865 15.9077 0.550511
187.833 4.31798 0.269071
196.834 4.86231 0.283303
378.645 9.43898 0.438333
268.339 7.80952 0.194295
411.048 11.4131 0.450793
188.858 5.64041 0.348565
397.734 11.2737 0.225802
85.3938 2.63674 0.149517
239.404 8.50248 0.419891
143.069 4.0084 0.222993
236.256 7.32925 0.408026
258.941 7.03101 0.445842
137.61 4.73954 0.267843
78.7724 2.37862 0.209645
199.735 7.10632 0.346852
158.396 5.082 0.210999
154.061 5.95662 0.249113
119.901 4.28282 0.25656
151.423 5.72796 0.400236
356.717 12.8317 0.634441
161.138 6.4938 0.374113
232.29 10.9542 0.566195
46.598 1.89417 0.257872
65.8843 2.75358 0.144049
362.087 14.9407 0.436356
231.823 11.5943 0.731829
466.624 22.4399 0.986128
169.629 6.10332 0.299545
28.606 0.956282 0.131074
170.952 8.25701 0.318716
121.513 5.47379 0.321964
71.4457 3.38522 0.414527
249.943 13.2497 0.826254
290.44 16.748 0.603264
145.644 6.33026 0.278586
126.773 6.71487 0.287217
97.8923 5.04225 0.395894
235.113 14.0855 1.14212
183.262 10.8994 0.528817
123.301 7.9506 0.701903
230.824 11.6736 0.894288
117.142 8.15454 0.635877
232.761 15.3304 0.742216
92.4703 5.0698 0.242289
94.2113 6.43632 0.497422
68.7458 5.18771 0.143958
149.609 11.0317 0.850792
410.396 27.6147 2.09847
262.453 17.0889 0.856243
130.659 8.70196 0.435746
78.937 5.42468 0.713902
170.532 10.9533 0.894411
69.5075 5.55531 0.334451
221.936 16.7241 1.40646
90.7605 7.44359 0.713463
345.154 23.1466 1.72684
296.396 26.3802 2.13846
391.677 27.4744 2.20699
110.161 9.38842 1.15861
85.23 6.11415 0.219058
145.014 11.579 1.25445
209.216 17.4818 2.03888
74.5933 6.57549 0.955084
93.562 7.68622 0.504002
247.241 22.6097 2.25561
109.535 9.20181 1.09243
138.33 11.2993 1.3101
130.127 11.1745 1.44182
110.152 10.5987 1.01478
211.393 20.0943 1.86717
188.587 16.7248 1.50734
119.832 12.4399 1.25162
53.6171 4.78473 0.566707
177.676 17.6483 2.2729
213.378 21.0405 1.74392
194.985 22.6139 2.15233
148.475 14.9477 1.40136
124.458 11.1311 1.1123
247.759 26.2424 2.80103
52.4152 4.96115 0.596174
142.065 16.2811 1.92897
19.1224 1.59576 0.281264
112.496 11.963 1.18316
61.2267 7.23299 1.08388
220.518 23.7732 2.74381
161.747 18.9254 1.92016
318.177 39.1932 4.98514
89.2415 8.89899 1.07155
160.818 18.6289 1.98955
46.0074 5.32996 0.927045
71.5425 9.28856 1.67285
40.5679 4.66796 0.747683
90.7121 11.4828 1.28381
46.529 7.01228 1.10926
53.8676 6.02979 0.798614
19.4118 3.12118 0.547216
82.0751 9.5398 1.45476
71.8445 8.47236 1.54142
65.3233 7.91073 1.55519
258.5 38.8701 5.50739
228.132 26.5371 4.00298
74.9307 10.2877 1.66288
125.103 18.177 2.05431
189.266 26.452 3.81992
38.6737 5.54796 0.971442
35.4163 4.10994 0.362037
227.281 35.5194 5.19471
40.3761 7.36703 0.906376
245.184 37.946 5.03895
68.1894 11.8988 2.47675
66.4039 7.8783 0.922996
49.689 8.20825 1.21184
81.0513 13.9097 2.09561
87.8273 18.2757 3.25656
94.5956 16.1851 2.30878
130.034 21.4694 3.45763
101.598 14.8674 2.26481
141.912 21.7203 3.62044
101.401 21.4776 3.6221
294.275 44.5539 6.02092
121.201 21.908 3.12561
89.8987 17.1016 2.50837
17.611 4.25618 1.25688
224.305 40.2582 6.4245
126.452 21.4817 4.61179
61.924 11.8497 2.59451
37.9598 7.29758 2.06246
139.024 24.7261 3.39295
44.2887 8.47144 1.87981
114.731 19.9659 3.49708
84.878 18.2221 3.83741
42.5084 8.73533 2.53878
68.8694 14.8125 3.14724
171.042 31.3139 6.90556
60.7177 9.73557 1.58855
103.759 22.3374 3.76568
22.0763 4.4801 1.01633
69.6688 18.497 4.35485
154.094 28.2991 5.37835
33.8573 6.80303 1.50391
66.4929 17.6306 4.17508
70.3213 19.2605 5.30223
190.129 37.5904 7.86388
62.0059 10.7354 2.33012
147.175 33.3708 7.84194
99.4544 19.7718 3.63753
93.4421 21.3227 4.01568
44.9677 9.00316 1.77267
225.528 59.1283 13.5809
64.4052 15.3312 3.84236
80.7726 16.7938 3.46772
46.1178 9.67576 1.76297
85.1364 15.3266 2.9784
101.203 23.5907 4.95551
67.597 13.1029 2.92492
70.8595 17.6325 4.15954
93.2069 21.7052 5.86821
83.9486 19.64 5.81694
22.7456 6.14344 1.57964
56.2794 13.1742 3.21683
105.81 25.7588 5.31244
67.6762 15.8489 4.85
13.6385 4.63138 0.879825
25.3164 8.85289 2.31578
71.4169 16.0923 3.66214
47.8768 11.1628 2.92619
154.027 38.7282 10.1097
54.5155 14.7654 5.18835
73.9706 15.7797 4.02512
79.0229 21.6858 6.353
76.3335 23.1065 8.62011
33.1389 8.10761 1.94057
47.901 17.5332 6.03399
77.2809 20.3239 4.5925
140.62 31.5198 6.8974
82.725 25.7114 7.13767
81.2407 18.9455 4.49421
117.95 36.1276 10.9189
148.576 44.195 12.8657
72.2029 24.2675 7.68016
68.6139 15.4203 3.97735
69.2615 21.0364 5.9331
47.2433 16.3123 5.03426
17.8976 5.54595 2.18943
159.298 45.9368 13.1562
55.4117 15.8533 4.83135
17.6997 7.53736 2.91757
32.1423 10.5686 3.71336
39.782 9.81385 2.72867
38.3272 13.4659 5.55886
29.8375 10.8735 4.43733
15.4688 4.66913 1.63636
64.242 20.392 5.34432
30.4056 12.0812 4.53459
91.2885 29.4854 10.5748
52.4829 13.7668 3.58144
47.2064 16.0838 5.03152
28.5356 10.1356 4.31278
88.1849 32.2447 10.1689
18.9242 3.80586 1.59616
178.408 58.2393 18.8643
154.693 53.7003 19.1997
91.0287 31.0676 9.54909
99.156 38.3112 15.3273
133.118 46.2683 14.35
40.1792 10.5549 3.1944
29.6816 12.5674 5.00024
80.3526 32.938 11.232
22.8965 6.27552 1.83276
135.03 52.2655 18.5972
61.1639 17.7191 6.97255
102.355 36.8149 14.4344
75.6859 28.2446 11.0052
31.5617 16.0847 8.65735
53.5154 22.1428 9.20171
55.1448 17.9153 5.99094
70.1849 24.4642 9.30671
46.4075 17.3098 5.69904
17.5317 6.84104 3.90431
53.68 26.1709 13.1075
36.2061 10.1485 3.31352
73.4261 27.8578 8.65998
88.6219 34.9082 12.2529
100.843 53.6678 25.6192
81.9375 24.5327 7.00576
84.7364 32.0919 9.99195
16.7087 5.89076 2.74087
101.724 47.7495 21.1948
137.47 46.1528 15.4821
40.6043 19.2079 9.70244
60.6285 25.4613 8.43266
36.9528 20.2767 11.5551
38.7778 12.8758 5.77049
145.57 56.9114 19.1896
62.9643 32.0367 14.3965
9.58595 9.27235 6.16065
36.7083 16.2687 6.87362
48.9776 17.964 7.95546
75.4469 29.4373 9.71923
17.6156 9.77862 4.9652
150.234 70.7621 33.7141
36.8131 19.8081 11.7696
96.601 31.7856 9.89378
57.2704 26.224 11.1026
97.4327 47.477 20.869
41.2062 19.4076 8.30619
25.7611 14.138 7.6012
19.637 7.85541 3.78703
47.6664 21.3842 10.4432
80.5975 33.0152 14.441
36.7853 19.639 9.73162
48.8235 27.3011 15.1274
28.8681 12.3537 5.88145
33.5424 13.1648 5.04133
21.9944 10.5726 4.8146
18.5532 10.7499 5.38949
32.4525 15.427 6.59953
29.8205 14.4263 7.89845
46.2561 22.3702 10.5161
35.9572 20.2008 9.17901
31.1258 12.5321 5.16131
59.8247 33.2051 17.6542
41.296 28.3581 18.7759
92.9496 39.3008 17.1787
26.826 12.1817 5.15435
95.0099 54.4008 32.1353
43.3624 18.1193 7.282
67.3948 33.1269 14.8264
46.6906 32.0875 19.5833
53.8366 24.0472 11.723
39.9665 19.1827 7.9271
24.0565 10.9408 3.88487
30.6602 14.2909 7.88761
44.9309 24.4015 13.4091
60.1322 31.5536 18.2594
44.0498 25.344 16.1683
95.329 43.9329 18.0772
35.4546 23.2357 12.7047
39.9824 28.714 16.4918
65.0466 33.5967 17.6747
24.6033 15.3523 10.8744
74.0183 39.3712 19.9401
12.9707 8.53744 7.0649
96.5813 55.5131 27.3148
28.692 14.7084 9.69017
60.9447 36.8293 22.8486
73.4682 41.563 21.1178
81.7809 49.5893 23.6757
24.8555 23.9848 18.6173
40.6515 19.1753 10.776
34.7455 22.6038 14.265
48.987 25.9269 13.7953
38.4009 31.8433 23.6544
106.388 64.1661 37.6366
38.2665 25.4595 18.0505
24.3101 8.56414 4.07297
29.2739 19.7186 15.5301
63.4541 31.8329 13.0965
31.3054 25.5134 17.2424
48.5695 36.7799 27.9738
104.738 53.2363 27.5502
87.8512 60.4521 38.3614
25.385 11.5375 6.17992
40.2634 26.9994 15.6146
33.6442 22.3446 16.2497
29.911 20.2007 12.1981
25.4499 11.6866 3.97064
10.1476 5.5946 2.44507
44.7879 33.8951 21.6859
35.5982 28.3815 22.8264
31.8466 14.9878 9.92865
33.1036 13.9191 6.2643
28.9642 20.0679 15.1464
20.3021 18.0219 16.1606
48.9103 31.1814 16.0958
26.4587 17.4572 12.0651
12.9718 9.18684 6.33685
25.4668 23.3688 18.7925
56.4604 31.9856 17.0607
41.0444 27.7001 17.4316
33.0107 30.3348 20.7152
24.7009 24.663 24.6058
95.7869 58.3177 32.1939
41.3335 32.2575 23.6697
38.9876 27.4048 18.6437
10.9058 9.33176 9.98804
52.0252 31.5198 17.9081
23.8211 19.6411 17.0078
24.2877 17.844 12.4488
9.17133 6.38297 4.86619
8.07774 4.41363 3.93764
24.9173 19.6239 15.1731
26.4512 19.665 13.077
18.6403 13.8275 10.4788
31.6207 21.1661 15.9173
52.8721 38.9416 24.4925
5.58816 9.97053 12.5898
37.1219 27.7894 20.7271
10.5494 6.72729 10.0693
58.0443 34.6801 16.0147
44.1184 35.745 22.8033
14.249 15.3368 14.4554
21.3946 12.4601 7.87681
16.9115 12.872 9.04298
43.9797 35.875 21.9273
25.7997 31.9613 31.6721
17.2894 11.7322 9.31768
21.0483 34.5324 50.4486
139.008 85.6561 44.1318
25.7672 21.005 15.5898
27.634 20.6488 13.4511
23.2215 21.6461 20.2879
30.7332 26.8561 20.7729
16.6415 15.494 17.1708
41.7144 31.7152 27.4622
32.0768 22.6078 18.4445
51.149 33.8656 19.3594
20.7208 22.5993 18.9137
14.4813 10.7765 8.93197
20.857 14.2437 9.67277
2.83215 2.33652 2.6798
42.4531 37.6642 33.5421
60.2771 56.7327 48.4583
21.3774 9.13367 4.05473
7.7923 8.81012 10.228
30.0662 25.347 20.9078
25.1613 22.7824 19.4738
27.3783 31.0758 31.1391
25.7182 16.6866 13.1167
42.3545 32.6125 21.2214
8.40549 10.3144 9.65839
8.3281 8.81841 11.0087
33.3235 20.7971 15.672
20.5116 12.4394 10.9891
41.4866 37.2695 26.2427
11.9946 22.683 31.3157
38.9908 22.0955 12.577
47.9776 41.1608 32.8441
35.2991 32.8765 31.7639
38.2183 29.2293 21.7557
40.3895 30.7615 23.1674
14.6658 18.1596 19.3021
18.334 15.5367 10.46
68.2156 79.7949 78.7174
29.9643 19.9917 19.5338
12.8797 6.68419 5.61781
9.5362 11.7649 14.012
18.6559 13.5542 12.0758
7.3315 5.25396 4.72116
28.6068 29.9359 25.2844
11.9253 19.2632 28.0112
54.7838 47.6573 43.556
17.3912 9.38579 3.9369
7.21258 3.77368 2.5744
20.77 23.8768 24.2042
31.3791 23.4472 17.0967
64.5668 71.13 63.0195
9.9937 13.8581 21.3806
21.0037 14.9254 10.2028
5.7943 9.55551 17.4079
32.2058 24.1559 14.7448
11.51 14.8898 14.7585
7.2601 6.81578 9.79872
24.7871 21.0461 13.994
15.0294 25.416 35.4745
35.7349 30.8923 24.7819
9.03608 12.9946 16.8375
6.61446 4.00965 10.3535
57.4749 48.5938 37.283
5.2311 6.17297 8.21808
12.7331 19.8913 28.1396
21.9983 15.2182 11.3146
24.8353 28.6266 34.8204
60.4972 66.6289 64.5515
19.1292 9.69838 2.91965
22.471 28.4663 32.4708
18.7897 14.4337 13.6869
29.2518 31.8112 28.1234
4.54408 6.56501 11.1533
19.85 23.4357 26.3195
24.0616 20.9702 17.8744
32.5371 33.8929 27.5384
45.2162 75.4109 97.6683
59.2251 43.2578 37.5099
20.6496 21.9251 27.0483
44.3383 45.5442 43.1929
10.2123 8.56029 8.91917
2.88297 3.87194 8.0758
26.9256 26.0605 16.85
8.16331 16.8098 21.7132
31.1764 39.7224 49.0772
30.7223 28.6686 29.4563
24.6357 33.7676 36.1847
7.79062 8.27286 12.9772
9.70729 9.38804 14.5731
7.22091 1.84355 2.01981
25.6587 28.819 26.5124
11.6673 14.0098 13.1486
10.1727 15.5266 23.5069
24.9445 17.5541 13.034
27.5994 29.3844 23.6499
6.33891 14.4539 23.4585
11.5795 6.59383 4.87542
11.8676 16.4256 22.3961
7.88277 6.84098 4.72601
7.94078 15.0602 21.6599
15.8249 18.37 27.0909
27.6062 29.3876 24.8562
16.3831 31.9098 47.9096
6.29147 4.50417 14.8935
23.5481 14.2061 3.94302
25.773 36.2109 40.254
8.15008 8.35081 11.7202
7.15015 7.38659 11.4893
17.7145 15.2308 10.8929
11.5532 24.1555 39.7993
20.8365 18.885 20.6989
22.935 20.9624 12.983
20.3984 38.0475 48.802
10.989 20.2349 40.7786
39.6909 32.8784 23.3293
18.1188 27.1501 40.567
41.5126 45.3616 48.131
34.5696 44.6919 53.498
14.9768 24.6755 49.1948
31.0719 26.7522 22.38
26.2439 32.8303 40.8702
17.711 24.3654 35.0858
14.1642 12.0269 16.0681
34.2392 41.5148 38.4972
15.3438 28.1141 39.036
14.7898 12.3124 13.3692
8.81257 10.4455 19.5439
27.669 29.8839 29.8925
19.0742 31.2627 41.3059
36.0197 37.5291 36.5006
8.24015 16.6222 24.6073
16.9479 24.4385 34.1551
6.65849 5.5941 8.86156
13.8618 18.8207 26.8172
3.28922 2.46557 6.03111
14.2325 19.3117 28.0632
25.3613 33.1431 38.9755
19.4649 24.8878 33.8034
11.6768 10.9238 15.6156
19.0193 13.3773 8.44254
44.8679 59.5921 64.0806
20.7967 34.3864 47.8483
35.6382 55.9318 82.7828
25.1496 33.3344 52.4459
12.6969 10.0176 20.2737
25.8041 32.3821 36.2577
31.8801 45.2721 64.2198
24.0564 30.1855 38.2505
28.6199 43.4899 54.0283
15.4237 25.7344 40.2246
11.0585 6.54706 13.7289
32.1465 37.8029 32.6777
6.61124 13.7457 19.3558
7.30784 16.0051 32.2302
13.5597 12.2902 20.2283
27.1111 38.5863 53.5335
20.0693 23.2699 32.486
26.1389 36.3308 38.3161
10.6927 23.0183 44.9889
25.7812 24.8053 21.0657
12.1718 19.2646 23.119
3.18725 5.74011 14.0823
14.7451 16.0906 13.6235
6.36769 23.3325 52.473
24.0726 22.5168 24.9328
17.9345 23.3998 27.8296
11.0734 15.1754 16.4663
13.1389 30.8432 57.1809
19.6378 17.6633 15.3855
4.7611 6.40307 11.8439
16.5645 24.805 29.1268
2.07756 2.7187 7.43414
11.6227 18.1018 25.7537
23.7619 36.5247 48.4338
5.74762 5.32485 10.1468
7.63605 18.309 35.701
26.9604 43.7366 71.9193
17.5987 11.6813 4.65855
16.1712 38.3887 77.5978
44.0063 50.7651 50.4274
7.27398 13.3388 23.4225
7.31836 14.1526 26.9423
7.55518 5.96515 9.59889
13.7086 19.4461 22.4583
20.0433 36.3539 52.833
11.3704 20.2638 49.6395
21.4129 25.7552 24.3256
1.554 4.99659 16.6328
5.5269 10.8561 32.9149
32.3 43.4036 54.3502
22.5335 31.6026 31.738
11.7917 18.3204 26.406
22.1855 30.599 31.2555
5.45918 10.4679 17.3764
20.1691 44.1 79.9052
16.9063 22.1346 33.387
10.4158 16.4731 21.9598
13.7036 29.5856 49.7163
5.32501 4.4164 12.3911
4.60973 2.64811 6.08296
7.16535 8.71409 11.0767
8.89566 13.0262 17.0467
8.2636 12.4235 15.4287
5.60994 21.4401 57.3623
18.4445 12.2482 9.74662
25.8942 47.9268 74.2622
9.26417 9.52551 19.2401
14.4505 21.2129 24.1797
4.04002 6.19452 12.2414
9.95907 18.9534 26.6619
2.82227 2.75878 5.6229
7.47165 13.9968 20.3696
2.3776 4.93794 17.4763
13.3201 20.5054 27.27
4.17299 12.5715 43.9536
30.885 41.5868 43.2516
17.5626 41.5101 75.9146
9.91412 10.384 29.1526
30.745 41.2787 42.0502
6.76906 21.2044 50.3572
14.5591 25.9841 56.2945
13.4926 10.8513 20.1833
18.4183 20.8021 17.5498
11.5443 16.9255 24.1355
14.6518 19.5838 16.5029
8.44241 27.1286 54.9099
10.86 16.8304 36.9973
16.7245 24.2055 37.044
8.86828 12.2163 15.3573
8.35027 16.4046 27.7151
12.8801 19.5087 30.2867
6.89513 10.5684 19.767
12.6834 26.2387 48.4376
16.7883 32.7604 48.9709
10.2723 19.0455 34.3547
2.824 3.66317 19.9412
16.873 20.8503 21.1651
2.18712 7.98525 24.401
8.07057 10.3947 37.6946
32.8642 36.774 28.7503
6.33424 16.0035 26.7656
4.30957 10.0714 33.1688
21.2044 35.1403 41.5185
6.74974 12.3697 14.8858
3.77024 16.516 50.0758
11.5776 15.3842 17.9869
5.5345 9.31808 19.3373
4.52318 10.2921 21.5257
8.26725 8.95386 8.80211
4.12696 15.2358 42.553
9.82088 11.9267 21.2075
8.94872 15.6437 20.8813
4.87203 6.89019 18.8658
24.0519 50.9545 78.5981
13.0167 26.1355 57.3863
10.1826 11.6652 17.985
9.92262 27.4483 63.1917
16.3583 16.7048 23.1169
9.67441 14.1162 18.6583
5.87943 12.7062 28.3246
16.1607 23.7451 27.4477
8.90688 20.1322 28.483
3.74056 21.0114 70.322
26.9377 42.4913 67.5659
21.5258 41.3095 61.048
5.99711 8.95684 12.188
1.49122 8.06266 26.0133
10.3313 16.1297 27.3083
8.6663 17.3261 33.5917
11.6967 21.8117 32.1921
7.11746 17.4255 39.8589
10.0768 15.7748 20.1309
4.13947 16.9323 48.9299
19.7726 50.6792 127.878
21.6687 18.1751 9.37679
3.87503 6.50246 16.3092
10.1032 22.9091 64.5287
19.0047 20.4486 12.168
8.12471 20.0171 24.8944
5.9288 19.9098 46.4774
9.87203 17.0949 29.9386
11.1114 20.5943 32.5943
4.73048 12.7507 27.1493
5.05348 12.7301 39.8203
15.1542 36.9948 92.7061
32.5189 37.2749 29.6484
7.32547 23.2747 55.6475
14.7192 30.4441 50.1476
6.61523 18.9134 61.7489
16.5981 22.056 35.4116
13.2817 23.478 33.8139
8.40592 21.0836 47.7939
19.1313 38.8688 73.1761
14.4054 25.7112 41.7215
2.7766 5.94356 28.4171
11.3608 22.3929 32.3982
8.79583 17.6211 42.675
15.8389 32.0032 67.3087
13.9697 28.5046 52.824
11.5385 13.5264 11.9478
6.34076 23.9205 60.6173
10.0143 13.2613 27.3272
11.027 19.4536 25.2813
10.3415 34.65 78.8277
10.5514 16.4364 38.5475
16.3248 32.7142 68.9038
8.75905 11.12 13.2872
4.36306 11.9675 26.3684
7.05568 12.0751 15.9612
1.50343 1.89281 6.02348
7.98665 23.4273 37.4853
1.69038 11.485 46.5317
15.7712 25.6479 38.6416
6.45144 11.234 27.2292
9.25591 27.0774 61.8841
8.9746 14.4684 36.1734
13.4981 25.2911 38.8618
2.21156 4.9506 21.2345
8.82 18.1913 37.2628
8.88523 18.8356 42.0555
12.7239 23.9141 42.8644
11.5492 28.8453 58.278
3.69505 7.02449 39.8072
14.0553 19.7933 18.4095
2.46846 5.47542 14.2547
6.43186 17.811 44.348
9.78671 16.4633 39.1437
17.093 31.4635 50.7167
11.6303 33.6946 74.4941
9.10253 12.8465 22.3373
1.69627 5.07308 29.0684
10.3315 12.4435 13.2986
10.1292 25.8141 48.1173
4.54296 6.97793 13.3614
6.84022 17.2651 33.5582
4.62099 16.4389 51.9321
9.45582 20.5195 46.4517
15.6895 32.0366 64.2316
4.7317 8.08797 22.4151
8.57604 15.8994 24.3516
2.1399 3.82754 14.1079
7.70237 25.8419 59.4264
11.8996 23.453 54.6396
8.60134 12.8456 20.0444
6.27785 15.5772 32.6724
5.85204 11.6976 33.0752
5.26529 10.6589 21.1502
8.79435 25.924 61.1197
9.01917 19.2227 49.085
11.5084 9.6532 5.72974
13.0866 40.3279 85.4908
9.49252 24.2235 76.7884
15.7355 28.0023 39.2588
4.11703 4.96033 11.7014
9.7967 27.5165 59.3953
11.0733 23.7881 59.4884
10.0337 18.4164 38.8286
11.8896 28.7113 61.5432
6.76341 12.6234 21.3689
4.98235 16.8293 40.8283
5.47491 13.9876 37.3189
2.88274 1.72872 19.9196
7.42221 12.9591 21.1121
3.41579 5.95652 31.8543
17.4783 37.0531 29.0843
2.07678 21.8521 60.4276
7.40448 13.1603 29.3934
9.34783 21.1548 32.0301
1.78239 17.4284 69.6412
6.4922 9.69061 34.2966
7.93389 13.1696 25.5114
7.93009 15.4543 29.5774
11.6342 27.938 47.6463
7.46038 27.2358 74.5642
11.9973 21.9377 47.8189
4.71065 10.9189 29.9826
8.59239 24.6152 60.4472
10.6909 29.1772 88.8262
14.0831 25.2737 68.5364
18.3988 37.4279 47.5399
3.20023 15.1602 63.0111
15.2827 29.7563 56.8998
7.25398 20.0088 66.4969
19.5408 35.1128 43.4128
2.32152 11.8044 44.9924
7.21345 10.6621 13.9867
1.24667 4.18174 29.803
13.2653 30.7908 53.6684
2.92421 6.10075 11.4101
1.18204 5.61197 31.6726
14.9137 34.9356 53.295
3.0906 20.6467 82.3432
12.2436 12.4038 13.5086
4.81097 18.678 50.0712
4.95251 11.0001 39.0425
4.7171 6.10672 33.7933
11.4031 19.9693 26.7369
7.19628 15.0523 28.8673
1.51496 4.37302 18.1266
2.81976 3.03323 28.4705
12.0698 24.3298 25.3231
2.60885 14.9616 48.4981
9.69853 25.3457 43.4415
3.00995 3.10427 6.25081
4.71369 17.6437 37.2323
2.64701 4.41088 18.1139
4.19354 12.6635 36.4611
7.30626 19.8158 40.9201
3.23768 3.54034 15.6946
5.08265 16.0178 55.1535
