# pn-170911/RbIIR-48-RbIIF-1280-1959.psd
# Power spectrum* (dif=0,1,2) (really just |FT|^2)
# NOTE: only the first half! (symmetric)
# weeks: 1280-1959
# 2445 clock-days, 102 excluded
# PSD: 1441
843.295 0.180947 0.0259487
36071.2 0.682296 0.043288
169734 4.45894 0.0438107
23065.5 0.837584 0.0432348
83366.9 7.10001 0.0449223
8284.59 0.75395 0.0441816
8351.91 1.57254 0.0429544
4105.4 0.712709 0.0434803
4412.7 1.30176 0.0431387
2711.76 0.678083 0.0427119
2408.63 0.907422 0.0429177
1719.99 0.69738 0.0441325
1753.61 0.893775 0.0448312
1286.96 0.725936 0.0443261
1113.78 0.82056 0.0436838
1006.51 0.772194 0.0446637
891.36 0.888956 0.0452325
737.037 0.782789 0.0447485
772.946 0.92344 0.0452069
652.925 0.83982 0.0437649
626.239 0.924592 0.0480266
578.219 0.911124 0.0455711
510.753 0.941915 0.0444943
515.141 1.02957 0.0458454
477.547 1.02307 0.0455284
430.652 1.01492 0.0460145
429.246 1.13518 0.0474195
396.705 1.09339 0.0454716
403.713 1.22155 0.0494219
368.491 1.21807 0.0480067
375.579 1.37383 0.0510151
373.404 1.39355 0.0509352
351.626 1.42481 0.0518247
317.2 1.3941 0.0525081
314.15 1.47967 0.0525657
316.487 1.61497 0.0530152
317.509 1.68823 0.0568556
298.675 1.68761 0.0540234
314.156 1.84159 0.057562
294.994 1.86665 0.057605
314.925 2.04368 0.0613903
278.775 1.9718 0.0585334
284.722 2.04802 0.0634306
283.158 2.24552 0.0644342
287.204 2.3073 0.0646854
276.712 2.38629 0.0647828
269.602 2.44455 0.0705741
279.19 2.6355 0.0707328
261.637 2.63171 0.0755388
260.663 2.66524 0.0736923
255.572 2.79578 0.0796217
255.566 2.84742 0.0790404
263.141 3.07586 0.0824434
254.665 3.10263 0.086283
249.801 3.1516 0.085447
254.41 3.38307 0.0924159
248.349 3.40275 0.0949662
250.753 3.55888 0.0964649
251.076 3.7204 0.104344
234.66 3.57896 0.100988
252.18 4.00649 0.108244
240.426 3.90061 0.110745
247.912 4.17166 0.124822
241.631 4.29897 0.126043
234.288 4.28662 0.128071
228.599 4.38408 0.132062
234.75 4.57387 0.138054
229.1 4.6045 0.145848
223.691 4.52473 0.148998
233.975 4.9333 0.153872
219.03 4.78826 0.154169
210.229 4.73033 0.152526
224.855 5.17784 0.171471
204.346 4.90647 0.169408
225.185 5.48483 0.184508
213.16 5.35251 0.187416
209.659 5.38835 0.187966
210.74 5.61591 0.200847
223.646 6.06998 0.220174
204.867 5.74921 0.209566
200.39 5.81168 0.224544
202.179 6.03365 0.23042
197.824 6.05729 0.242803
202.443 6.37893 0.25179
192.895 6.24179 0.251815
194.601 6.40985 0.262267
187.758 6.27164 0.264163
195.221 6.62729 0.278573
184.739 6.52134 0.285311
186.49 6.76468 0.295287
193.845 7.16185 0.316773
189.829 7.17492 0.319155
180.855 6.99781 0.326737
179.813 7.09345 0.327266
177.756 7.08178 0.337565
181.227 7.36239 0.351984
230.223 9.77286 0.462998
174.707 7.45259 0.36935
163.913 7.15415 0.368867
167.041 7.35957 0.378867
171.235 7.78852 0.41285
172.374 8.03063 0.423252
181.665 8.57491 0.462951
171.296 8.128 0.444247
160.177 7.87639 0.445694
175.372 8.68301 0.483687
160.795 8.13854 0.476882
162.181 8.57152 0.507962
161.784 8.51206 0.505173
160.348 8.75955 0.537242
151.448 8.40564 0.523924
149.41 8.3933 0.53229
147.633 8.53499 0.540388
159.973 9.48525 0.611635
166.2 9.99997 0.661711
143.539 8.76487 0.593356
151.517 9.3482 0.626162
149.542 9.3841 0.643521
149.479 9.51907 0.663309
150.692 9.8196 0.713676
150.024 9.90086 0.707045
140.876 9.43509 0.696957
132.482 9.1224 0.684437
145.092 10.1646 0.767891
144.897 10.2261 0.775805
142.118 10.2203 0.795432
145.518 10.6495 0.835431
141.785 10.3999 0.828486
128.616 9.68205 0.785278
136.304 10.3642 0.848953
133.651 10.2983 0.863702
139.012 11.1296 0.95178
139.036 11.0266 0.939008
139.567 11.2983 0.965554
131.022 10.8004 0.950319
129.35 10.8393 0.980744
130.277 11.0265 1.00215
129.575 11.0713 1.01861
131.349 11.4945 1.07699
122.887 10.9688 1.04025
128.055 11.5555 1.10808
122.42 11.1346 1.08001
122.163 11.2481 1.10749
124.508 11.7126 1.16006
130.344 12.5879 1.27663
126.293 12.1895 1.23792
121.096 11.8719 1.2262
121.946 12.1698 1.27379
122.444 12.481 1.32802
121.844 12.2692 1.31349
118.903 12.3167 1.3316
121.516 12.5173 1.36151
113.129 11.9404 1.33325
119.479 12.7554 1.44156
119.957 12.9927 1.47598
119.004 13.0695 1.51534
120.728 13.3803 1.55209
109.968 12.4483 1.46658
110.649 12.6501 1.50969
107.001 12.2757 1.48467
108.897 12.8333 1.56957
114.38 13.6989 1.71191
103.98 12.4939 1.57383
110.765 13.4796 1.71848
114.146 14.032 1.80036
109.151 13.687 1.78109
104.567 13.1667 1.7222
108.44 13.9777 1.8657
106.66 13.861 1.87158
102.939 13.3637 1.80425
104.808 13.8437 1.88652
107.61 14.4344 2.01734
104.509 14.1995 2.00274
97.3465 13.2851 1.88786
103.1 14.374 2.07296
102.85 14.4916 2.10299
96.6338 13.7067 2.02648
97.099 13.9835 2.08582
99.2688 14.437 2.19128
98.9173 14.4151 2.16998
99.1208 14.6395 2.24013
100.809 14.933 2.3132
95.9856 14.602 2.29276
98.9044 15.0461 2.40483
96.7008 14.7725 2.37995
95.4696 14.8064 2.41357
99.1642 15.6308 2.53665
93.6594 14.7279 2.40811
94.5019 15.2753 2.56776
94.7604 15.1901 2.5606
93.5628 15.5685 2.65214
95.2174 15.6893 2.72566
117.477 20.0901 3.47019
90.4483 15.1834 2.66197
95.1629 16.7035 2.98825
91.4802 15.9206 2.84715
91.1512 16.0652 2.90495
90.3924 16.0158 2.91967
90.8566 16.461 3.06044
88.7845 16.2698 3.06657
84.3405 15.448 2.92235
87.1803 16.2197 3.12771
87.4774 16.3105 3.11027
87.918 16.6505 3.23933
90.7826 17.4555 3.40239
83.2438 15.8975 3.11243
83.5668 16.2274 3.22267
86.7224 16.8773 3.39466
85.4968 16.9445 3.45192
84.4966 16.9735 3.50469
88.016 17.6734 3.66974
85.0953 17.3709 3.62054
78.2764 16.0679 3.40262
78.6259 16.3648 3.51913
82.0868 17.3166 3.75388
81.5976 17.4767 3.82354
85.5841 18.0178 3.87855
81.7104 17.668 3.90912
77.682 17.0658 3.81239
79.0961 17.3895 3.91601
79.8559 17.8934 4.09688
76.3349 17.0527 3.86662
79.3861 18.157 4.21495
77.2853 17.4342 4.04246
76.7382 17.6206 4.12388
76.3409 17.7198 4.20892
77.463 18.1946 4.35685
78.5593 18.5784 4.49568
80.3475 19.0923 4.65868
76.2918 18.2427 4.46037
72.8009 17.6517 4.35781
75.4153 18.1689 4.48604
73.5142 18.2105 4.58704
75.6882 18.8575 4.78598
75.6966 18.8951 4.79121
72.0627 18.3286 4.75728
73.4057 18.5387 4.78246
70.7611 18.1479 4.79093
71.4908 18.6362 4.9481
71.9308 18.66 4.97483
72.8482 19.0956 5.13725
71.9088 18.9903 5.12038
70.4207 18.9323 5.20991
72.5124 19.604 5.41513
71.5884 19.3624 5.29612
69.0399 19.065 5.35477
70.9442 19.6639 5.54057
68.8629 19.0853 5.43432
68.0436 19.2182 5.5122
66.2889 18.7172 5.43301
68.5563 19.4772 5.63261
68.4183 20.0124 5.85635
65.8752 19.1656 5.65442
71.3539 20.8442 6.15627
68.1644 20.0545 5.99504
65.1129 19.5066 5.94403
65.2639 19.3268 5.86164
64.4142 19.4971 6.02772
64.4748 19.4893 5.96423
64.0402 19.7045 6.16497
63.6538 19.5965 6.16335
65.9697 20.2343 6.33635
63.8518 20.0102 6.39058
64.9542 20.56 6.60035
64.003 20.2165 6.54646
66.61 21.238 6.86376
62.1911 20.1277 6.56715
61.799 20.0873 6.66522
60.6852 19.9457 6.66775
61.9247 20.3469 6.80624
60.7498 20.249 6.87648
64.2963 21.2081 7.13275
60.4557 20.3226 6.94531
60.9984 20.8574 7.26353
59.9372 20.5017 7.15076
60.5232 20.7458 7.27604
63.5636 22.0385 7.71025
58.7425 20.5457 7.33227
60.5714 21.1917 7.54811
56.9674 19.9955 7.088
57.4087 20.6318 7.56439
57.6204 20.5278 7.45602
58.4652 20.9106 7.71573
58.4961 21.0811 7.74012
59.3641 21.4282 7.94757
58.2432 21.1049 7.79273
56.5083 21.1906 8.16361
56.7234 21.2344 8.17988
81.6492 30.02 11.0824
57.8421 21.8047 8.37155
54.4287 20.3369 7.95959
56.8256 21.6805 8.46675
54.8305 21.0259 8.29192
56.4556 21.892 8.65378
56.1694 22.0213 8.83152
54.8096 21.4712 8.5846
55.526 21.6832 8.59777
52.0148 20.8698 8.53449
53.0359 21.4057 8.78142
53.5512 21.7626 8.99732
53.2586 21.4922 8.87724
52.8002 21.6345 8.95167
52.3205 21.7643 9.10419
52.7649 21.9539 9.31181
54.0479 22.5936 9.52088
49.6826 21.1177 9.12991
54.461 22.935 9.83752
51.65 21.682 9.33157
49.975 21.5327 9.46436
52.0729 22.2616 9.75181
51.4566 22.2094 9.76803
51.539 22.6998 10.114
51.6118 22.5057 9.95562
50.7461 22.518 10.0446
50.4578 22.7138 10.2614
52.1896 23.3045 10.587
49.3518 22.1783 10.1591
49.9666 22.5755 10.2662
46.9509 21.5648 10.0865
49.2842 22.7548 10.6349
45.8133 21.0962 9.97415
48.2666 22.2573 10.4303
46.884 21.9824 10.5237
49.2345 22.903 10.8157
48.6419 22.9411 10.9566
47.4818 22.6014 10.9919
47.9522 23.0155 11.1946
47.1627 22.6523 11.0094
45.6167 22.1109 10.9328
46.7219 22.6357 11.0921
44.2136 21.794 10.9261
47.6781 23.5315 11.6822
46.4739 23.1805 11.7436
46.3265 22.9277 11.57
44.4654 22.2182 11.3015
46.0287 23.1116 11.7245
42.971 21.734 11.2608
45.8404 23.0666 11.8563
44.4596 22.6506 11.7453
44.9461 23.1112 12.1594
44.9306 23.0186 11.9225
43.8674 22.9517 12.1225
45.4026 23.8163 12.6415
43.8994 23.3305 12.5862
43.7777 23.1142 12.5203
42.8627 22.5315 12.0553
42.5518 22.6952 12.3363
43.4289 23.7214 13.0703
42.132 23.0616 12.8138
43.4073 23.5999 13.0923
43.9786 23.3797 12.7453
41.0287 22.7 12.7926
42.9131 23.9394 13.5784
41.194 22.5198 12.6066
40.5347 22.414 12.6947
41.6019 23.2201 13.2005
41.8243 23.9226 13.8252
41.5593 23.5244 13.598
41.098 23.2254 13.407
39.7115 22.6321 13.1805
40.877 23.8034 13.9722
40.8941 23.6566 13.8656
40.1651 23.5376 14.0678
41.5068 23.9547 14.1732
41.4591 24.5956 14.7422
39.953 23.1214 13.7123
37.0878 22.2106 13.5616
39.8821 23.8986 14.4571
39.8576 24.1092 14.8033
38.5934 23.3264 14.2465
38.8473 23.8186 14.7438
39.5523 24.298 15.1138
37.1594 22.809 14.3712
38.7562 23.9925 15.1536
38.8279 23.9985 14.9564
37.8085 23.4388 14.8377
40.0537 25.0102 15.7731
37.1549 23.7035 15.3308
38.2274 24.0367 15.3571
36.9564 23.6179 15.2578
36.3365 23.1196 15.0876
35.8296 22.7721 14.8495
37.1684 24.1709 15.9243
36.0294 23.6933 16.2986
50.5634 32.2777 20.1251
36.8838 24.2196 16.0639
36.3834 24.4674 16.5494
37.0719 24.4152 16.4576
35.484 23.744 16.222
36.1747 23.7486 16.0378
35.7062 23.9413 16.3817
35.9474 24.1862 16.6069
35.2739 23.5442 16.0981
34.956 23.6894 16.5064
34.809 23.4142 16.3003
35.8852 24.6531 17.137
34.1153 23.5535 16.623
35.0689 24.4667 17.328
35.1237 24.05 16.9035
34.7408 24.4272 17.2716
33.5426 23.7838 17.2014
33.5861 23.4688 16.8228
34.6049 24.5587 17.6736
32.2187 22.7482 16.6227
34.4813 24.7115 17.8485
34.2857 24.8293 18.2661
34.176 24.8703 18.3801
33.8211 24.2939 17.9455
34.3693 24.6599 17.9912
33.3551 24.5611 18.2618
32.8121 24.336 18.2323
32.8308 24.3315 18.4174
33.0181 24.4404 18.2349
31.4763 23.5351 17.9273
32.2985 24.5666 18.9046
32.1816 24.1874 18.6406
32.3316 24.3649 18.689
30.8886 23.3927 18.0226
30.8472 23.4296 17.9589
29.4601 22.9799 18.3587
32.2317 24.8017 19.3356
32.2619 24.4562 18.8179
30.6574 23.8396 18.7786
29.921 23.7112 19.1355
31.9644 25.065 19.8515
30.0272 23.8805 19.4516
30.8513 24.0359 19.0615
30.5235 24.5031 19.9553
30.3732 23.7288 19.0427
30.009 24.1635 19.7784
29.4604 23.6663 19.3109
29.5799 23.8614 19.4842
29.2343 23.8676 19.8259
29.8648 24.0251 19.7469
29.9016 24.5288 20.4062
29.05 23.9765 20.0269
28.7683 23.7166 19.7909
28.5159 23.6422 19.9442
29.8901 24.9343 21.0558
27.7411 23.0058 19.5405
28.973 24.4029 20.6713
28.3013 23.9756 20.7894
28.655 24.028 20.6698
28.5333 24.0831 20.7442
28.7386 24.4076 21.0476
28.3677 24.1765 21.0067
28.8014 24.7826 21.6232
28.8402 24.9727 21.9587
27.5718 23.8974 20.9703
27.2341 24.1867 21.7024
27.9505 23.7983 20.8953
27.1324 24.1986 21.8059
28.1043 24.5937 21.8208
27.1117 24.0416 21.7154
26.3169 23.2218 21.1055
26.5594 23.7242 21.5731
26.4185 23.4825 21.4313
27.1812 24.5108 22.5368
26.5561 23.6669 21.7673
26.6382 23.7318 21.5866
26.5237 24.1592 22.1726
26.5708 24.6366 23.1357
26.3863 23.9576 22.2389
26.0694 24.0317 22.6196
26.5099 24.3069 22.813
25.454 23.5921 22.4354
27.4521 25.7262 24.3076
25.108 23.3525 22.3926
26.0755 24.2961 23.0401
26.5226 24.9633 23.6659
25.3013 23.9836 23.4784
25.6538 24.0509 23.046
24.8983 23.5264 22.7795
25.4742 24.414 23.7311
24.4906 23.7886 23.666
25.1702 23.7305 23.0321
24.8251 23.8086 23.2816
24.7429 24.097 23.9895
25.322 24.7491 24.7138
25.183 24.6693 26.0118
36.8835 35.6112 32.9578
24.584 24.4872 24.8213
23.4993 23.3463 23.9627
24.3443 23.9838 24.1082
23.5522 23.7469 24.3307
23.8602 23.8117 24.3162
24.2071 24.2702 24.8943
23.8381 23.9876 24.6585
24.4788 24.6173 25.153
23.41 23.7782 24.5853
23.4818 23.7357 24.548
22.5248 23.172 24.1292
23.444 24.2021 25.3534
22.9268 23.5992 24.9866
23.6914 24.3903 25.4307
22.4951 23.6943 25.4589
23.4086 24.1472 25.0844
21.8321 23.1679 25.2365
22.5146 23.5939 25.0527
22.8508 24.1346 26.0273
22.9363 23.7997 25.21
22.0547 23.6815 25.7278
22.6925 23.9163 25.6736
21.7583 23.6312 26.2088
22.6055 24.0436 26.1212
22.4665 24.0634 26.3328
21.5877 23.2868 25.5658
22.092 24.1661 26.6365
21.6836 23.7031 26.2733
22.197 24.2966 26.9723
21.6946 23.8042 26.7677
22.2304 24.0147 26.5288
20.8127 23.3824 26.771
21.9546 23.6898 26.368
21.1686 23.6815 26.877
21.1833 23.3826 26.4938
21.0352 23.5361 26.7604
20.9589 23.9238 27.5541
21.2864 23.8977 27.4114
21.2708 23.9866 27.2799
20.6785 23.6789 27.6628
21.155 23.8025 27.4832
20.8628 23.6919 27.4362
20.9294 23.8206 27.52
20.3024 23.5897 27.7352
20.7537 23.9292 28.3708
20.6388 23.6951 27.9063
20.3563 23.2997 27.7392
21.2275 24.7011 28.9819
20.4766 24.0191 28.4802
20.2825 23.7433 28.4577
19.9579 23.5878 28.5851
20.413 23.9303 28.5424
19.9145 23.646 28.3708
19.3666 22.9754 27.9434
20.1829 23.9232 28.6935
18.8035 22.9048 28.4634
19.5717 23.0011 27.4694
19.16 23.6239 29.4014
19.1579 23.2194 28.6159
18.8571 22.8379 28.5664
19.6569 23.948 29.4641
18.8763 22.8744 28.7131
19.5439 23.9502 29.6695
19.1837 23.3358 28.7714
19.1267 23.5666 29.1755
18.8876 23.6904 30.011
18.5422 23.1318 29.3102
18.7216 23.4235 29.7111
18.7961 23.2249 29.4389
17.6225 22.0295 28.3633
18.6911 23.2117 29.3104
18.0767 23.2834 30.3222
18.8382 23.4087 29.6449
18.3406 23.4229 30.0918
17.9654 23.4089 30.7602
18.2574 23.5068 30.9268
17.7637 22.5062 29.4765
18.1175 23.197 30.4796
18.2365 23.7418 31.2214
18.1462 23.4571 30.7867
17.8581 23.0833 30.6625
18.1832 23.4983 30.8027
17.9502 23.3644 30.9107
17.382 22.8097 30.8425
17.8499 23.5429 31.5767
17.6175 22.91 30.6762
17.4001 22.9597 30.8695
17.8717 23.2887 31.3754
17.6324 23.3198 31.271
17.4447 23.1455 31.48
16.662 22.4905 31.3214
17.5583 22.8121 31.0358
17.0968 22.8692 31.0272
17.0892 22.7402 32.2731
17.632 24.3876 36.4115
25.3568 32.6219 40.4246
17.6939 24.1377 33.4198
17.5371 23.8182 33.1978
17.1872 23.7549 33.1424
16.8734 22.9801 32.3706
16.7387 22.8834 32.1358
16.5951 22.8932 32.5046
16.065 21.9174 31.2364
17.548 24.532 34.0796
16.2212 22.3673 31.7701
16.1416 22.2598 31.2077
16.4042 23.2038 33.2488
16.4281 23.1168 33.1069
15.8584 22.0719 31.7099
15.4658 21.8723 31.7955
15.946 22.1791 31.4104
15.4464 22.5983 33.4959
16.2112 22.8877 33.2028
15.7609 22.7082 33.4293
16.112 22.909 33.3009
15.4733 22.1388 32.5396
15.4582 22.3426 32.8696
15.051 21.7501 32.0779
15.1984 21.9888 32.425
14.9609 21.3826 31.6391
15.4475 22.9129 33.618
15.0345 22.1959 33.6825
15.3879 22.6075 34.05
15.3335 22.0845 32.8478
14.6161 21.7073 32.9795
15.8402 23.359 34.8495
15.0494 21.9714 32.822
14.393 20.9506 31.7803
14.8451 22.1754 33.5459
14.7057 22.1712 34.3804
15.0322 22.0916 33.5153
15.0419 22.5556 34.0842
14.6711 22.1284 34.2356
14.7657 22.6011 35.7976
15.4652 22.8373 34.4765
14.9303 22.7218 34.7365
14.0227 21.3762 33.7674
14.4428 22.0037 34.4374
14.6786 22.0607 34.1226
14.4997 22.5551 35.1896
14.0597 21.5191 33.6922
13.9282 22.0648 35.6827
14.4946 22.391 35.6346
14.699 22.497 35.0415
13.8269 21.3117 33.7786
13.686 21.5897 34.651
14.2528 22.0521 34.9026
13.8587 21.8099 34.7026
13.8636 21.7923 34.9631
13.7462 21.8443 35.4527
13.8392 21.5625 34.8075
13.6927 21.5954 34.7651
13.313 21.0665 34.0432
13.6044 21.8393 35.5242
13.5119 21.4602 34.7573
13.8653 22.3258 35.9218
13.1072 21.238 35.074
13.2863 21.165 34.8597
13.3433 21.75 35.8017
13.3754 21.8369 36.2171
13.4934 22.0438 36.7168
13.4199 21.4439 34.9466
12.8861 21.5697 36.6365
13.4152 21.7899 36.5079
13.0801 21.4741 36.0303
13.1314 21.6529 36.5281
13.1075 21.3522 35.797
13.0292 21.2351 35.893
12.9125 21.3275 35.9358
12.497 20.7219 35.5114
13.2029 21.741 36.472
12.5523 21.0956 36.0436
12.6154 20.9116 35.4149
12.255 20.7555 35.9495
12.4216 20.7812 35.6804
12.5477 21.1494 36.4844
12.4869 20.5425 35.4009
12.9961 22.4352 38.3533
12.1208 20.4392 36.0098
12.8109 21.5147 36.679
12.4118 21.2394 37.0908
12.3937 21.2142 36.8677
12.1639 20.9542 36.9251
11.9647 20.4387 36.3617
12.5441 21.4342 37.1079
11.9873 21.0108 37.1237
12.0404 21.037 37.2875
11.7728 20.5618 37.2574
12.4345 21.903 38.7599
12.0312 21.1447 38.3573
11.7364 21.265 43.6569
18.7518 31.3173 48.2836
11.8493 20.6114 37.0774
11.6986 20.9482 37.7225
11.7562 20.9927 38.5132
11.8901 21.0494 37.5773
11.4805 20.4811 37.5566
11.9169 21.4919 39.0376
11.6417 20.5783 38.0122
12.1341 21.3646 38.4806
11.4219 20.4569 37.6133
11.3489 20.2288 37.5717
11.565 20.3753 36.6827
11.2232 20.4133 37.4585
11.1226 20.5177 38.7561
11.2607 19.8109 36.2001
10.9421 20.0179 37.8137
11.0942 19.78 37.1891
11.5411 20.9749 38.9853
11.679 21.1289 38.8289
11.2511 20.7631 38.7992
11.1581 20.7333 39.1627
11.0905 20.0449 37.3436
10.9243 20.5167 39.2116
11.009 20.3604 38.9043
11.3896 20.4697 37.9215
10.5432 19.7197 38.3724
11.0548 20.1737 38.2033
11.1118 20.3767 37.8924
10.7678 20.4095 38.5912
10.3842 19.6674 38.2062
10.6108 20.0604 38.8574
10.6213 19.603 37.9503
10.8288 20.4925 38.9828
10.4258 19.8516 39.0667
10.6311 19.5849 37.3782
10.2268 19.5421 38.9729
10.8893 20.4795 39.5596
10.7134 20.3317 40.0906
10.8478 20.1902 39.0113
10.8664 21.1831 41.6156
10.8228 20.1046 38.3507
10.166 19.6616 38.6468
10.3484 20.0499 39.8088
9.88599 18.903 37.7061
10.0936 19.7784 39.1938
10.0403 19.3574 38.4124
10.1711 20.0626 39.8793
10.0007 19.6673 40.4508
10.8006 20.6964 40.5966
10.1423 19.5343 38.744
9.90924 19.2539 38.4289
10.0686 20.0858 40.4938
9.7411 19.0154 38.907
10.2595 19.8513 38.8297
9.77635 19.8857 40.8244
9.87302 18.997 38.2799
9.65318 19.4811 39.8108
10.0006 19.9721 40.2374
9.48664 19.245 40.3181
9.82797 19.2135 38.7963
9.52794 19.0683 39.1146
9.56281 19.5529 41.3607
9.82409 19.4354 39.7965
9.84599 19.8425 40.7558
9.45835 18.9897 39.1494
9.44499 19.1183 39.1985
9.27657 19.0398 40.1185
9.39772 19.1799 40.3763
9.74547 19.6454 40.2033
9.22241 18.8502 39.4789
9.28743 19.4067 41.4037
9.46017 19.2172 40.7784
9.8341 20.0126 41.5015
9.30977 18.9257 39.9547
9.22302 18.9496 40.1598
9.50309 19.3541 40.2512
9.47813 20.3211 42.6227
8.9111 18.5801 40.476
9.23355 19.1488 40.546
9.05604 18.6646 40.0555
9.10731 19.2185 40.8209
8.82564 18.0541 38.5428
8.8448 18.4475 39.8427
9.22596 19.0997 39.0819
8.5425 18.7216 41.4354
9.04063 19.0246 40.6588
8.71099 18.6675 40.8546
8.83714 18.429 39.8857
8.67502 18.4914 40.3334
8.31958 17.3738 38.1814
8.77682 19.0165 40.7995
8.53716 18.7857 42.0441
8.7027 18.7521 41.9402
8.99076 18.8031 40.8131
8.76561 19.1869 42.5294
8.53954 19.1039 50.8283
13.5353 27.1842 49.6008
8.94981 19.7991 42.117
8.10359 17.993 40.4467
8.26949 17.9369 40.0379
8.40498 18.6759 42.2138
8.54852 18.4132 40.834
8.50474 18.2645 39.7492
8.18482 18.4892 42.503
8.76989 19.2076 42.4792
8.38224 18.4274 42.4251
8.81155 19.1581 42.52
8.43286 18.3905 40.7364
8.19892 18.2974 41.8732
8.44284 18.2747 41.0042
8.18995 18.3183 41.9609
8.41372 18.6595 42.6762
8.47875 18.646 41.7091
7.98229 17.8042 41.0941
8.13184 18.0983 41.214
8.12821 18.3246 42.8557
8.24495 17.7262 40.1375
8.04091 18.255 42.8472
8.2795 17.9811 40.7655
8.15979 18.2334 41.1122
7.84309 18.131 42.6241
8.45392 18.6846 42.1775
7.85894 17.9517 41.4731
7.61951 17.4143 41.067
7.98016 18.3797 42.6427
7.62185 16.8704 39.532
7.63026 17.4952 41.2023
7.72423 17.7088 42.1261
7.60367 16.9149 39.5224
7.56178 17.4477 41.2443
7.68242 17.7034 41.573
7.66409 17.3857 40.7252
7.45475 17.1295 40.1437
7.48738 17.7191 43.157
7.80182 17.4762 40.5671
7.32011 17.0441 41.5417
7.7342 17.8476 42.4194
7.51465 17.1137 41.1224
7.71491 17.94 42.937
7.6411 17.3812 41.0998
7.47784 17.6481 42.1928
7.10863 16.0886 39.2623
7.20518 17.0138 41.9148
7.77296 18.095 43.1785
7.61966 17.8882 43.1724
7.50541 17.1888 40.5386
7.0537 16.8785 41.7688
7.41496 17.5022 42.6867
7.32783 16.6148 39.8946
7.27792 17.3007 42.0897
7.15648 16.6943 40.9588
7.35336 17.4266 42.5228
7.25268 16.8815 40.2851
7.00924 17.2358 42.0869
7.13055 17.3995 43.3043
