# pn-170911/RbIIR-54-RbIIA-1280-1959.psd
# Power spectrum* (dif=0,1,2) (really just |FT|^2)
# NOTE: only the first half! (symmetric)
# weeks: 1280-1959
# 3982 clock-days, 234 excluded
# PSD: 1441
4944.47 0.212133 0.0385435
516170 10.5714 0.0394589
1.68298e+06 32.04 0.0410228
313470 10.0839 0.0392152
196214 11.3621 0.0399499
96810.5 7.18987 0.0421684
65204.1 7.51763 0.039932
43498.8 6.62869 0.0428113
35527.1 6.78332 0.0429532
26071.6 6.35419 0.0431594
21728.2 6.27542 0.0427462
17738.7 6.15771 0.0429156
14492.5 6.01611 0.0425885
12236.1 5.89954 0.0439726
10910.2 6.28369 0.0461179
9366.22 6.02983 0.0463962
8412.96 6.12447 0.0469789
7320.99 6.17228 0.0486388
6673.39 6.11523 0.048828
5708.06 5.95188 0.048059
5459.65 6.32105 0.0515515
4849.31 6.24858 0.0532921
4522.09 6.4916 0.0571232
4061.84 6.20393 0.0583628
3847.69 6.48554 0.0584414
3465.31 6.39906 0.0625948
3209.7 6.43046 0.0620887
2983.82 6.53307 0.0619526
2928.83 6.87482 0.0670986
2776.84 7.16129 0.069358
2577.66 7.00216 0.0704558
2434.47 7.15942 0.0744036
2310.42 7.15478 0.0769416
2194.98 7.46186 0.0790248
2065.58 7.37853 0.0818991
2040.41 7.75921 0.0872399
1920.44 7.89408 0.0893908
1854.73 8.12817 0.0921203
1747.71 8.01796 0.0953734
1653.04 7.97685 0.0989182
1601.85 8.18714 0.102833
1550.91 8.56282 0.111296
1503.06 8.84016 0.114253
1467.95 8.70633 0.119355
1429.87 9.1477 0.12499
1372.9 9.06965 0.13077
1325.48 9.33808 0.130236
1282.01 9.64263 0.140225
1267.02 9.81805 0.146536
1235.8 10.0018 0.153595
1165.31 9.93543 0.155492
1177.31 10.5401 0.171259
1122.78 10.4146 0.172216
1090.77 10.4377 0.179246
1086.96 11.0875 0.192556
1035.29 11.0786 0.198479
1043.8 11.6236 0.216747
980.818 11.2171 0.215137
962.562 11.4044 0.222889
970.574 12.2059 0.238787
942.926 12.3708 0.254157
938.465 12.5064 0.261174
896.053 12.4876 0.269549
888.349 12.7494 0.283794
895.523 13.1211 0.29334
867.662 13.4848 0.31443
838.257 13.2384 0.314009
816.148 13.3848 0.323309
797.87 13.511 0.332036
778.522 13.8514 0.352755
797.855 14.1943 0.372492
779.75 14.5783 0.39058
751.868 14.5525 0.405162
720.73 14.4014 0.401704
710.869 14.4523 0.415007
710.125 14.8152 0.439428
727.304 15.7468 0.473094
693.01 15.4953 0.47637
662.918 15.2139 0.479004
677.918 15.9122 0.509328
641.978 15.3652 0.512121
660.398 16.3193 0.542877
630.804 16.1364 0.54755
630.888 16.7046 0.580877
616.755 16.5693 0.595678
618.33 16.6811 0.608816
581.916 16.6821 0.63308
586.42 17.2664 0.652505
570.926 17.0618 0.674629
571.006 17.9191 0.717869
562.597 17.4773 0.71579
572.371 18.7433 0.777613
548.663 18.052 0.768593
529.201 17.7588 0.765926
519.8 18.06 0.80037
526.283 18.4398 0.823653
577.424 21.3719 0.98168
518.664 18.8198 0.878138
512.983 19.2492 0.914567
490.776 18.6063 0.900694
490.43 19.0869 0.949411
487.878 19.4615 0.986555
491.131 20.0742 1.03296
477.518 19.6596 1.02362
486.231 20.7108 1.09187
455.202 19.8412 1.0793
449.916 19.8313 1.09201
455.611 20.5297 1.14937
442.773 20.2263 1.14921
438.07 20.8722 1.21336
426.882 20.5141 1.21383
438.955 21.5526 1.29696
429.198 21.2264 1.30092
424.017 21.6813 1.34797
410.798 21.4308 1.35485
404.23 21.4654 1.38482
402.456 21.6672 1.4137
384.268 21.2395 1.41875
391.846 21.8485 1.46385
402.724 22.7404 1.56251
385.391 22.7023 1.59052
398.123 23.7099 1.67497
369.781 22.1778 1.60351
382.569 23.4179 1.71346
381.987 23.8736 1.77348
371.184 23.6406 1.78157
355.059 22.4871 1.72111
356.924 22.8028 1.77015
344.942 22.6917 1.79374
354.104 23.5274 1.87652
345.656 23.7759 1.94814
340.654 23.4907 1.93288
334.274 23.793 1.99075
336.107 24.3527 2.06061
329.844 24.0264 2.0555
321.441 23.8559 2.0851
323.048 24.3397 2.15302
331.209 25.5456 2.30835
317.149 24.73 2.26753
320.605 25.076 2.31675
313.32 25.2451 2.36119
308.096 25.2625 2.40942
306.315 25.0746 2.41246
303.106 25.2705 2.469
301.672 25.5597 2.52247
285.343 24.4052 2.48
293.398 25.59 2.62234
293.759 26.031 2.66183
290.26 25.3631 2.66865
286.723 26.2681 2.76709
295.761 27.1316 2.93864
277.486 25.567 2.76282
286.255 27.1624 2.97609
279.989 26.81 2.98564
267.499 26.1595 2.94089
274.043 27.3706 3.13533
270.55 26.8561 3.10715
267.626 26.8701 3.14358
265.702 26.959 3.21371
264.943 27.6946 3.31044
266.042 28.1236 3.4438
260.606 27.6748 3.39311
258.571 27.6827 3.45024
251.484 27.5283 3.46167
249.719 28.0544 3.58663
247.461 27.6764 3.54779
240.917 27.8966 3.64062
251.465 28.9726 3.83731
247.663 28.9342 3.86135
242.599 28.6935 3.87484
238.609 28.1946 3.84592
239.927 28.7484 3.95141
232.395 28.3675 3.99534
226.349 28.0387 3.96818
230.672 28.7706 4.13052
231.81 29.3288 4.2651
228.988 28.8109 4.21288
220.982 28.7742 4.26984
228.147 29.8064 4.44384
215.936 28.6152 4.34675
216.842 28.842 4.39505
215.144 29.0933 4.50404
213.604 29.1797 4.57561
205.434 28.8448 4.56306
214.692 30.2255 4.83242
212.99 29.765 4.77563
211.339 30.1536 4.90681
204.405 29.7361 4.90647
204.906 29.8473 4.95832
202.964 29.8107 5.04831
194.561 29.0327 4.94629
203.156 30.8656 5.35455
246.923 38.6931 6.64831
195.388 30.1024 5.22937
195.187 30.1887 5.37307
196.228 30.8422 5.53363
192.964 30.525 5.52533
186.947 30.1 5.48565
194.056 31.1633 5.71652
187.895 30.5842 5.70343
186.388 31.0891 5.88276
186.051 31.3952 5.95956
185.574 30.8632 5.87781
179.99 30.5103 5.90279
182.769 31.1616 6.08978
177.191 30.9903 6.11976
179.73 31.7671 6.32488
174.886 30.9157 6.17417
178.232 32.2521 6.59559
176.195 31.6433 6.50386
174.836 32.0351 6.5998
164.939 30.3938 6.37498
171.597 32.0651 6.75815
167.581 31.4537 6.65763
163.445 30.759 6.61883
170.205 32.6147 7.05698
157.81 30.5261 6.69033
169.933 33.0855 7.23461
156.942 30.6623 6.82084
160.128 32.1442 7.25554
163.788 32.8696 7.44834
159.346 32.4244 7.41928
160 32.5829 7.50564
156.629 32.4652 7.55763
154.635 32.7187 7.67175
150.677 31.9866 7.52618
155.557 32.8064 7.81538
153.176 32.846 7.9268
154.111 33.0122 8.01471
153.288 33.9004 8.30576
150.696 33.0728 8.11461
143.306 31.8068 7.93149
147.465 32.7005 8.21903
143.196 32.4647 8.21204
145.42 33.0133 8.39134
142.997 32.8104 8.4641
142.613 33.1938 8.6674
144.215 33.3617 8.7499
143.17 33.3783 8.77237
150.057 35.8322 9.48111
141.967 34.1264 9.1946
137.121 32.701 8.84144
138.357 33.5038 9.17051
136.632 33.3258 9.16354
134.821 33.2119 9.1837
137.915 34.5718 9.6423
134.706 33.8819 9.59087
134.92 33.954 9.6104
133.589 34.0312 9.74665
133.914 34.1596 9.7649
127.961 32.9681 9.65699
128.25 33.2248 9.76143
128.912 34.1184 10.1288
128.2 33.8827 10.0536
127.532 33.9896 10.1987
127.731 34.3973 10.4397
122.104 33.2118 10.1966
121.997 33.6717 10.3402
124.587 34.3758 10.5975
122.742 33.9726 10.5952
126.185 34.8652 10.88
123.037 34.6372 10.9114
119.428 33.9152 10.8674
121.406 34.8489 11.1388
116.337 33.319 10.8516
119.741 34.6391 11.1898
115.07 33.8249 11.0873
117.304 34.6321 11.4416
116.011 34.3968 11.4529
116.968 34.8997 11.7182
114.574 34.443 11.5825
114.461 34.628 11.7973
113.118 34.8141 11.9276
107.952 33.5427 11.678
111.445 34.5481 11.9871
112.35 35.1301 12.2322
111.658 34.9693 12.2838
112.792 35.053 12.4298
108.85 34.5218 12.3239
106.967 34.8405 12.5628
105.336 33.8762 12.2608
105.156 34.572 12.6745
106.94 34.6842 12.6643
104.777 35.051 12.9314
101.341 33.4926 12.4658
104.652 34.6786 12.9418
102.952 34.9886 13.3318
104.951 35.5896 13.6336
136.973 48.0996 17.8383
104.541 36.149 13.9702
99.6265 34.8588 13.5408
101.861 35.5513 13.8652
97.6601 34.5357 13.5868
99.9319 35.4118 14.0565
98.6102 35.2946 14.0588
99.5798 35.6294 14.2307
94.142 34.2201 13.8263
98.3238 36.0706 14.6123
95.8078 34.8003 14.297
97.8803 36.0141 14.745
96.7558 35.8026 14.8999
94.6431 34.5557 14.188
93.9662 35.3824 14.9204
93.6913 35.357 14.9076
94.2915 35.6961 15.1499
91.9741 35.1471 15.0848
93.8222 36.3877 15.6882
91.3458 35.1889 15.155
91.5797 35.6929 15.5759
93.8613 36.8532 16.0862
88.6467 35.1864 15.5274
90.4858 35.4676 15.6132
91.0732 36.4429 16.211
87.8535 35.6199 16.0023
86.8101 35.1197 15.9109
87.9238 35.8974 16.3646
87.83 36.1597 16.4961
85.1552 35.1723 16.2321
85.9843 35.2294 16.3325
85.4498 35.4887 16.4939
85.6227 35.6954 16.5879
85.833 36.0827 16.8886
88.4063 37.4585 17.6639
83.1261 35.8237 17.1524
80.3724 34.557 16.7138
83.6416 36.1463 17.4956
80.4527 35.1965 17.2015
82.724 35.9137 17.4275
82.7926 36.4587 17.9772
82.6565 36.1229 17.6576
80.5439 35.6531 17.6862
80.3183 36.0033 18.0573
80.061 36.2474 18.1005
79.6149 35.5052 17.981
80.35 36.5852 18.6188
79.0401 35.7817 18.288
76.5614 36.1201 18.5492
76.5013 35.3931 18.2256
75.2899 35.1679 18.1784
77.1668 36.5271 19.2427
75.8031 35.6958 18.967
76.8772 36.3916 19.3533
74.7634 35.2018 18.6457
73.6788 34.788 18.4458
73.6555 35.5405 19.1206
74.5719 36.0599 19.4334
71.2158 34.8667 19.0897
75.2153 36.7739 20.0098
71.2561 35.4139 19.625
74.2496 36.8985 20.4478
73.2586 36.257 20.1684
72.1619 36.2031 20.116
72.0758 36.8889 20.7707
71.5935 36.1761 20.4065
70.2697 35.4384 20.1138
70.2436 36.0841 20.5471
70.2289 36.6943 21.0504
69.4633 35.5723 20.4993
68.221 35.5036 20.527
68.2859 35.7864 21.0179
68.2249 35.0694 20.3297
66.7813 35.6189 21.0112
69.3908 37.6429 22.4481
68.8495 36.6624 22.0006
67.0954 35.7948 21.2916
67.94 36.5949 21.8915
65.3468 35.2082 21.3183
66.3073 36.4767 22.3144
64.87 35.5784 21.6193
64.3341 35.3608 21.7485
64.3663 35.7083 22.0595
64.447 36.0086 22.3649
66.6387 37.5979 23.326
64.5525 36.5804 23.0715
64.2586 36.6389 23.2224
62.8644 35.575 22.6875
63.278 36.1904 22.9022
60.6777 34.9476 22.4457
61.4059 35.4925 22.8311
61.8243 36.2069 23.4896
61.7318 35.7276 23.1887
59.4203 34.9586 23.0249
60.9719 35.271 23.1095
61.222 36.7976 24.9311
79.6922 48.2075 30.7
60.651 36.2016 24.2311
59.9783 35.5339 23.5522
58.7355 35.4558 23.9512
60.0513 36.6472 24.9696
59.93 35.7038 24.0819
59.3786 36.2775 24.9121
58.4698 35.3719 23.9867
59.4692 36.5061 24.9537
58.5094 36.3803 25.3041
56.332 35.4852 24.8511
56.6419 35.9393 25.2213
58.45 36.3254 25.1481
57.5331 36.5115 25.8655
56.6729 36.0344 25.4125
55.3127 35.4075 25.2816
55.6109 35.5986 25.4927
57.2146 37.3442 26.9018
57.3233 37.4582 27.0495
55.9988 35.5595 25.6112
54.694 35.8828 26.2353
54.8279 36.1849 26.5342
54.8966 36.0071 26.5253
53.6599 35.3382 25.852
54.4577 35.7587 26.532
53.1276 35.4757 26.4177
53.0551 35.1989 26.2609
53.7095 36.1005 26.9912
54.1107 36.4263 27.3822
51.8462 35.3485 26.6805
51.3416 35.6277 26.9561
52.1127 35.8339 27.5595
52.137 36.1269 28.1527
51.5731 35.2531 27.2492
51.6816 35.403 27.4681
50.1111 35.3495 27.6089
49.8112 34.5841 27.0212
50.2753 35.1382 27.6872
49.6877 35.2206 27.6663
49.4899 35.0842 27.7585
49.5105 35.6712 28.5105
49.2502 34.965 28.0589
48.505 34.6944 27.9161
48.7076 35.3331 28.4316
48.7777 35.9624 29.086
47.8157 35.0178 28.6603
46.8078 33.94 27.7249
48.3528 35.7786 29.3566
49.0286 35.7343 29.3963
48.1443 35.1875 29.1168
48.2977 36.5279 30.9257
47.5582 35.2966 29.2751
47.5754 35.339 29.4649
47.9841 35.6555 29.7906
45.4642 34.7908 29.8856
46.3661 34.4035 29.0638
46.4253 35.7238 30.3098
45.4329 35.2295 30.2777
45.004 35.1882 30.4033
45.8971 35.3532 30.7926
46.4489 36.0502 31.1105
43.9159 33.8234 30.021
46.4982 35.7662 31.0874
43.9167 33.8254 29.5901
44.1861 34.4448 30.2773
44.567 35.8471 31.9067
43.9844 34.1188 29.9428
42.9295 34.2051 30.7468
44.51 35.5684 31.6775
43.9357 35.2132 31.6831
42.2304 34.2458 31.223
43.0389 35.0739 32.0792
44.408 35.6743 32.1659
43.4238 35.2399 32.0817
41.7337 34.1552 31.5285
42.8524 35.6983 33.0369
43.094 35.6708 32.7558
42.5667 35.5285 32.907
42.1701 34.91 32.7467
42.9876 36.0683 33.6598
42.2646 35.3795 33.13
41.4746 34.8678 32.924
41.2153 34.9541 33.0326
40.4017 34.1135 32.5322
40.7985 35.0238 33.5246
41.0494 35.5414 34.1966
41.2727 35.4686 34.1739
40.7928 34.9287 33.6476
39.9858 35.3668 34.6495
40.8849 35.3804 34.5645
40.2226 34.5849 33.9003
40.3987 34.9352 33.8805
39.6916 35.2401 34.6467
39.7571 35.3069 35.004
38.9925 34.5446 34.8666
38.5692 34.1761 35.6894
51.1954 46.6632 43.6489
37.3911 33.8166 34.5242
37.8664 33.9487 34.2817
38.7753 34.9027 34.8033
37.1811 34.0167 34.998
37.4476 33.9816 34.6603
37.4322 34.0851 35.0637
38.0548 34.5152 35.2232
37.0737 34.1117 35.1269
36.2812 33.4288 34.6221
38.0417 35.4275 37.0061
36.9888 34.235 35.6335
36.8018 34.3941 36.2475
37.4769 34.7947 36.2095
37.2631 35.0411 37.0834
35.843 33.4383 35.2813
35.746 33.8671 36.3635
36.3181 34.3088 36.2121
35.501 33.2986 35.4675
35.4282 33.527 36.0518
37.0347 35.3461 37.6481
35.073 33.4504 35.7447
34.1665 33.3652 36.4193
34.3302 33.7077 37.2322
35.7121 34.4102 37.2083
35.2859 34.4826 37.6195
33.9094 33.3351 37.2378
35.2644 34.8664 37.9881
34.3573 33.7768 37.4745
34.6839 33.658 37.3499
34.3928 34.2339 38.2902
34.5917 33.5609 37.4669
34.4322 34.3595 38.2655
34.2654 33.9528 38.329
33.9467 34.1615 38.8075
34.1525 34.3074 38.6499
31.874 32.5508 37.455
32.8664 33.297 37.9849
32.6445 33.3957 38.282
31.7853 32.889 38.1902
33.0466 33.6559 38.7252
32.6166 33.6809 39.2947
32.3085 33.7868 39.0555
32.584 33.8959 39.2583
32.8024 33.5993 39.4611
32.4507 33.6539 39.3155
32.2289 33.2915 39.2062
31.2507 33.4348 40.1708
31.9392 33.4828 39.5096
30.3601 31.5149 37.5237
31.8461 33.7275 40.1491
31.318 33.1602 39.8445
31.1644 33.3853 40.6353
32.4472 34.1641 40.9356
31.1846 33.6749 39.8893
30.1947 33.0901 40.4037
30.1887 33.0514 40.3332
29.8538 32.6224 40.4107
30.6697 33.681 41.4124
30.0249 32.3341 39.3431
30.1373 33.0677 41.1855
30.3143 32.769 40.5349
30.0012 33.0076 41.0265
31.1289 33.767 41.759
29.9889 33.4626 41.7698
29.7627 33.4254 41.6294
28.4518 32.2594 40.8188
28.7105 32.54 41.7892
30.1195 34.0994 43.0524
28.8928 32.9989 41.8304
29.0082 32.4577 41.6018
29.5492 33.5697 43.1436
28.4866 31.9309 40.3165
28.5102 33.09 42.8545
28.8152 32.12 41.3904
28.4141 32.4348 42.3572
27.9002 31.7939 41.3402
28.5579 32.8734 42.3766
28.1075 32.6671 42.6885
28.4259 33.6234 44.6106
28.1915 32.2219 42.2349
28.3151 33.1424 43.6219
28.0571 33.0796 44.2663
27.698 32.2415 42.9456
27.3589 31.9201 42.4175
27.9098 32.685 43.3411
26.8285 31.457 42.0969
27.3561 32.6327 43.9642
26.9943 31.6208 42.5226
26.8268 32.1754 43.6584
27.1031 32.0719 42.9732
27.1683 33.1482 45.5185
26.8999 32.1491 43.7763
26.7812 32.4656 44.8142
26.5169 32.3273 45.7927
27.0853 33.0663 48.7879
36.2759 44.4581 56.1455
26.8305 32.9119 45.3177
26.0807 32.2463 45.4374
25.8081 31.687 44.6281
26.1354 32.0978 44.7581
25.9445 32.2064 45.0481
25.7063 31.8292 44.4782
25.1558 31.0456 43.6084
24.8833 32.019 46.2424
25.66 31.5019 44.6217
25.2176 31.1695 44.4965
25.6582 32.0547 45.6677
25.0689 31.8327 46.0533
25.367 31.8046 45.7329
25.7112 32.3787 46.4132
24.828 31.4814 45.3225
24.4752 31.4834 45.2671
24.7068 32.0242 46.6281
23.8898 31.302 46.2796
24.6498 31.8022 46.426
24.2219 31.2979 46.2118
24.2727 31.4347 45.8867
23.8609 31.3218 46.2879
24.4615 31.3572 45.7711
23.7815 30.9133 45.9297
23.8538 31.009 46.3431
23.5025 30.3946 44.4865
23.8162 31.2245 47.1665
24.2862 32.1652 48.3674
24.3708 32.063 48.0048
23.136 31.0399 47.2673
23.2014 30.3853 46.0214
23.779 31.0668 46.2761
23.3687 31.7552 48.2194
23.1077 30.4328 46.7634
23.0612 31.2738 47.7424
23.1757 31.3479 48.14
22.6593 30.442 47.3483
23.2262 31.0163 47.0114
22.5902 30.7496 47.3431
22.5239 30.5614 48.0655
22.1915 30.2562 47.6828
23.3678 31.6729 48.9493
22.86 30.8786 48.3128
22.6173 31.5367 49.2669
22.8068 31.3944 49.4416
22.4194 30.6826 48.5488
22.0908 30.808 48.9578
21.8534 30.1113 47.5596
21.9735 29.9075 47.3169
22.0078 31.0781 49.36
22.207 30.7068 48.5877
21.469 30.3809 49.1338
22.3593 30.5784 48.1992
21.4425 31.0405 50.4482
21.4112 30.0156 48.4528
21.9225 30.8462 49.3595
20.9232 29.865 48.7291
21.5619 30.5211 49.2533
20.5519 29.3637 48.2318
21.0872 30.3391 49.6126
21.1211 30.0171 48.8277
20.6036 29.779 48.6888
20.3007 29.6174 49.3026
20.5313 29.6379 49.2884
20.9337 30.2697 49.8711
20.8663 30.0924 49.3194
19.7569 29.1454 49.2698
20.5183 29.7151 49.3126
19.8546 29.1081 49.1121
20.5896 30.2506 50.9316
20.131 29.1667 49.7371
20.6169 30.5116 51.3757
20.4897 30.114 50.5164
20.447 30.2791 51.0049
19.8405 29.0209 49.3993
20.5142 30.1895 51.8753
20.2648 30.1295 51.7519
19.9795 29.8944 50.7851
18.9438 28.4077 48.8594
18.7603 28.307 49.3214
19.7831 29.1157 49.5816
19.2034 28.5628 49.5478
19.1596 29.254 51.4677
19.417 29.3649 50.6424
19.1746 28.9357 50.3507
19.1673 29.2611 51.4674
19.2353 29.5932 51.7901
19.4737 30.0853 52.7118
18.9519 29.2434 51.7504
19.1862 29.1273 51.0231
18.7569 28.7761 50.8405
18.5102 28.6468 51.1882
18.7752 28.9004 51.1138
18.2042 28.4904 52.2809
18.7172 29.5317 58.9604
26.3113 40.5739 63.8024
18.7002 29.5846 53.7081
18.989 29.3441 52.0789
17.8862 28.2592 52.0192
18.1887 28.7506 51.6858
18.4447 28.6336 51.9071
18.3414 28.954 52.5815
17.8533 28.841 52.3495
17.9509 28.1139 50.8312
17.8865 28.3622 51.9945
18.2138 29.12 53.1583
18.1007 28.9576 53.6775
17.9448 28.7062 52.634
18.0654 28.8497 52.6819
17.7824 28.7083 53.8438
18.0653 28.5326 52.5567
17.2927 28.1848 52.5746
17.2799 28.0974 52.6841
17.4636 28.2051 52.3481
17.0684 28.1047 52.6996
17.0806 27.8127 53.3825
17.5509 27.9236 52.4998
17.7121 29.0961 53.8442
16.8763 27.6381 52.6287
17.246 27.6473 52.4677
17.1514 27.5064 52.2656
16.9125 28.0096 52.9804
17.3221 28.7655 54.228
16.5856 27.5149 53.4553
16.9977 28.1179 53.5184
16.5816 27.4997 53.5501
17.4771 28.905 54.574
16.7594 28.6846 55.6143
16.9177 28.6754 55.7701
16.7082 27.3661 53.1186
16.909 28.4576 54.0644
16.6155 28.1796 54.3972
16.5438 28.5576 56.0057
16.2446 27.2909 53.5824
16.707 28.5588 55.998
16.4918 28.0131 55.5469
16.233 27.837 55.2667
16.3761 27.5864 54.2921
16.207 27.4632 54.2054
16.1844 27.6893 54.6701
15.7325 27.2153 54.4772
16.1424 27.662 55.7584
16.6806 28.6678 56.2861
16 27.6045 54.3136
15.547 27.5204 55.7083
15.9631 27.4309 54.8164
16.0368 27.6814 55.8169
15.821 27.6794 54.7983
15.4734 27.2262 55.1812
15.6499 27.8736 57.1163
15.8293 27.6674 55.8224
15.8469 27.5199 56.3232
15.6205 26.9695 54.5993
15.1415 26.7249 54.1904
15.1696 26.7989 55.1574
15.4582 27.2605 56.0522
15.2669 27.1831 55.9135
15.5794 27.8092 56.4757
15.006 26.4997 55.2587
15.3872 27.3688 55.5535
14.9508 27.0052 56.2122
15.1542 27.1748 56.9399
14.8402 26.5542 55.9217
14.8614 25.987 54.0083
14.673 26.8374 56.7142
15.3251 26.9546 55.6886
14.5199 25.6831 53.8953
14.7335 26.7752 56.0422
14.6978 26.5108 56.2343
14.3482 25.9053 54.7398
15.0048 27.6284 58.2351
14.8888 26.7055 56.3151
14.3029 26.3576 56.5398
14.5137 26.7382 56.5811
14.3296 26.8551 58.482
14.4085 26.2415 56.8835
14.583 26.7349 56.8374
14.1673 25.8462 55.6434
14.5652 26.7287 57.3922
14.6124 27.6314 60.0266
14.6367 26.6334 57.6628
14.5444 26.8161 57.3003
14.0549 26.3974 57.9171
14.4239 26.8648 57.7636
13.8672 25.5879 55.1455
13.7679 26.0208 57.578
14.05 26.1042 56.6947
13.6917 25.6581 57.0271
13.7691 25.8244 56.8421
13.9112 25.9709 58.6649
14.0409 27.3305 68.8224
18.9481 34.782 65.1854
13.9741 27.3382 61.2353
14.0846 25.9408 57.8857
14.1061 26.9628 59.1687
13.737 26.3679 59.5168
13.9066 26.2379 58.1838
13.7211 26.6067 59.3907
13.362 25.3471 56.8881
13.3561 25.8608 57.92
13.2342 25.3673 56.277
13.159 25.4119 56.6263
12.8067 25.2991 58.3527
13.4008 25.6887 57.8775
12.8511 25.0175 58.1956
13.3609 25.164 56.751
13.1645 25.2213 57.2752
13.3944 25.5985 56.8497
12.7243 24.8438 57.7265
13.2626 26.3882 59.2443
12.8284 25.0472 58.0473
12.8722 25.2134 58.586
13.0749 25.2685 57.5522
13.0649 25.7969 58.9396
12.8551 24.8494 57.9838
12.964 25.7073 58.7697
13.0018 25.7847 59.1601
12.5447 25.2183 59.4705
13.1532 26.0762 59.968
12.9824 25.5089 59.5273
12.4173 24.8757 58.9061
12.6725 24.9988 57.8432
12.8075 25.7747 59.5497
12.3979 24.5556 58.176
12.2988 25.2148 60.6754
12.7313 24.8187 58.3057
12.6688 25.2273 59.2441
12.5344 25.3763 60.0313
12.7151 25.3029 59.6937
12.3805 24.9457 59.2573
12.3921 25.2949 60.4258
12.556 25.2032 59.1632
12.1271 24.6573 58.0496
11.7739 24.1204 58.8306
12.3811 24.8331 59.4915
12.4566 25.1933 61.1428
12.2888 25.6831 61.1814
12.2668 24.6319 59.3285
12.2758 24.7609 59.7342
12.3477 24.917 59.7189
11.9636 24.507 60.0862
12.5517 25.6663 61.5646
12.1174 24.2801 58.5386
11.9454 25.0234 61.1045
12.0046 24.2346 58.2286
11.6668 24.2688 60.3366
11.8033 24.9199 60.489
12.0699 24.484 59.1181
11.5853 24.5329 61.2932
11.9979 24.8599 60.4744
11.9643 24.7977 62.2546
12.0966 24.8896 60.6551
11.6731 24.4065 59.7307
11.5026 24.4657 61.0901
