# pn-170911/RbIIR-53-RbIIR-1280-1959.psd
# Power spectrum* (dif=0,1,2) (really just |FT|^2)
# NOTE: only the first half! (symmetric)
# weeks: 1280-1959
# 3729 clock-days, 551 excluded
# PSD: 1441
342.333 0.115622 0.0471018
38898.5 0.935286 0.0506784
125556 2.43995 0.0537754
34289.1 1.23887 0.055644
81329.3 6.21864 0.0534978
11615.6 1.1128 0.0526429
10304.8 1.47745 0.0517045
5942.28 1.12308 0.0519723
6174.84 1.5789 0.0519415
3771.79 1.1669 0.0525185
3322.31 1.28947 0.0533435
2759.01 1.27552 0.051436
2504.06 1.3885 0.0528822
2020.81 1.32083 0.0542945
1830.42 1.422 0.0530204
1536.33 1.38582 0.0518764
1546.07 1.58846 0.0548223
1311.85 1.55731 0.0523872
1274.57 1.6917 0.052617
1157.38 1.73255 0.0550245
1130.35 1.82361 0.0553232
1061.71 1.94297 0.0546077
1008.03 2.0394 0.0570439
987.814 2.17279 0.0580077
937.105 2.30629 0.0584665
895.21 2.38944 0.0623079
871.478 2.53013 0.0624092
822.356 2.61241 0.0620354
826.87 2.77226 0.0628118
804.348 2.9246 0.0643197
800.341 3.13836 0.0678352
786.188 3.301 0.064802
764.497 3.44135 0.0709855
764.961 3.6704 0.0712034
729.369 3.70872 0.0746936
745.281 4.04588 0.0762523
713.591 4.13246 0.0806329
731.341 4.48024 0.085048
723.481 4.68 0.086539
713.814 4.87791 0.0879666
690.078 4.95858 0.0919357
689.104 5.18553 0.0913454
670.399 5.30066 0.0958213
694.327 5.84893 0.102314
700.45 6.1685 0.108054
658.205 6.03039 0.108609
633.353 6.10635 0.116643
666.868 6.71747 0.12579
642.749 6.67764 0.125309
644.503 7.04175 0.134195
606.848 6.85888 0.133212
636.854 7.50218 0.149939
636.247 7.85944 0.155511
641.788 8.27921 0.163941
628.529 8.42015 0.171053
623.856 8.69508 0.180302
603.623 8.65524 0.184448
588.869 8.77258 0.188873
572.764 8.80114 0.192012
572.615 9.10255 0.203488
571.095 9.50247 0.217339
570.976 9.81289 0.226741
583.321 10.2918 0.244721
539.038 9.91839 0.243104
545.617 10.3267 0.254503
544.796 10.7142 0.270101
521.525 10.4706 0.264016
527.566 11.0442 0.289968
509.176 10.9202 0.292221
529.122 11.6572 0.325877
522.746 11.762 0.32277
504.416 11.7546 0.331539
504.851 12.1482 0.356026
482.708 11.9301 0.357621
479.931 12.1374 0.375853
482.555 12.5642 0.386404
478.549 12.7522 0.400522
468.079 12.8451 0.408661
482.879 13.5288 0.446907
458.858 13.3647 0.451608
452.579 13.4473 0.459408
437.989 13.3051 0.468955
454.242 14.1141 0.507594
450.775 14.3803 0.522789
424.172 13.7679 0.508914
431.203 14.4692 0.550855
425.494 14.4484 0.563445
415.042 14.6529 0.567737
408.53 14.6923 0.586447
420.357 15.4688 0.638499
408.326 15.2925 0.630682
407.235 15.6776 0.663038
384.637 15.1766 0.663616
387.155 15.5115 0.674755
376.294 15.3814 0.69374
390.999 16.5054 0.752819
425.958 18.394 0.854499
367.622 15.986 0.762917
369.369 16.4421 0.807861
352.987 16.0757 0.795075
375.257 17.4639 0.874657
355.941 16.8572 0.866434
372.32 18.0194 0.935434
354.543 17.5385 0.928936
349.816 17.5005 0.940229
341.963 17.5715 0.975678
341.008 17.779 0.997226
334.062 17.6497 1.01053
343.952 18.5779 1.07593
337.627 18.6189 1.09726
343.869 19.312 1.15969
327.742 18.7163 1.1411
323.922 19.0184 1.17108
312.187 18.4834 1.17027
326.278 19.8061 1.27411
313.088 19.2942 1.25846
313.981 19.7856 1.28683
304.93 19.4734 1.30364
309.994 20.1825 1.38236
304.077 20.0642 1.3872
299.592 20.1481 1.41582
299.528 20.4023 1.45957
293.795 20.3663 1.48878
291.625 20.5386 1.50581
297.312 21.114 1.57883
298 21.7683 1.67782
294.482 21.7282 1.68351
278.948 20.7842 1.62203
289.142 21.8941 1.72712
275.069 21.3262 1.7344
269.199 21.1718 1.74081
279.916 22.4117 1.87728
272.508 22.2432 1.86875
275.459 22.5763 1.93627
264.388 22.2164 1.9206
263.155 22.3697 1.99294
266.244 22.8325 2.03898
265.622 23.0981 2.0801
256.528 22.7554 2.11053
253.578 22.759 2.11898
260.312 23.7918 2.24568
252.544 23.3051 2.2431
249.757 23.3256 2.25621
255.553 24.3901 2.41305
248.986 23.8784 2.37269
250.482 24.4367 2.47584
236.324 23.504 2.42444
246.939 24.8579 2.57621
248.716 25.4892 2.70312
238.805 24.5843 2.61288
233.907 24.5997 2.65688
237.927 25.1504 2.75104
231.205 24.8678 2.74133
231.123 25.1736 2.85421
226.93 25.1499 2.84476
235.3 26.2198 3.01095
222.914 25.1532 2.92458
229.023 26.3574 3.10491
221.764 25.7476 3.07006
222.241 26.2764 3.17841
216.466 25.806 3.15898
217.786 26.1573 3.24828
210.425 25.6191 3.20741
216.345 26.7803 3.41201
214.88 26.7484 3.43675
213.048 26.8371 3.47703
208.261 26.8183 3.55002
218.149 28.2389 3.71978
212.857 27.7517 3.70401
208.177 27.7382 3.76272
207.168 27.6762 3.81199
207.641 28.0537 3.8855
202.263 27.8064 3.92268
197.73 27.5191 3.91861
200.235 28.003 4.04712
207.179 29.4163 4.27453
198.464 28.6418 4.20617
196.501 28.4673 4.23162
200.679 29.5875 4.43648
197.834 29.4072 4.45097
186.969 28.0372 4.28955
190.206 28.951 4.50951
190.762 29.2489 4.58287
199.727 30.922 4.89312
186.976 29.3363 4.70819
191.744 30.4853 4.95058
187.169 29.9941 4.89557
189.666 30.8106 5.10597
182.9 29.9814 5.02183
183.28 30.4281 5.15998
181.547 30.0957 5.11137
176.9 30.1569 5.22328
195.68 33.5484 5.82435
177.439 30.5006 5.35215
173.039 30.129 5.35187
178.642 31.4364 5.62377
177.818 31.7383 5.74356
176.019 31.525 5.74563
171.888 31.6019 5.84411
169.789 31.1639 5.82047
173.595 32.2764 6.10819
170.157 31.9377 6.03993
165.029 31.1737 6.04212
167.789 32.0086 6.20001
167.242 32.0817 6.26436
168.45 32.908 6.53214
167.508 32.8838 6.55604
164.214 32.5899 6.56507
166.072 33.1771 6.72313
165.181 33.7041 6.98062
160.992 32.7899 6.80605
163.096 33.5376 6.96629
154.43 32.0985 6.8004
160.869 33.9344 7.30198
155.663 32.8631 7.06624
159.69 34.2046 7.39441
161.923 34.7781 7.59668
159.253 34.7154 7.66085
153.426 33.685 7.4764
155.563 34.5589 7.7608
157.47 35.167 8.0103
156.572 35.2519 8.10441
158.565 35.9178 8.24051
147.277 33.8562 7.92788
149.021 34.3378 8.04132
146.93 34.2743 8.18922
151.259 35.5574 8.51927
149.69 35.2246 8.44386
151.826 36.5435 8.85977
151.049 36.3063 8.86259
148.661 36.1463 8.92142
144.969 35.6156 8.89022
140.33 34.8627 8.80106
146.021 36.7359 9.36184
141.508 35.7996 9.17881
145.003 36.6992 9.42852
138.912 35.6603 9.24846
139.66 36.2505 9.56363
139.979 36.2454 9.56169
139.876 37.0897 9.94699
143.23 37.939 10.176
136.006 36.1801 9.74437
135.738 36.5386 9.94939
132.293 36.034 9.96803
136.184 37.4387 10.4444
135.637 37.3783 10.4181
129.316 36.1005 10.2573
134.974 37.6537 10.6489
134.673 38.2909 10.9607
134.155 38.3633 11.0661
132.102 38.2165 11.1573
129.314 37.6521 11.1162
130.171 38.1361 11.292
131.456 38.3502 11.3566
128.951 38.1501 11.487
127.74 38.0135 11.5592
128.192 38.7871 11.8264
128.455 38.7854 11.8522
128.889 39.2507 12.119
124.315 38.5452 12.1026
126.849 39.3042 12.3638
122.662 38.1801 12.1277
126.855 39.4115 12.454
124.008 39.4861 12.6813
124.786 40.0235 12.8849
122.411 39.597 12.8859
121.469 39.5297 13.073
116.717 37.8307 12.4752
118.7 39.1872 13.1196
119.629 39.4559 13.2287
121.317 40.2754 13.5797
119.44 39.8772 13.426
118.221 40.3265 13.9353
118.316 40.1789 13.8353
118.676 40.6414 14.0152
114.226 39.525 13.858
115.28 40.1099 14.1262
111.767 38.9705 13.8347
117.368 41.2401 14.708
111.075 39.5765 14.3173
116.026 41.714 15.0886
110.996 40.1029 14.7306
114.498 41.654 15.2396
110.972 40.4312 14.98
113.366 41.8036 15.532
107.775 40.0783 15.1645
111.343 41.4737 15.674
109.946 41.7082 16.1259
121.538 45.6427 17.2533
106.898 40.613 15.7112
108.105 41.4333 16.1113
107.293 41.1336 15.9444
105.631 41.1686 16.2086
109.547 42.6626 16.7486
103.576 41.1684 16.569
100.913 39.7305 15.8859
102.608 40.6094 16.401
104.835 41.8249 16.887
103.511 41.9301 17.1776
103.095 41.7373 17.1668
100.809 41.2134 17.0755
100.958 41.6548 17.4123
99.7459 41.2009 17.2617
103.3 43.0694 18.1445
100.652 42.5002 18.1609
100.657 42.1849 17.9228
97.6327 41.4245 17.7866
98.328 42.316 18.3327
100.018 43.1778 18.8
97.7793 42.6804 18.8069
95.4818 41.7727 18.4945
98.2271 42.843 18.9149
97.6052 43.2343 19.2407
92.4662 41.3779 18.7489
93.7871 41.5453 18.7892
94.9159 42.3555 19.123
92.6519 42.156 19.4001
92.5975 42.2327 19.3916
92.7093 42.2007 19.5222
92.2433 42.218 19.5398
91.5581 42.7255 20.067
91.2663 42.3192 19.83
89.1481 42.0608 20.1579
94.6054 44.7175 21.3987
90.5751 42.8655 20.5354
88.6502 42.1932 20.2495
88.3476 42.3835 20.6218
87.5295 42.4615 20.8749
89.97 43.3237 21.1193
90.0491 44.0418 21.6557
89.9072 44.1156 21.7442
85.294 42.4143 21.3528
90.5254 44.7334 22.3504
88.1331 44.4764 22.6327
85.2369 42.3671 21.4738
85.2138 43.0793 21.9962
84.1206 42.9128 22.1564
86.3876 44.1417 22.7408
85.2966 44.0226 22.9657
83.5681 43.1559 22.6507
84.817 44.4523 23.4837
85.1655 44.1534 23.2467
83.7511 44.1174 23.5029
83.7664 44.3498 23.5631
82.5556 44.0532 23.7718
82.3168 44.0921 23.9631
83.6518 45.0151 24.4279
80.9449 43.6505 23.7299
79.2964 43.7864 24.3818
80.2656 43.8031 24.3445
79.9521 43.8054 24.3492
81.048 44.6107 24.8795
81.7861 45.4231 25.4248
80.0014 44.7126 25.2108
79.9507 44.9629 25.3587
78.2486 44.4664 25.5402
76.8028 44.0041 25.4345
78.263 44.656 25.8202
77.3892 44.0901 25.504
74.6621 43.1193 25.2625
77.3416 44.8552 26.2949
74.7694 43.4365 25.6425
76.443 44.8185 26.5791
76.9086 44.9707 26.5366
76.9232 45.8001 27.5696
75.9495 45.0546 27.077
74.738 44.576 26.8406
74.524 44.9026 27.3599
72.2859 43.3592 26.3745
75.3234 45.9317 28.1486
71.6602 43.8611 27.1971
72.5176 44.3711 27.5
74.2181 45.8741 28.6873
73.4218 45.5058 28.5423
72.569 45.4251 28.6492
71.7211 45.1614 28.8052
72.0017 45.2085 28.7777
70.8727 44.4661 28.2765
70.3773 44.9049 29.0826
70.9021 45.1045 28.919
68.8287 44.6156 29.1224
66.7325 42.8123 27.967
67.9507 44.2695 29.174
67.7886 44.0821 29.3722
76.9334 49.9603 32.5013
68.1257 44.5873 29.3856
67.9603 45.712 31.0213
68.2786 45.0098 29.9963
68.7106 45.9445 30.9177
67.6993 45.3533 30.7172
67.3651 46.2002 31.9277
68.5848 46.1688 31.5753
65.2571 44.2504 30.573
67.0921 45.7696 31.4642
65.1385 44.9563 31.2675
65.8084 45.4533 31.7609
65.1224 44.9169 31.3784
65.2523 45.6356 32.1737
64.1417 44.7051 31.7407
64.2631 44.9576 31.9456
65.0632 46.3871 33.3081
63.8027 45.1086 32.2581
63.3323 45.3539 32.7724
61.9306 44.3742 32.3954
63.6297 45.6045 33.0988
62.7411 45.6572 33.5873
61.9324 44.6309 32.7857
62.6988 45.7414 33.6061
64.3232 47.3909 35.0931
61.3038 44.8039 33.38
60.0438 44.3774 33.3129
60.095 44.5154 33.1651
58.6883 44.5212 34.0599
59.3631 44.6548 33.9752
59.7487 44.9816 34.3021
61.206 46.4657 35.5275
60.1031 45.1679 34.3776
60.104 46.2616 35.6955
57.7413 44.3256 34.3811
58.597 45.4049 35.6019
58.3452 45.005 35.1653
58.3266 45.5793 36.0188
58.5882 45.6123 35.9563
58.9183 45.8417 35.779
56.2774 44.7544 35.8489
56.0327 44.5509 35.8205
56.7608 45.358 36.7296
56.1396 44.6637 35.9307
55.6292 44.6831 36.4855
55.8809 44.2851 35.5767
54.2471 43.9994 36.0948
54.9323 44.8318 36.7741
55.2491 44.8782 36.6837
54.2541 45.0211 37.6841
52.845 43.2342 35.8976
55.234 45.858 38.2687
54.1692 45.2539 38.0491
53.9506 45.4966 38.7047
52.6338 43.5289 36.9345
53.4293 44.7576 38.0813
54.9526 46.5365 39.7078
54.7139 45.9122 38.9346
52.0093 44.8582 38.9714
53.707 45.9209 39.5623
52.6431 45.6467 39.9715
53.4125 45.54 39.3517
52.4837 45.2794 39.4118
51.519 45.0385 39.8184
51.166 44.469 39.2944
50.3322 44.2041 39.3674
51.492 44.6773 39.3701
51.5926 45.7286 40.8801
51.0434 44.7306 39.6862
49.4687 44.7282 40.7039
49.7114 44.2343 39.8444
50.2494 45.0999 40.5474
49.3469 45.0496 41.5372
50.0466 44.8004 40.6081
49.4824 45.1976 41.5951
49.7441 45.2713 41.5477
48.0872 44.3266 41.5598
50.4413 45.9468 42.4477
48.7524 44.8237 41.7909
49.8711 46.2822 43.0201
47.5522 44.2626 41.7517
47.7156 44.748 42.4604
48.9387 45.6823 43.1885
48.6084 45.8535 43.5117
47.541 45.4754 43.9464
47.6803 45.415 43.7141
46.3745 43.8408 42.1557
46.0405 43.9672 42.7862
46.6687 44.4327 42.9109
45.9108 44.5193 43.6774
46.8228 44.8298 43.7204
46.3675 44.8426 43.8756
46.2217 44.7411 43.7381
45.2426 44.3901 43.9263
44.7757 43.7742 43.5171
45.3138 44.8993 45.3804
49.5095 49.0189 48.3104
45.512 45.0926 45.1811
45.0214 44.7151 45.2084
46.5628 46.7442 46.7697
45.1388 46.193 47.6715
44.9273 44.8458 45.5679
43.7682 44.151 45.2279
43.5996 44.4406 46.1091
44.4385 45.3659 47.0534
44.0421 44.3564 45.6201
43.4322 44.8544 46.8578
43.5027 44.609 46.6846
44.1959 45.3334 47.1954
44.0489 45.6883 47.7542
42.5572 44.3888 47.0739
44.0126 45.9395 48.2867
42.5699 44.8384 47.7123
42.4315 44.8715 48.1921
41.493 43.4196 46.4384
42.2624 44.3618 47.1329
42.4796 44.9486 47.7534
41.954 45.0893 48.537
40.0345 42.9564 46.7709
40.9136 44.0735 47.9861
40.3923 44.1077 48.8465
42.5184 45.6791 49.6257
40.9159 43.9288 47.8639
41.22 45.6935 50.6694
40.5469 44.2015 48.8164
40.5451 44.5509 49.685
40.4404 44.6931 49.913
40.2203 44.6229 49.8855
39.4233 43.6889 49.4652
39.4552 43.6608 49.5465
40.3101 44.6915 50.0545
40.1263 44.6258 49.973
38.7147 43.9314 50.212
38.4935 43.3102 49.7642
38.5565 43.2249 49.3345
39.6851 44.7662 50.6588
37.1287 43.2719 50.7046
39.1952 45.3056 52.596
37.7843 43.466 51.3114
39.4785 45.1374 51.9752
38.1377 44.135 51.5561
37.2455 43.0055 50.1489
37.0652 43.7097 52.0155
37.2534 43.3463 51.1033
36.7873 43.176 51.465
36.9071 43.464 51.8039
36.427 42.3902 49.9251
35.6936 42.7957 51.7292
36.9958 44.3855 53.7239
36.1855 42.8197 51.7372
36.179 42.971 51.9499
36.5018 44.1836 53.7193
36.4187 43.5052 52.8467
35.6124 43.0194 52.4071
35.2436 43.144 53.3988
35.4198 43.3659 53.8563
35.9234 43.6154 53.929
35.7212 43.8823 54.6536
35.9136 43.8325 54.5759
35.0136 42.8826 53.1894
34.439 42.4943 52.8256
33.7159 42.0751 53.3255
35.2958 43.911 54.9394
34.245 42.8507 54.3513
34.2744 42.6222 54.0653
34.0066 42.4426 53.5313
34.1973 43.3866 55.5748
34.1028 43.355 55.8567
33.3028 41.677 53.3491
33.4488 42.5929 55.1925
34.3877 43.7347 56.2407
33.8618 43.1103 55.4867
32.7805 42.2682 55.3228
33.1555 42.0953 54.3836
33.0948 42.7135 55.5557
33.584 43.6472 56.7854
32.7923 42.8531 56.3069
32.7568 43.0948 57.1068
32.1202 41.9849 56.138
32.4465 42.5654 56.6475
32.5995 42.8678 57.3172
32.2803 42.4723 57.0199
32.8473 43.3169 57.4918
31.8832 42.6728 57.9057
32.7019 43.368 57.8674
31.2605 41.6632 56.7454
31.83 42.5323 57.5692
31.5746 42.666 58.1523
31.1724 42.2322 58.3482
31.9393 42.955 58.2557
30.9319 42.1219 58.1478
31.0966 42.6381 60.2963
34.4244 46.1589 61.7018
31.9128 43.5975 59.8206
30.7573 42.463 59.0252
31.3834 43.4928 60.3325
29.7987 40.8533 57.2367
30.6154 43.1571 60.3734
29.3104 40.8297 58.2242
30.2723 41.9913 58.8253
29.4088 41.3816 59.2997
30.7078 42.5378 59.6631
29.5104 41.8476 60.2543
29.5558 41.1697 58.7966
30.0369 42.5721 60.5888
29.592 42.2255 60.6023
29.0756 41.2351 59.4285
29.487 42.0504 60.4669
28.4415 41.0801 60.4336
28.6607 40.608 58.8077
28.5881 40.8228 59.3457
28.3741 40.8813 59.6005
28.3806 40.9634 60.0603
28.9026 41.5436 60.4305
28.5992 42.1662 62.2508
28.039 40.6902 60.2818
28.6298 42.2019 62.3653
28.037 41.226 61.8556
28.8213 42.1003 62.104
27.5501 40.6604 61.0779
27.9013 41.4377 61.806
27.4666 40.8849 62.5565
27.6944 40.4658 60.3704
26.8993 40.5333 61.8298
27.2563 40.7874 62.0864
26.9682 40.1229 60.8871
26.9994 40.1889 61.001
27.5521 41.7395 63.3165
26.9584 41.1586 63.2618
27.0447 40.7113 61.7479
26.4078 40.4132 62.5245
26.5329 40.4236 62.5738
25.9859 39.1757 60.2378
26.7743 41.4755 64.1989
25.9396 39.8117 61.9443
26.184 40.6543 63.5793
26.0025 39.8031 61.7648
25.8915 40.8585 64.3165
25.1595 38.7752 61.6785
25.9462 40.5385 63.9698
25.8404 40.503 64.2631
25.9826 40.6601 64.3768
25.3713 40.2621 64.6363
25.5813 40.0206 63.3222
25.0065 39.9355 64.5088
26.038 41.4986 66.3262
25.4156 40.5967 65.7528
25.1686 39.7685 64.3982
24.7895 39.5149 63.9842
25.0593 40.4129 65.7395
24.4772 39.1894 64.209
24.8674 39.5388 63.8919
24.706 40.7363 67.7752
25.0476 39.7693 65.2502
25.259 40.2221 64.0654
23.4705 38.9581 65.727
24.3324 39.1695 64.722
24.7814 40.9466 67.6834
23.9448 38.872 64.9693
24.2598 39.7708 65.9722
24.3581 40.0919 66.379
23.7033 39.5455 66.5738
23.99 39.883 66.8638
23.6305 39.121 66.2831
23.5009 38.7252 65.2724
23.1959 38.5246 65.134
23.1765 38.0852 63.2812
23.1145 39.3742 67.2814
23.1353 38.9103 66.8955
23.4215 39.5392 67.313
23.1935 39.1069 67.1529
23.1339 39.2244 67.8453
23.0901 38.9283 66.9324
22.8844 38.5704 66.1229
22.6003 38.7231 67.3763
22.7414 38.9342 67.2017
22.5688 38.8654 67.945
22.4377 37.9 65.5768
22.4252 38.9116 67.9271
21.8657 37.2548 65.3154
22.2056 38.4596 66.8789
21.5738 37.761 66.5279
21.9695 38.4682 68.4697
22.0237 38.1605 67.571
22.0391 38.7264 68.9207
22.7433 40.3784 71.8231
21.817 37.4322 66.9488
22.4247 40.0888 73.9309
24.7821 42.6294 72.3406
21.7991 38.8257 68.9161
21.0868 37.8995 68.8412
21.0538 38.0261 69.7524
21.5253 38.1379 69.233
21.5212 38.4443 70.0632
21.5273 38.7888 70.7221
21.3414 37.8902 68.8622
20.9051 37.6461 69.269
21.0333 37.4029 67.8239
21.2147 38.6278 70.7845
21.5349 38.9732 71.1421
20.6772 37.4415 69.6246
21.2823 38.5188 70.454
20.8734 38.6443 72.5605
21.1959 37.9436 69.5334
20.4333 37.8125 70.5939
20.5874 37.406 69.0636
20.0492 37.369 70.4593
20.18 37.0073 69.6457
20.2778 37.5111 69.6685
19.7099 37.0031 70.6015
19.5337 35.8459 68.4573
20.1601 36.7936 68.5135
19.4702 36.1063 67.6929
19.4703 36.3138 68.4432
19.7311 37.1155 70.2138
19.0831 36.0427 69.9487
19.526 36.1966 68.979
19.4336 36.5106 69.2079
19.2914 36.7094 70.1788
19.5236 37.5111 71.92
19.2645 36.7414 71.2509
19.2168 36.4709 70.7041
19.0075 36.1236 70.1734
19.0314 36.5812 71.3664
18.87 35.992 70.2624
19.3517 37.1744 71.9305
18.9175 36.2596 70.2045
18.2079 35.5137 71.3794
18.9003 36.3559 71.4033
18.7007 36.2661 71.2368
18.0599 34.9125 70.3878
18.9614 36.2697 70.7017
18.516 36.856 73.9979
18.7559 35.7465 69.7973
18.5256 37.1425 75.0498
18.9961 37.028 73.8906
19.0358 37.5069 73.5783
18.0168 35.4899 71.8209
18.0853 35.9653 73.724
18.3831 35.4111 70.5407
18.5188 36.4142 70.5386
17.2188 35.3526 73.2356
18.2827 36.4888 74.1591
18.4502 36.8021 74.4783
18.1681 36.3302 73.8844
18.0845 35.85 71.8837
17.6861 35.8227 73.6077
17.6883 35.7134 72.8147
17.3903 35.0089 71.054
16.7725 34.3403 71.9272
17.3497 34.9261 72.1067
17.4127 35.3145 72.1882
17.2623 35.806 74.6498
16.9912 34.2558 71.0858
17.1341 34.9036 72.2582
16.9175 34.9946 72.8109
17.0105 34.8888 72.7063
16.5676 34.1556 72.5158
16.9737 34.9256 73.1221
16.7634 34.823 73.816
17.1138 34.7807 71.9767
16.4993 34.8201 74.1058
16.8682 35.2112 76.1903
17.7124 35.7901 73.7888
16.442 34.8706 75.585
16.9131 34.7551 73.7299
17.1182 35.512 74.1589
16.2937 34.0254 71.7304
16.1855 34.8695 74.9494
16.1784 33.8487 72.9845
16.2785 34.3032 73.0154
16.3009 34.8219 74.7817
15.9479 33.9822 73.7057
16.1351 34.3641 73.307
15.3152 32.9525 72.7938
15.6398 33.4377 73.9434
16.0156 33.7477 73.8981
16.2443 34.2667 73.6798
15.6248 33.3219 72.8182
15.4998 32.8598 70.3782
15.1575 33.2389 73.8347
15.6457 33.976 74.8116
15.447 33.1233 73.1884
15.5768 34.0816 78.1647
17.3315 36.5299 76.3944
15.0942 33.1653 74.1913
15.6449 34.1339 74.8318
15.4128 34.0505 75.6122
15.3086 33.7633 76.3727
15.9244 34.3331 74.7317
15.0868 32.8654 71.9248
14.5049 32.8898 75.5741
15.2344 33.4153 75.1208
14.8064 32.2184 72.806
15.0552 33.3234 74.2541
14.9269 33.6773 77.0975
15.1341 32.8554 74.3741
14.9994 33.6055 75.5263
14.5522 32.1708 72.5206
14.5488 33.0386 76.374
15.0174 33.0049 74.4373
14.6862 33.0572 75.4124
14.9563 33.4174 74.7011
14.103 32.2319 74.7301
14.5324 32.9567 76.0809
14.7207 33.1408 76.4402
14.5487 32.4796 73.2396
13.8672 31.5749 73.1144
14.076 32.6621 76.6184
14.3718 31.9556 73.2945
13.8732 31.8232 75.0863
14.3743 32.5823 75.4658
14.1545 32.3387 75.013
14.1587 32.7228 76.4802
13.9781 32.0137 75.4632
14.2592 32.8352 76.7421
14.0677 32.4875 76.8603
14.1074 31.8404 73.5092
13.4994 31.5058 74.1538
13.5177 31.3095 75.5084
13.9178 31.8057 73.9367
13.5703 31.5601 75.0591
13.6521 31.6133 74.1252
13.5746 31.5396 74.1647
13.0556 30.3882 72.628
13.0601 30.7466 74.3535
13.3291 30.9149 73.3365
13.2496 31.4009 75.279
13.3838 31.9551 77.3863
13.6749 31.4292 74.3059
13.1405 31.1717 75.0972
13.0524 30.8825 74.3635
12.8684 30.8115 76.8098
13.8421 32.4085 76.9733
13.1797 31.1475 75.5752
13.2329 31.2306 74.8667
13.1904 31.8832 77.2617
13.0781 31.2366 76.4605
13.136 31.5627 77.9117
13.6549 32.8556 79.4173
13.0457 30.979 75.4852
12.6831 30.298 74.9225
13.1791 32.1988 78.7448
13.0949 31.6279 77.5646
13.0614 31.475 77.2886
12.747 30.8574 76.5666
