# pn-170911/RbIIR-46-WTZR-1280-1959.psd
# Power spectrum* (dif=0,1,2) (really just |FT|^2)
# NOTE: only the first half! (symmetric)
# weeks: 1280-1959
# 19 clock-days, 0 excluded
# PSD: 1441
3801.89 0.13954 0.0279864
49898.2 1.07137 0.196321
374491 7.55364 0.183948
30785.2 1.0635 0.195021
35389 2.0356 0.181558
5856.85 0.366111 0.143076
5569.63 0.728312 0.090015
4319.22 0.488297 0.10087
3270.18 0.59133 0.152441
2698.8 0.585226 0.145437
1893.52 0.521474 0.155739
2190.88 0.748696 0.200446
1964.15 0.721636 0.208403
1326.05 0.601925 0.144494
1186.85 0.753154 0.139258
838.611 0.613084 0.174258
918.429 0.513511 0.15395
867.145 0.810901 0.177098
699.445 0.689501 0.172589
705.93 0.519646 0.196697
625.016 0.776941 0.243807
871.377 1.11658 0.158293
570.608 0.931657 0.141365
442.437 0.814871 0.223386
525.11 0.987684 0.142435
296.507 0.804937 0.13196
425.826 1.0195 0.132725
614.574 1.42773 0.142821
708.801 2.21004 0.141718
444.927 1.15746 0.142709
866.018 2.96914 0.153026
639.178 1.95364 0.19139
469.959 2.20337 0.214393
236.401 1.39715 0.132698
413.405 1.96738 0.135488
649.809 3.46797 0.200716
384.461 2.60369 0.143175
363.687 2.1917 0.130182
466.983 3.05131 0.146938
336.667 2.86173 0.20495
345.339 2.44524 0.218276
517.693 3.57157 0.197337
275.277 2.77693 0.161234
520.91 3.90558 0.202424
677.453 5.42658 0.241756
505.108 4.53362 0.130827
428.796 3.52887 0.164932
588.407 6.26133 0.191465
421.973 4.18344 0.0974759
416.963 4.64042 0.166702
368.192 4.03484 0.233761
297.192 3.6687 0.223374
438.937 6.32098 0.142268
443.476 5.74363 0.220883
405.709 6.24271 0.303438
459.269 5.77381 0.300767
486.619 7.22258 0.223723
281.284 3.59532 0.206535
444.769 7.17798 0.215617
436.674 6.74599 0.261681
348.763 5.80927 0.139216
390.823 6.22135 0.207586
533.102 8.24261 0.263191
484.955 8.01469 0.371294
343.639 6.81873 0.285565
289.757 5.21302 0.206217
407.045 8.30748 0.260962
383.517 7.24509 0.23352
386.826 9.16923 0.249764
379.418 8.49572 0.386657
347.075 6.6379 0.285022
336.293 7.01013 0.269204
551.234 12.6114 0.543992
305.198 7.23807 0.311643
468.528 11.1454 0.438518
470.035 11.1699 0.419962
263.765 6.42979 0.272979
323.858 9.43437 0.326948
455.425 12.3411 0.62871
394.929 10.1688 0.364405
480.406 14.2671 0.470744
477.515 14.7287 0.559674
261.756 8.84104 0.519966
431.134 12.6558 0.425788
417.405 14.6023 0.781687
400.561 13.08 0.514192
364.71 13.0838 0.857165
176.215 6.47971 0.453443
357.765 12.2114 0.636157
324.97 11.1814 0.484227
262.466 10.5368 0.631439
417.61 16.5955 0.721811
329.001 12.0576 0.555196
397.957 15.9394 0.78704
256.206 9.78505 0.463193
363.011 15.3627 0.931672
437.753 17.9809 0.810195
309.704 14.7557 0.745718
246.863 10.4255 0.524499
266.904 11.5165 0.567212
244.63 10.8964 0.627638
206.609 8.18363 0.559082
205.448 9.61518 0.568594
139.352 6.79416 0.431425
200.038 9.89136 0.491755
348.555 17.9168 1.30687
264.622 13.2167 0.806842
223.818 12.9189 0.950984
290.48 16.5387 0.821361
297.929 16.0871 0.828095
225.25 12.4424 0.832312
135.855 7.3742 0.545655
298.808 17.3543 1.013
237.062 15.5017 0.819426
198.892 12.4236 0.587557
283.624 17.9894 1.3273
229.748 14.1417 1.12769
256.454 16.7346 1.0038
206.078 15.1776 1.08113
292.466 17.9401 1.13067
245.976 15.3426 1.04533
267.53 16.1658 1.27253
255.189 16.9875 1.58925
243.631 15.6602 1.37502
230.426 16.8679 1.36746
189.121 13.4822 1.13128
213.503 14.7516 1.37933
301.915 22.0438 1.74154
252.066 16.6376 1.23223
174.358 13.711 1.10741
109.33 9.05164 0.823685
199.118 16.3626 1.30742
229.789 18.7898 1.65313
202.688 18.4898 2.09372
278.028 21.8819 1.91633
348.405 29.017 2.86924
152.456 14.0681 1.34185
154.864 13.2272 1.13359
109.065 9.42331 0.812982
158.26 15.1013 1.11397
252.815 23.4581 2.45415
110.796 9.17121 1.01347
132.863 13.2307 1.20756
189.474 16.9503 1.70745
260.423 26.0668 2.56418
155.371 14.2089 1.43232
152.717 16.7934 1.74292
127.255 11.7781 1.33511
125.166 12.7865 1.50665
188.583 17.8215 1.71832
201.401 21.9967 2.47365
159.945 14.996 1.81002
144.155 16.9588 2.00715
190.468 18.9003 2.53224
137.87 15.3793 1.95125
142.038 16.6687 2.00908
132.302 14.1883 1.87
121.408 15.0664 1.93284
115.528 13.8963 1.59669
153.217 17.9136 1.92565
112.966 11.3783 1.46938
164.317 20.4692 2.26954
151.837 17.4208 2.39975
175.969 21.5768 2.87263
157.349 19.3958 2.4938
116.364 14.412 1.85455
124.727 16.3702 2.0475
145.785 20.2626 2.35242
126.187 17.056 2.25021
141.367 20.2027 2.78028
152.9 19.1453 2.26685
104.343 14.362 2.12112
119.35 15.2233 2.04669
146.853 18.3996 2.44558
170.169 24.3502 3.64716
180.475 23.9961 3.52938
93.669 13.8989 2.42439
122.955 16.0837 2.36979
153.692 24.4902 4.12692
138.026 19.8342 3.06675
130.794 20.5963 3.15082
128.509 19.2136 2.33805
123.051 19.7813 3.0222
208.927 30.0768 4.2982
137.617 19.7223 3.24688
96.4184 15.6642 2.32319
186.898 26.969 4.43948
123.666 21.124 4.08102
141.837 22.7101 4.12417
120.898 19.311 3.0288
93.403 16.2226 2.87008
85.3536 16.7826 3.32881
334.562 57.1621 9.46964
128.587 23.2183 4.39244
60.2948 10.064 1.67143
109.921 19.8977 3.73933
127.147 19.8066 3.68973
61.0446 9.93532 1.89078
134.966 22.8395 4.06429
75.4815 15.3566 2.94776
110.103 19.5584 3.62889
71.6682 12.9209 2.07163
110.718 20.1051 4.12853
115.77 22.0137 4.65865
134.039 25.069 4.68384
99.5389 19.9527 3.67843
119.042 24.0476 5.05466
148.84 27.7992 5.30784
134.939 26.1658 5.73448
113.379 22.9036 4.12459
66.3453 12.907 2.58614
115.746 22.9833 4.87712
73.0811 16.5705 3.35159
92.0537 18.0385 3.82054
53.1521 10.2943 2.1195
117.619 25.5306 5.4895
99.5401 19.4312 4.03378
61.4794 15.1261 3.55157
63.7699 13.1844 2.87168
106.006 21.8741 4.30937
83.6179 17.4185 4.19845
73.7121 16.5531 3.58083
105.891 24.9628 5.44363
114.323 21.2118 4.14349
101.867 23.1234 5.66052
92.1207 21.6947 5.29774
77.2522 17.3608 4.42257
83.8868 18.1693 4.26384
96.3046 21.653 5.38189
64.9513 15.7775 4.15812
69.7444 17.4279 4.47382
97.8632 24.3924 7.19958
60.0396 13.081 3.0524
94.2377 22.5351 5.21644
102.919 27.9752 7.52071
52.1321 14.0264 4.11066
73.5396 19.2766 5.46687
76.3316 18.3102 4.71648
79.8017 20.7995 6.06785
58.8148 14.0449 3.42415
104.835 27.0954 7.22887
82.5908 23.1046 6.56971
106.256 29.9323 8.60829
80.3112 22.1797 5.35601
97.7998 29.6283 8.54559
103.785 25.6399 6.24796
89.0264 22.8254 6.30314
67.5608 21.1648 5.79858
68.7408 20.9435 5.27026
60.8621 18.3444 5.49025
79.8076 22.4168 6.29852
94.1871 27.9061 8.7122
98.9116 28.5309 8.30798
57.4424 14.2144 3.25011
82.8397 24.3398 6.60168
81.0559 24.8724 7.41634
73.831 22.123 7.27855
88.8605 26.1694 7.97472
40.8271 11.9211 3.89201
68.7821 20.8039 6.68556
61.0483 19.1667 6.07486
61.1169 20.111 6.25863
69.8962 20.7622 6.06557
56.4523 16.3717 5.12247
71.5896 22.1091 6.62492
71.8749 23.0025 7.68444
56.2576 18.5245 6.2373
51.6111 17.9833 6.80669
78.6049 25.1663 8.91637
86.4146 28.569 8.69679
86.2841 27.6813 7.87325
66.3311 22.3885 8.47915
72.4785 25.4021 8.83656
61.7274 22.9215 8.93277
54.3027 17.4765 5.77472
54.5242 18.3978 6.55299
61.0302 24.4271 9.13305
56.8025 18.2811 6.71804
75.0104 26.0352 8.64725
55.0663 19.4995 6.98093
55.7482 19.4264 7.16737
71.786 24.8779 8.35742
53.6119 21.7344 9.13794
103.03 36.7883 13.9325
93.9137 30.4975 9.85497
72.7302 27.5488 9.98601
51.5746 19.5253 7.72917
74.838 26.6133 10.3104
135.443 54.673 19.6617
55.6754 18.7573 6.63787
37.7608 16.7961 6.39157
41.5712 17.4607 7.00174
66.7747 25.4071 9.83145
57.9802 21.8866 8.5036
56.3719 23.4386 10.2441
73.2744 30.0857 12.208
61.453 19.7822 7.85916
66.6065 27.6544 11.3164
47.2726 15.7267 6.00786
66.5008 28.0483 12.0082
50.1585 20.6616 8.83122
48.0467 22.2509 10.3846
65.4313 25.514 10.3856
69.4113 27.7959 11.9432
50.1666 22.5174 10.3241
72.3268 27.6232 10.8265
64.7242 28.6424 11.8822
39.7545 17.9589 8.84622
51.5802 21.4032 9.55363
71.4707 31.8201 14.2497
54.484 24.0438 10.6582
77.832 33.8168 15.4025
38.0438 19.9898 11.593
69.4764 28.6199 12.1023
56.5251 21.9226 9.37
59.7172 26.557 11.2825
44.8529 19.9184 8.6221
48.8231 22.6219 9.96286
88.8912 45.5522 22.9217
105.009 42.1935 17.7688
50.3554 24.4263 11.4738
109.218 52.379 23.1686
41.7019 16.8686 8.42663
41.1202 21.1786 10.9414
61.1781 33.5806 18.8122
59.9535 21.4973 7.97962
50.127 19.644 9.21076
38.403 16.4012 7.83164
41.665 21.016 10.968
62.4017 27.303 11.6152
38.3653 18.794 9.92338
51.5699 25.4364 12.5884
44.6 19.05 8.85149
37.3903 19.4939 9.30583
57.8433 28.4825 14.6411
60.1313 31.4283 15.9985
49.8505 23.238 11.4494
51.3293 24.8363 14.2197
54.4802 27.9635 15.5371
52.871 23.7 9.62519
57.1936 32.544 17.347
44.5489 24.2903 13.379
32.2312 16.1183 9.91218
70.6285 34.7733 16.7641
51.9463 33.6766 18.5352
45.9013 22.0355 12.2289
47.1422 25.7511 15.3611
30.7054 13.9525 7.02397
50.8844 25.388 12.7085
54.0839 31.429 17.5651
38.8428 22.1125 13.6027
50.7602 22.3909 10.797
43.6016 25.2863 15.5872
41.2377 19.7258 10.5568
45.2251 26.635 16.6626
51.1119 28.2916 17.4144
54.0523 28.0521 14.1266
53.3798 33.1673 20.6839
37.4996 20.2789 11.3706
46.4319 31.0936 18.4807
60.194 30.8024 15.6447
30.405 17.5874 11.1407
47.9817 28.6143 16.1038
48.2828 29.8871 17.8782
42.2291 25.4854 14.6381
41.0372 23.5042 13.5666
40.2645 22.8738 14.5617
35.8986 22.1815 15.3264
58.555 35.8365 22.9823
45.7478 24.3631 13.9024
34.7618 17.8134 8.79544
35.1052 26.6239 18.6399
47.8229 27.7946 16.9675
37.4316 22.5777 14.7181
23.9925 13.5309 8.15123
38.6686 21.3735 12.0357
20.5245 14.9995 10.7903
53.9103 33.7481 22.736
40.2803 22.8102 14.711
30.4668 20.117 13.3761
36.2777 24.6152 17.5646
35.9588 21.0453 12.5024
39.8594 26.7536 17.6865
49.5407 30.0426 21.0241
123.901 76.3332 43.7899
33.3887 20.1552 13.155
40.6145 29.0525 20.4951
38.9232 27.6921 18.9469
45.3501 30.4844 21.8855
68.926 45.633 30.5924
42.6282 28.4951 18.1047
32.9963 22.1082 15.4147
32.9147 20.1503 12.0591
26.134 22.9551 18.0238
42.4881 29.7225 21.1978
40.906 24.6756 16.9656
35.3074 26.0106 16.1999
28.939 19.593 13.8559
23.8658 16.9378 11.26
33.315 24.6825 18.8818
21.7643 13.3271 9.49022
31.8133 20.8125 14.7361
30.8071 23.5939 16.7243
36.6596 23.5939 16.1579
43.3737 28.1422 19.6797
37.1694 31.0414 25.7804
50.2261 35.2376 24.1916
30.7606 23.622 19.0479
43.3856 31.6956 24.8113
45.797 32.7607 20.8724
27.614 21.7736 17.0096
27.3832 21.1924 17.8077
34.0664 22.9035 15.6596
28.1001 26.5036 23.8395
38.132 23.5215 15.7429
27.3613 22.19 17.9272
41.7727 31.474 22.5681
22.4965 15.7279 11.6328
34.0528 25.2917 16.1509
27.3253 27.0029 23.712
28.3226 20.2149 14.2642
24.19 21.1148 20.4439
50.6863 37.9469 27.1251
32.6165 25.3784 19.3903
30.4631 26.5286 20.2396
19.9977 18.7909 17.7237
33.3151 25.0995 18.062
25.2215 25.074 23.4674
20.3311 14.8376 14.6029
48.6836 37.3547 27.3672
24.4991 20.5059 17.2758
25.6558 22.5309 19.9371
34.8174 26.3075 20.9236
35.5816 32.7644 27.4306
35.9978 30.6461 25.1997
29.4573 19.5484 14.8608
28.7914 25.5555 20.8659
27.6301 24.8288 21.17
29.7164 25.9864 24.028
28.8402 21.0447 14.7631
23.8338 20.8593 17.7464
25.61 24.0994 22.3194
26.3663 24.1083 21.1011
29.3444 27.6937 27.3579
34.1082 28.2523 23.7062
35.9968 28.7098 22.7002
25.4115 24.393 21.4136
23.2864 18.9051 17.2275
34.0644 24.4178 21.4382
29.0255 23.8685 19.1688
24.1758 22.8957 21.7496
31.6046 25.9653 20.1669
18.073 18.8779 20.5925
29.4598 23.4423 20.1511
33.5393 27.993 26.098
24.937 19.3617 16.1419
33.1212 29.8563 27.2362
34.3942 29.3692 26.0254
29.7066 25.5097 21.1966
24.7922 24.414 23.2497
19.2008 19.4754 21.4183
50.7022 48.7051 45.2622
29.8293 19.3828 13.4038
25.7238 26.5972 23.9383
20.6078 15.3075 15.1554
22.9031 19.4251 18.6576
25.8039 26.7952 29.6096
29.4929 23.2499 20.9885
14.3258 14.015 14.817
22.7214 23.963 21.2647
15.9189 14.07 14.0068
12.7182 14.9453 16.9093
21.0212 18.974 19.2906
31.0926 29.5175 30.1895
35.5529 35.51 32.6458
25.4938 22.4221 21.7658
37.2981 35.3736 34.2892
24.2504 19.9077 19.7497
29.5482 28.1018 25.9421
26.8337 28.7035 33.6666
62.1915 58.3578 50.2911
35.2623 33.1207 32.4474
23.9898 23.7518 24.0385
21.7802 21.0776 21.7609
18.3485 16.8008 14.9176
19.6491 24.1659 24.4479
19.3946 20.0721 20.0512
21.2875 23.1307 25.3522
20.426 20.1298 19.8215
25.3598 30.139 34.9453
24.6058 20.6294 20.855
19.1916 19.1567 24.2529
28.9333 25.6 24.8612
23.5634 25.0336 24.1563
24.6654 25.486 25.6676
21.7406 23.7127 27.0564
30.2571 33.7134 35.9046
21.1954 19.0218 18.271
19.3208 19.4273 18.4972
18.6501 18.9174 19.5586
19.5172 26.2907 33.0519
28.1942 23.3889 20.0703
14.3027 14.8086 15.8619
19.4153 22.5612 26.6515
20.8063 19.8219 19.4431
17.0629 18.8323 22.0303
17.9102 19.2059 19.6706
17.6735 18.4017 20.2102
15.5476 21.251 29.4491
32.0092 36.8329 41.9701
27.7156 27.7004 32.5891
29.2664 29.8015 28.8379
25.6742 28.4593 37.7151
25.9372 24.165 26.6084
27.3021 28.5166 27.3813
22.8037 22.1842 23.945
27.3609 32.5647 36.3957
16.417 15.7986 18.507
15.1059 17.1241 18.2207
19.6407 20.401 25.4483
20.3615 20.9252 21.4455
18.3667 23.7659 28.8952
17.6796 15.296 16.631
19.9579 20.9049 24.1025
29.2083 33.5084 36.0864
21.8838 26.9742 29.4319
11.6765 17.7618 27.2132
27.6239 26.4059 26.0063
15.7385 20.2289 24.1848
16.0901 20.1381 27.6921
23.5687 27.3268 28.5514
16.8975 21.393 27.3429
21.2307 25.8898 34.0318
21.0659 22.709 24.9996
13.0172 16.0002 22.86
16.9583 20.1566 25.0413
22.8352 30.4026 35.358
19.8831 22.2234 24.8095
14.3411 22.1855 29.8052
18.1366 17.1224 20.1186
13.485 18.4846 24.5759
17.7901 22.8724 35.8124
21.5469 19.4955 21.941
29.6143 31.4668 32.7162
14.0609 16.5279 19.9437
16.5148 23.7965 31.6133
13.6835 16.0859 22.6234
21.6071 26.0662 32.7988
13.4093 16.3636 21.4511
17.7648 23.5179 33.5521
23.934 22.958 22.5876
13.6988 19.9822 29.1406
18.3168 17.8497 17.8122
23.1106 31.9937 38.8731
16.7497 25.0373 35.1199
18.9711 25.14 36.3952
17.8573 23.3921 36.0869
23.518 26.8468 35.3733
19.9699 21.7369 23.2769
18.3059 25.2464 30.7035
22.2899 26.6111 30.9423
12.4939 19.2345 28.7783
15.6786 18.0861 27.8103
20.8897 26.2213 28.9529
12.4153 18.7801 30.7596
24.6665 26.3943 28.2544
17.0924 26.6692 38.8052
21.3469 23.6453 31.8798
19.7908 23.7941 27.0357
17.6141 25.4881 37.4885
20.6284 23.8282 30.3407
23.7817 37.8566 52.3651
16.9138 18.7578 26.3494
19.5525 23.5276 33.7473
17.8849 23.5464 31.9293
18.1542 32.9527 60.7195
46.5538 57.4272 59.9704
17.249 24.9378 35.9416
17.5243 22.9013 28.4925
11.443 18.9417 28.3253
16.0807 21.4082 30.5756
16.4635 22.1721 33.9913
15.8583 25.6245 42.1973
14.1638 16.7969 23.7416
14.0595 16.8776 23.4266
17.8358 21.591 29.4044
16.868 23.7116 31.0705
18.1268 21.3472 28.6784
11.2228 18.3963 31.5471
16.8218 19.7392 24.3345
15.4932 27.0772 40.4776
10.0858 15.7641 27.6612
16.1544 20.0097 29.321
16.621 23.9079 37.5057
21.5586 28.2709 40.2943
14.9969 17.5316 23.3836
19.4126 26.4592 31.1287
12.262 18.3586 29.3893
17.4549 20.8815 27.6979
15.9469 22.5806 30.5869
13.7793 17.8321 25.164
12.5129 15.9856 19.5213
9.6225 17.7352 30.3953
15.006 22.6491 40.5547
14.7859 21.8917 33.5431
14.7076 20.5592 28.8225
13.7678 20.5022 27.4502
16.3202 26.4044 38.573
13.0952 23.5732 38.5036
9.21105 15.7982 31.2037
15.4027 16.609 20.3699
15.9574 27.8314 42.5785
14.9392 25.5933 42.9172
17.8916 30.9215 48.313
17.8417 20.5722 25.4788
14.57 26.0919 42.4863
13.2981 19.5946 32.3034
11.7361 17.4182 30.013
16.7181 22.4432 29.2189
10.0928 15.6416 26.6959
17.7789 30.824 52.4243
17.3497 25.3872 40.5202
22.0104 31.7211 41.5234
15.0236 27.5568 43.1052
20.3102 36.4442 56.4326
15.2595 19.7477 29.8775
14.2788 22.0544 39.6069
17.0308 24.3847 38.5344
20.9989 33.9023 48.7769
11.9725 20.5211 36.5706
10.139 16.6831 30.4476
15.8034 25.8489 43.6643
18.0929 24.113 38.9334
17.3622 26.3708 40.7894
12.9281 26.588 53.1018
15.4807 16.651 23.9987
14.0134 24.8531 44.6025
18.0383 27.8773 43.3993
11.2584 14.0548 19.8766
14.7385 29.4775 53.6787
15.8833 23.5213 41.8788
13.3684 17.925 27.7251
14.3428 27.4787 43.7049
12.4061 20.119 40.6869
22.6653 32.1423 37.1592
9.29591 19.6778 37.1801
10.4065 21.84 44.3401
15.8857 17.8967 23.3158
13.0854 25.7084 44.4657
15.0813 25.5419 41.2382
8.14138 12.2583 25.7742
13.3631 22.2873 38.384
12.9376 18.2288 23.0871
14.6719 29.247 51.5099
9.22893 11.9909 21.4777
9.21137 15.8478 30.7636
9.40908 15.2363 25.0569
11.8935 17.6794 28.2197
10.9896 17.4125 29.6784
13.2137 26.1279 48.2802
13.2635 16.5832 22.3057
13.7314 30.1173 55.7277
13.2101 20.3653 37.2445
14.7274 26.4157 42.5931
12.0068 19.3939 32.399
12.9435 21.5511 36.4223
9.14528 12.1256 20.8686
10.9289 17.8512 29.0175
10.6081 19.1918 34.8745
8.68491 16.2963 33.5311
10.4627 18.9812 39.217
13.4522 18.6265 43.7964
33.5974 62.7948 88.6591
7.45486 12.4681 28.335
8.47557 14.2412 28.2748
12.2083 19.8732 33.2383
10.3711 20.784 36.6853
11.0293 18.2801 40.6592
12.5267 23.0866 37.9997
11.4298 21.9753 40.3852
10.5166 16.6847 32.4907
14.5505 25.608 41.075
11.799 20.9621 40.4891
14.2023 26.6112 52.7754
13.9485 26.0892 44.9203
10.338 19.5964 41.7154
11.0898 18.1504 31.0386
16.0789 36.6778 71.196
19.5395 28.749 41.6472
9.43803 16.5148 36.1156
11.8213 21.6255 35.4272
8.92719 16.1744 30.6063
9.96106 20.0196 36.4291
10.0884 18.9292 32.6868
9.47132 20.8131 49.6313
17.765 28.3449 44.6246
13.2943 27.9413 52.8302
8.54056 11.9805 27.3898
11.1026 21.4422 43.9501
14.3825 28.8887 59.4157
13.8176 19.1053 33.5634
16.9782 54.3232 152.039
39.4402 51.2767 50.422
11.6247 22.6349 40.9259
13.918 23.3043 35.6753
10.2728 22.5277 49.7856
12.6331 21.6462 41.8949
12.103 20.8251 44.8936
15.1895 25.6429 46.8182
13.5257 22.0517 37.6433
9.09796 17.8145 34.5826
12.2921 24.4798 44.6461
9.72684 22.839 46.1679
7.71512 11.7815 32.4599
13.4217 24.4592 40.1561
9.17135 21.8929 40.8468
7.47376 12.7689 25.3773
7.77422 13.918 29.9496
11.6718 19.1557 31.7671
6.9469 14.1868 33.7002
9.12893 16.7606 31.4455
10.5588 22.2705 44.1879
8.87648 14.5071 35.1112
10.877 19.4398 39.6776
10.2135 17.3787 31.7316
7.1533 13.201 33.5807
15.6851 30.8373 49.9053
6.46053 16.6474 42.8511
9.92471 18.231 35.5
9.51086 18.9185 36.8468
10.4506 23.1016 54.5525
13.8876 24.5479 39.9288
6.37647 13.0193 31.2838
9.07989 15.6099 33.6812
8.49619 15.8091 34.2771
9.40144 21.5199 48.3722
9.94542 15.7458 34.1751
15.4304 31.1528 48.7558
7.23429 17.9743 42.4095
8.36682 16.9932 41.725
9.93031 15.9251 31.1781
9.91943 18.3491 38.1005
7.65071 15.0272 30.4548
9.90122 21.7277 46.0098
9.66007 16.9896 34.7798
9.65427 18.6126 35.4672
6.50423 13.3633 26.83
8.62529 23.3191 52.9441
8.70756 16.2209 37.682
10.785 24.9793 53.487
9.91219 16.9398 35.9711
7.1449 10.8569 22.3161
7.63146 19.1835 38.0339
7.48965 13.9472 36.5659
8.62493 16.9434 42.3716
10.3266 17.6173 39.0181
15.0876 24.777 42.6084
7.87587 17.9006 37.635
6.05532 13.9774 38.8417
10.0566 17.7239 34.6137
8.47032 19.2892 41.5076
7.9438 15.3268 39.0973
8.80889 16.7563 35.2927
8.10213 18.1629 41.9111
12.5045 22.1684 44.8845
8.11869 15.0702 31.9651
10.5455 28.9694 70.7552
9.09722 20.0932 69.6986
23.4589 44.3541 55.498
6.24075 16.546 36.9793
5.98005 14.142 37.5468
7.44285 12.7663 27.6237
4.4791 8.8327 23.3812
10.7915 27.1833 55.0991
7.43534 16.9764 46.2663
10.8551 21.9021 40.938
7.76611 17.6552 43.1406
8.11644 15.3097 33.8081
8.24228 21.2895 48.8911
8.5996 21.5671 43.5499
7.58822 17.6521 46.0769
7.74561 13.3972 27.5627
7.4021 16.9329 38.8062
6.83312 14.7169 34.0771
7.16191 16.5036 43.6189
9.44294 17.0415 42.9441
9.11094 18.7287 33.0411
5.5258 12.4165 32.3944
10.15 25.4527 44.9175
4.10351 10.0727 34.7956
8.96893 20.179 41.3063
6.18282 12.9728 31.0421
7.21629 15.0448 33.0749
6.78718 16.4332 36.1102
6.24389 16.787 46.9474
7.63898 17.0904 41.736
9.04545 19.0292 38.8591
6.84271 16.2303 39.7953
9.11309 20.2499 50.882
9.35034 19.6169 44.5246
6.82501 13.3885 34.7781
7.94589 13.0065 23.8351
6.7516 18.3845 42.3584
6.60142 15.0828 33.207
5.82914 11.8928 32.9499
8.46237 19.993 40.0354
5.69105 12.2053 20.4205
5.03644 17.5294 47.3117
6.3052 15.235 39.6119
8.98659 20.6451 39.7458
4.95328 12.3837 37.8194
7.0235 16.9868 41.371
8.14848 21.3359 60.3489
13.2541 25.2167 52.743
8.35095 16.6224 33.9545
7.07996 17.7249 53.2544
12.5157 28.4433 55.4853
9.93674 27.7585 64.6974
8.01043 17.7953 37.8878
6.81584 20.1339 62.8262
9.69306 20.711 49.0516
10.1933 19.6309 38.8947
6.54644 12.7762 27.6665
4.6166 12.4617 29.24
4.88693 15.2592 46.6739
9.05699 23.2708 61.0652
9.64915 18.6551 47.4604
10.3662 19.0628 40.6963
7.10577 15.2754 38.0167
6.86624 17.2628 48.2069
9.05999 18.8956 41.5476
