# pn-170911/RbIIR-56-PTBB-1280-1959.psd
# Power spectrum* (dif=0,1,2) (really just |FT|^2)
# NOTE: only the first half! (symmetric)
# weeks: 1280-1959
# 7 clock-days, 1 excluded
# PSD: 1441
2117.76 0.0211515 0.0137895
26485.1 0.186181 0.0040086
369395 7.81778 0.00435792
29727.6 0.978024 0.00394955
148097 10.8195 0.00339089
3312.28 0.467012 0.0040478
11131.4 1.43723 0.00407879
3398.76 0.816263 0.00451813
4770.51 1.21745 0.00548152
2755.6 0.785121 0.00462074
2762.42 1.05794 0.00363824
1073.45 0.545291 0.00472162
1732.44 0.795882 0.00394369
524.723 0.495276 0.00527025
2142.17 1.71414 0.00441095
448.191 0.37428 0.00368291
2462.15 2.48733 0.00743132
449.472 0.805503 0.00481359
174.656 0.407819 0.00390672
462.708 0.685391 0.00442807
669.153 1.28563 0.00625068
633.665 1.00827 0.00554337
208.331 0.4784 0.00520941
523.417 1.2636 0.00756194
466.621 1.27767 0.00669732
264.776 0.521527 0.0060884
462.6 1.51936 0.0119475
399.631 1.23573 0.00628796
568.644 1.61355 0.0111166
441.207 1.50291 0.00830849
192.165 0.754111 0.00963994
381.501 1.26461 0.0102458
326.143 1.56572 0.0101945
132.492 1.01412 0.0118168
411.03 2.41484 0.0144429
441.285 2.17311 0.013206
362.928 2.08549 0.0109688
212.447 1.16795 0.0104941
308.103 2.20129 0.0208163
298.787 1.76589 0.0162334
274.427 2.15644 0.0182274
191.1 1.4441 0.00868796
151.561 1.33984 0.0146047
111.22 1.25803 0.0123594
250.493 1.99569 0.0229818
302.957 2.58031 0.0370599
223.1 2.30817 0.0262045
204.758 2.42625 0.0351618
209.811 2.18642 0.0301996
233.36 3.00611 0.0391109
179.058 2.53612 0.0338796
165.271 2.22706 0.0349657
133.903 1.98192 0.0260511
227.259 3.51925 0.0543548
222.337 2.94977 0.037701
417.03 5.89848 0.0840389
230.923 3.27892 0.0498853
171.07 2.15966 0.0421169
331.193 5.78401 0.100634
360.716 5.40656 0.0970185
240.188 4.14843 0.0795232
223.126 3.92593 0.0640782
213.809 3.72139 0.0787102
182.672 3.56039 0.0645175
177.48 3.07696 0.0695105
94.4033 1.94849 0.0372635
97.9774 1.98327 0.0461629
137.268 3.06427 0.0695853
211.15 4.66318 0.0948493
256.759 5.55077 0.134399
138.086 2.83676 0.075368
205.859 5.23447 0.147763
215.243 4.96745 0.121402
78.2359 2.31391 0.0596223
170.264 3.99652 0.113424
112.286 2.58298 0.0804313
141.341 3.76186 0.126308
180.947 5.84698 0.187541
168.095 5.64783 0.166147
190.971 6.55788 0.196624
149.979 3.55462 0.116895
132.985 4.83322 0.159025
82.8124 3.13928 0.107286
91.6222 2.80291 0.108525
159.841 5.0368 0.173622
168.507 5.37046 0.18809
145.45 5.67159 0.205613
140.836 5.22594 0.217704
354.879 11.8753 0.428863
144.653 5.59707 0.229165
152.2 6.24177 0.259483
147.034 5.52074 0.188544
216.626 8.16993 0.329884
110.791 4.58337 0.185912
98.5149 4.01968 0.163408
83.3859 3.23601 0.151074
207.315 9.01727 0.406566
203.062 8.95303 0.393219
220.79 10.8391 0.476534
48.5281 2.10373 0.102483
144.372 7.71574 0.355019
83.5372 3.8299 0.176602
106.24 5.2447 0.278467
163.702 7.4029 0.391308
105.981 4.86299 0.264007
129.314 8.4687 0.485606
107.702 4.61025 0.251611
76.3406 4.67706 0.249631
57.0685 2.54461 0.138678
70.0932 3.77061 0.242381
194.125 10.189 0.592123
204.496 13.0401 0.86312
113.788 6.55727 0.384843
189.609 10.1054 0.625221
109.569 7.10211 0.454397
355.86 20.767 1.31711
109.912 7.02747 0.477343
240.596 15.3133 1.09038
165.196 11.2646 0.817267
142.136 8.87482 0.572224
93.2765 5.69759 0.359737
101.173 7.65454 0.509667
163.369 11.477 0.860712
209.223 14.3982 1.01376
149.629 9.14532 0.593691
110.313 8.23981 0.619803
152.869 11.5084 0.844759
81.496 7.43111 0.641266
54.2664 4.31229 0.398017
111.8 8.37344 0.610188
144.759 10.2174 0.780994
141.845 11.9431 1.10125
117.262 9.75552 0.800462
103.441 8.50672 0.760715
76.0415 6.49833 0.576497
55.5195 4.62139 0.382577
156.842 13.0907 1.07924
109.759 10.188 0.963621
85.8419 7.09479 0.638218
93.7626 8.21214 0.736694
95.0577 9.82364 0.998853
214.341 19.711 1.95192
104.44 9.60052 0.82965
58.5072 5.50388 0.531781
126.922 12.0555 1.12913
185.918 18.2803 1.69757
131.412 15.9162 1.77282
140.544 11.2077 0.979234
69.2888 7.31173 0.736038
99.209 10.4793 1.05198
82.1922 8.38615 0.910512
153.918 15.9054 1.64413
93.0377 9.86934 1.09389
52.2743 6.20932 0.755883
55.4777 5.91278 0.688071
61.5704 7.77646 0.949511
136.788 14.9097 1.67559
136.039 15.5568 1.80991
140.001 14.2601 1.59461
59.4617 6.82802 0.854478
90.0228 11.11 1.36079
159.531 21.1004 2.65938
32.0229 4.20199 0.602813
127.046 15.9342 2.00815
76.0076 10.0896 1.40294
180.532 22.2985 2.59782
33.581 4.30071 0.566837
213.154 28.4714 4.0291
108.333 14.7814 1.7952
34.3379 5.67266 0.925765
162.664 19.4279 2.44855
77.0003 10.7474 1.41646
62.2113 9.22647 1.39122
102.156 13.0285 1.79366
115.213 15.9485 2.26738
115.693 17.0507 2.58228
70.4442 9.7234 1.3072
84.9388 14.7531 2.46457
90.351 11.3935 1.50064
43.2552 6.69671 1.03994
33.3113 6.07099 1.08301
83.31 13.6397 2.21681
66.2016 9.00672 1.2398
109.82 17.5432 2.74279
95.8702 14.9483 2.26756
61.1894 8.70529 1.2608
83.4492 12.7287 1.97523
193.151 31.4251 5.3383
52.2807 8.57802 1.53697
50.5041 7.38608 1.36403
118.053 20.1305 3.37669
89.9885 16.5211 2.81829
91.8675 15.3912 2.63976
33.5081 6.26333 1.11367
54.075 10.2961 1.80293
39.0014 7.91009 1.6296
100.888 16.4226 2.75055
74.6189 14.0614 2.52313
103.645 19.5607 3.82764
102.018 16.0463 2.65876
57.9381 9.93833 1.533
83.8734 16.6313 3.23261
70.4223 12.0033 2.09307
121.734 24.4487 4.50282
41.3824 9.15586 1.84749
107.338 23.6362 4.9015
82.6089 15.9474 3.10848
142.285 27.6888 5.25858
58.9011 12.8974 2.81392
98.439 20.9263 4.40049
82.9515 17.7875 3.84239
63.9233 12.6695 2.44894
83.3061 16.4132 3.38187
103.716 19.5002 3.48346
61.1273 14.2468 3.0636
57.1123 14.7836 3.55321
130.25 29.3628 6.35116
35.6823 8.48374 2.24946
118.716 25.1026 5.20695
73.6972 17.7785 4.42903
53.9488 10.651 2.42639
70.1648 15.2384 3.57775
89.6347 18.8371 3.89422
80.1682 18.5465 4.28698
65.5916 15.4365 3.73645
32.9043 7.88573 1.96888
57.5256 11.9859 2.77083
76.6227 18.3006 4.60626
70.053 17.325 4.16715
60.5597 15.3253 3.99902
60.5072 15.5878 4.16235
93.8891 20.7881 4.51892
56.4108 15.6245 4.09156
40.1138 8.67736 2.24861
93.4893 20.6607 4.5707
70.2595 18.4233 5.16429
111.176 30.2764 8.2092
58.2843 14.3813 3.58759
22.782 4.72227 1.38055
62.338 16.621 4.18581
54.2543 12.1848 2.71676
46.9353 13.0703 3.55056
33.1865 9.27084 2.71007
114.296 30.1141 7.76273
42.8059 12.8447 4.04114
61.5913 18.4031 5.20372
80.1139 22.6426 6.71824
49.3932 12.2817 3.38668
85.2629 22.3358 6.0415
84.894 23.5372 6.85697
32.9336 9.27157 2.65631
50.9229 14.5801 4.54984
47.8343 14.6911 4.2643
45.9968 13.9709 4.83935
43.2653 14.8764 5.14162
76.4581 21.3972 5.79823
55.7298 15.943 4.65076
74.3458 23.2731 7.14623
51.2814 14.8586 4.16567
72.0804 22.5909 6.64205
44.3143 18.4548 7.05944
82.0238 25.8523 9.04998
138.221 40.6725 10.7613
56.8525 19.0317 6.32631
33.6879 12.1626 4.25883
37.2295 12.2182 3.92105
40.1176 11.9138 3.86795
96.7993 35.6948 11.8798
67.0364 23.9345 8.39721
59.2645 17.9475 5.57039
77.69 25.5577 8.70825
19.8352 6.83494 2.68592
57.0648 20.7203 7.32145
108.678 39.6353 14.109
74.5094 21.2076 6.04496
32.7435 12.194 4.44659
107.014 35.0147 11.337
38.9132 15.3169 5.65874
71.8419 27.776 9.99974
36.6052 12.9318 5.21236
53.6809 19.8656 7.2066
28.9063 10.2957 3.94834
59.6264 23.2326 8.68466
50.1395 20.5604 8.80396
57.6003 18.756 5.80185
51.9712 21.4716 7.74009
31.0879 11.4853 4.4497
46.3799 18.1371 6.69217
53.464 22.9676 9.09796
22.3456 9.5349 4.56716
79.7433 31.0582 11.9872
52.1416 17.8305 6.48877
30.6484 14.2548 6.52252
56.4528 24.1464 10.303
62.0797 19.9467 6.97129
56.9837 24.1884 10.4192
96.0503 33.32 10.8386
90.3801 38.5276 15.4113
34.3374 15.4202 7.06383
65.6981 29.7388 12.8989
64.1861 29.5586 12.511
60.2093 26.9591 12.3799
61.2614 21.6222 8.44851
47.6018 19.1498 8.18169
53.783 19.7662 7.67797
53.7702 22.4805 9.62151
47.2486 18.0299 6.98659
84.6026 36.8331 15.6393
52.4015 21.7133 9.64281
95.4428 43.4833 18.8044
70.7632 30.1715 12.535
34.6079 16.4653 8.30043
33.0317 15.3228 7.41115
59.828 29.6815 13.9215
14.4963 4.93025 2.52062
66.7848 30.8403 13.543
44.5986 22.6524 11.7922
81.5318 30.6542 11.639
64.5418 26.8296 10.1122
44.9738 26.066 13.966
37.9948 17.5331 9.34002
54.1073 22.4555 8.86855
45.1735 24.5949 12.2722
43.7534 18.6457 7.98095
34.4754 19.8936 11.1443
31.9539 16.6359 9.16238
48.9512 20.4709 9.73529
48.2799 23.1427 10.2687
20.4115 14.324 9.31012
27.655 9.78566 4.17157
34.444 16.3186 8.48759
38.3158 17.8989 9.06201
42.8814 23.2548 12.9675
71.2709 32.0969 14.0772
31.5031 14.9861 7.92543
86.6496 43.7483 21.3033
39.4877 18.2566 8.13854
39.9623 22.0706 11.9949
48.3032 23.8791 11.8948
14.2298 8.8643 6.29708
43.5423 22.516 10.6461
28.2662 13.6642 6.81151
42.6536 26.128 15.387
48.0167 22.6114 10.4939
46.7109 28.7809 15.95
28.4382 16.2488 10.0721
49.4923 25.5019 12.7756
18.0538 12.8651 9.51586
49.3414 24.3659 13.5395
50.1298 23.4666 10.7783
37.9336 20.8507 10.4229
33.7507 20.8293 12.4607
28.9187 14.2954 6.89316
28.4361 17.9008 10.7908
45.5713 29.4879 17.3824
18.0555 12.6766 9.11689
31.7749 14.2695 7.67937
47.7768 30.4491 19.0071
46.8354 23.5724 11.9049
28.6224 17.6308 11.4452
46.354 23.8189 12.6956
27.5312 21.0741 15.0364
36.9791 20.9017 12.8123
39.9165 17.0991 7.29093
61.4029 40.9339 23.582
45.1088 29.1379 19.3147
44.0711 27.0654 17.385
29.8742 13.9758 8.24936
110.346 73.6889 44.9158
50.3173 29.5731 18.8821
66.0181 39.5615 25.5438
47.5391 25.3851 14.6786
65.0445 37.5386 19.5776
40.9906 33.1274 24.7013
61.9137 41.4586 28.81
64.1122 30.9251 16.0702
47.5583 25.9643 13.9301
38.9169 29.9406 21.4582
29.2178 15.5772 9.0437
32.0975 24.8609 17.4714
37.9807 21.1419 12.1288
21.2903 16.6015 13.1528
55.4229 38.1153 26.0789
68.1053 45.4517 29.0636
41.8607 23.6214 12.8712
30.5536 22.9847 16.6567
44.2176 25.916 15.8977
36.7002 24.9568 16.2491
33.3778 24.4515 16.6546
24.3642 16.7774 10.485
28.8908 27.0628 24.5439
45.0468 22.2854 11.3557
36.8532 22.5856 13.3112
50.6718 37.2567 26.9226
15.8009 9.61662 6.07936
20.6113 13.7652 9.09439
31.8624 30.1618 27.8154
77.6489 51.0747 30.8386
37.7914 27.7515 20.6068
20.5305 14.671 11.5293
32.163 21.8838 15.3374
54.0245 42.7553 31.4137
32.3849 26.5421 23.8101
64.8433 39.2832 24.8306
43.3513 27.2106 17.5964
35.4155 26.6326 19.2983
16.8207 9.69657 7.75084
56.1879 42.3423 30.2865
43.6442 31.5929 22.4392
27.6574 20.0569 15.6756
38.2598 29.1937 20.7664
13.2535 11.5403 11.1858
34.7279 27.0885 21.9245
66.4482 41.3054 23.176
25.5311 25.9187 23.646
27.0454 20.101 14.4404
17.8939 17.3952 17.5064
27.3355 22.0959 19.7323
36.8919 29.2278 21.8855
23.5797 20.33 21.1597
43.7138 26.9718 16.9452
51.6389 38.6949 25.8393
32.9921 28.2849 23.7568
42.9213 34.2431 23.6517
14.3239 17.0173 17.8817
23.4045 20.2691 19.5057
39.6311 28.0153 21.0239
46.0781 37.9218 27.5925
12.7061 12.9949 13.8657
22.4134 15.7382 13.286
28.2777 21.6084 16.0183
22.2746 18.2776 15.5036
23.2327 25.467 26.7809
46.3833 34.6452 27.4445
43.1521 31.5459 21.5677
21.183 19.4067 17.8255
29.373 24.3968 21.5541
33.3416 26.7465 20.9854
28.2291 21.3542 17.3902
31.2149 23.401 17.6256
26.0535 24.5192 20.8165
20.6642 19.1376 17.6676
16.9022 12.5693 11.4776
29.0893 25.4285 20.7198
24.6361 26.0534 25.8011
33.5128 33.7082 37.2364
54.0468 33.059 18.886
12.7705 12.7134 12.5169
22.0354 20.5931 17.7245
28.2092 27.5596 28.2484
36.6213 26.137 17.4347
17.9405 21.7309 23.4768
21.51 20.3627 21.9963
30.2224 20.8072 14.8589
22.1138 19.9187 17.9494
13.929 15.3838 19.6088
49.2735 38.6248 27.5424
6.43631 7.33806 9.69498
29.5707 23.9012 20.5205
20.6437 15.7054 11.9806
33.3331 32.0196 27.9587
8.69921 9.97036 13.8596
38.4978 33.388 28.1378
8.57172 11.3941 17.6568
28.2928 26.7392 25.5396
31.2473 24.7447 19.4031
18.9438 17.011 13.0332
17.9424 22.5243 24.4111
16.5533 14.1327 14.6556
19.1952 17.2313 14.4158
21.8916 26.3963 30.0057
29.1979 25.8607 23.0665
16.6835 14.218 14.1472
23.4272 26.9676 28.7657
21.4741 15.4715 13.6388
45.1186 53.9249 63.2465
51.2291 34.6159 21.1283
13.3404 16.2534 20.307
31.2393 25.9688 22.4967
33.1398 36.8503 39.1483
30.2696 23.9496 18.1705
30.3592 34.4174 34.787
32.6193 31.2877 28.5437
23.0774 24.5898 24.8379
15.2427 13.6122 13.8679
15.3465 15.829 19.2811
29.0651 29.5812 31.763
23.3545 16.9371 15.8814
40.4607 36.207 28.0092
12.0945 14.2316 18.1831
31.1795 33.7106 32.865
17.2743 16.2198 14.6063
8.44377 10.5123 11.7893
19.2782 24.0219 28.0768
26.4081 26.358 26.0495
18.8314 26.7307 39.7661
48.2516 42.7699 36.0912
32.4309 36.7042 40.2817
40.3214 39.5896 35.407
12.3793 16.977 24.1827
33.4968 36.7776 35.8759
14.5105 25.9121 43.8364
44.5452 38.0375 28.7414
6.95685 10.2002 18.1526
36.6353 27.9699 17.9118
33.2464 44.951 49.2364
7.9539 13.5491 23.8085
20.1393 21.8839 25.5002
26.5116 28.3731 33.5803
34.7208 36.4187 34.9028
9.26607 7.15282 9.44684
29.6016 32.3316 29.5529
12.745 18.3518 22.6612
17.8494 25.6343 34.4336
38.0028 46.4846 56.0835
36.0751 30.1355 25.0335
21.2705 27.5502 30.6805
13.733 14.9931 21.1626
25.5987 26.7263 25.5085
16.1989 21.2648 26.5256
20.677 25.6407 30.6317
6.95748 9.33098 17.332
17.5017 18.2294 23.5086
20.1523 18.5033 16.4638
11.3415 11.74 12.947
13.0209 11.0867 9.86405
16.49 22.2509 25.968
12.734 16.7775 23.7261
25.7489 26.5288 24.343
17.1069 26.4122 38.3488
14.7041 11.3193 11.8181
27.2742 35.7445 37.5697
9.36974 15.688 26.4824
16.3128 13.4967 11.8249
30.0179 47.9737 64.1927
17.4084 13.8594 13.5209
16.8225 21.7761 26.929
19.2088 27.5526 37.7971
8.84336 11.5844 26.0823
33.2126 28.0337 22.0915
15.6794 17.9307 20.0867
27.578 34.2822 39.3663
18.8715 23.11 25.2533
16.8911 29.4461 44.6631
16.2276 16.6724 28.8377
37.7362 38.9966 35.7746
27.1851 41.0669 59.9983
37.119 42.1914 42.9494
10.5228 13.6948 21.8596
24.8601 26.9925 28.7647
8.626 10.9417 15.186
16.0594 20.0614 25.4736
20.11 31.8595 46.4438
26.9701 25.9301 22.3266
13.8137 24.8812 43.3422
33.9999 38.0253 42.3769
18.6898 25.4108 30.5053
18.3284 25.4506 33.0182
13.7489 21.6283 31.6549
10.529 9.15599 9.77067
8.93812 11.184 13.964
15.7779 25.9423 34.3006
7.57623 17.3025 45.6141
41.2029 38.3958 29.4963
13.6834 22.1555 29.6503
16.496 24.2017 36.4001
18.6027 18.2222 16.3045
17.1299 26.5434 31.7873
25.1252 47.8511 74.1293
15.3816 21.9709 43.3596
16.658 12.7085 18.7308
50.7089 77.8906 103.3
27.2669 38.0567 68.1884
57.9821 62.53 58.7577
25.0406 35.1413 39.018
4.92615 9.68774 22.4476
23.4627 35.7302 50.8942
23.5154 32.2879 39.9883
27.8231 49.6308 80.0238
21.2085 13.3 7.26399
7.65875 14.5165 25.6129
9.37859 11.0259 18.5027
14.9046 18.989 22.5345
9.99766 15.1487 26.797
18.8997 18.8431 17.9378
21.4606 34.2316 43.0247
12.4333 23.9677 39.5499
11.3503 15.2465 26.8427
18.2388 24.8803 30.5082
9.86819 17.3002 29.3363
8.22372 9.45468 15.217
14.3491 18.1669 23.4517
21.4395 33.1523 37.2105
6.36473 14.2519 27.102
13.1143 21.4351 34.323
13.2827 21.9917 36.2518
14.8186 21.7343 36.1083
21.6839 28.1753 40.6775
19.2557 24.406 31.3891
23.029 36.5337 48.8532
11.2262 18.6972 32.6553
10.5947 13.6011 22.7034
13.8275 21.475 32.6538
13.8019 18.4826 25.5641
12.8902 28.2987 62.2394
31.9361 31.7605 22.8706
21.74 55.1957 99.6296
18.0867 17.6887 30.1803
15.2054 18.402 34.7318
27.9214 36.2376 42.5546
17.7246 27.0097 46.9619
25.5887 31.153 32.8472
8.20103 13.6042 22.8036
14.941 16.7853 13.7562
11.0559 25.7908 43.3115
7.10163 10.5567 18.192
8.43939 13.9342 26.3267
19.1441 30.5856 46.0631
9.62843 10.3734 14.2608
10.4336 20.08 35.9905
18.0378 29.2913 40.4309
13.6777 21.4273 35.6062
12.3723 18.28 27.9892
7.22153 12.4172 31.7656
19.7958 23.2219 21.5532
13.685 26.6775 38.9546
8.13923 13.4025 23.2037
15.3206 31.4958 56.6236
16.6262 22.3211 33.7819
18.4217 25.5743 31.2558
12.3174 25.7016 43.763
12.898 18.2252 24.101
1.55323 6.21506 23.6163
21.4417 37.8905 59.3772
11.5521 16.7242 32.5078
15.2717 24.6107 33.6884
6.88288 12.4525 24.8354
7.93088 10.3916 18.7066
12.4161 15.9767 19.8272
12.5844 21.8494 37.7228
16.2321 29.4172 45.7983
18.1444 28.324 35.9018
3.50841 7.33891 15.5702
7.18391 19.0101 46.1177
19.5204 26.9797 34.3104
6.69361 16.2985 40.2387
22.6816 41.789 68.6605
17.3594 20.1193 22.3998
7.09536 16.984 36.95
15.161 22.6102 32.4264
8.36369 13.2926 17.9678
6.19364 15.5523 30.5027
13.6102 30.1345 61.2915
14.9177 24.7774 56.2733
21.4659 22.9918 21.9646
15.0635 31.1873 49.9904
7.06257 14.5216 37.1195
8.74277 9.88736 20.8339
19.6761 31.7329 43.4129
6.03784 10.0903 18.3657
9.32675 18.9409 34.2761
11.286 19.9131 34.2395
7.8129 12.4476 20.9625
8.29419 14.8344 25.3135
6.98378 11.5578 17.6251
4.60443 12.279 35.3916
13.8306 21.7946 39.0267
21.3666 35.6639 51.6722
18.2111 39.0141 73.3324
11.2932 19.4655 44.3708
9.09387 10.9783 28.788
18.6167 30.4203 44.4404
13.7214 24.2872 37.6711
10.323 18.6596 36.4398
8.03684 11.121 21.6453
15.8964 29.225 40.1281
2.55976 5.3506 14.3517
8.39291 17.3666 34.3852
10.4943 16.1248 22.6934
4.73242 10.0172 20.0865
4.98843 13.0606 38.4228
17.2152 28.0806 38.9431
8.98154 19.7668 40.2106
7.35409 7.79884 9.03172
8.20027 20.3314 37.0543
3.63955 7.5432 25.1199
14.8125 30.5744 67.1831
20.9835 29.2459 38.8836
12.602 31.1173 66.1236
18.447 32.5403 54.5796
5.78935 7.58392 24.2062
16.702 31.8572 47.1854
5.69417 9.60111 21.9396
4.51143 6.46511 17.7283
11.2827 21.2738 38.2293
16.5024 31.1442 43.2584
7.45636 16.279 33.9828
8.90119 17.1807 39.8535
18.1917 33.1269 51.728
7.48899 15.353 32.2737
7.80456 10.9627 15.5776
6.69521 16.2043 34.0591
5.27895 8.08729 18.4167
6.68341 11.5713 20.1529
9.33457 24.8094 52.7592
7.91262 10.8097 21.2584
10.1699 19.666 34.844
7.79449 15.7827 34.7089
10.5524 19.4006 33.4939
11.8068 25.3403 39.5082
5.44179 16.7397 49.093
10.4703 13.4029 16.1165
4.96437 15.94 41.8265
9.35994 18.599 53.0589
19.9921 33.2976 50.0436
12.8856 22.2102 41.3879
18.5441 37.3207 54.8666
9.02207 24.7347 54.7431
8.7478 19.8207 46.3146
6.84269 12.2591 33.2044
9.46973 13.4825 25.0928
10.6646 25.2074 50.6203
8.19917 13.9932 25.5338
5.32029 11.1085 30.192
14.619 39.0436 89.9412
18.3694 28.5081 36.5615
5.91506 16.4942 39.9262
6.24895 16.1972 49.8455
8.85605 11.9938 37.7174
20.4196 33.5641 33.2925
2.48852 6.43745 11.9997
3.55174 11.4003 29.7878
11.0067 27.2583 66.3572
16.2202 28.0167 44.3154
10.4705 27.2493 56.6776
7.10619 11.8095 33.8093
13.1771 22.7144 37.1889
8.15028 19.1493 41.9068
11.9292 26.9842 49.538
8.03305 18.0048 47.5299
13.3417 19.3123 26.7539
9.59986 26.1273 59.5344
8.50235 14.7109 30.8244
7.93483 19.1431 42.8371
10.5704 18.4842 26.9326
2.54213 7.36664 25.9551
6.99955 14.9237 34.6325
11.6361 24.8988 38.8471
3.5446 8.2997 25.3509
10.0565 21.1697 38.47
9.56363 23.3478 45.3702
6.83485 16.5352 37.3363
4.35828 8.5515 26.5292
11.1288 26.5477 51.3375
5.77517 10.5118 25.4265
5.5536 17.0539 53.7322
12.7839 16.7315 19.0357
5.20436 14.5436 26.6217
2.48555 9.99461 36.5757
7.21792 11.9969 27.6253
8.25794 14.091 24.0974
5.72079 12.7444 28.3311
7.12239 16.2749 34.4974
9.63054 25.2051 51.8267
7.68765 15.2858 28.8596
3.45552 5.34309 6.82325
1.22682 5.52976 20.7781
8.24922 23.8536 53.3824
4.80637 10.532 42.2096
14.7921 26.1607 33.5475
1.63351 4.35171 17.4319
4.9964 11.467 31.485
6.15779 8.35542 18.9118
8.02597 17.9022 32.5008
5.333 16.8913 58.3165
13.11 22.6133 34.3781
8.61924 20.6976 44.2195
7.11516 14.8237 25.9333
4.95963 13.5563 34.47
5.44009 10.7844 20.7835
4.03708 9.92691 19.8257
3.89329 13.6951 40.4622
8.76901 21.9474 54.645
7.48408 10.9564 27.0897
8.55033 18.5406 25.3947
3.39818 17.0435 56.69
7.97797 11.8962 36.0782
13.4126 24.5968 30.4635
2.96948 10.0676 23.9355
0.909003 4.42134 27.9475
8.64884 18.8494 30.4902
2.87355 9.35117 30.0593
3.75441 10.0109 48.8819
12.6891 19.7211 30.4551
6.36633 11.6774 15.4727
3.2279 9.111 21.1672
4.04792 10.738 32.8909
4.60021 6.61974 36.9816
19.1873 43.706 76.4317
16.5587 47.0133 94.6514
12.24 34.7597 100.137
15.8878 24.0103 33.1749
7.67738 28.154 75.375
6.4198 9.11841 39.8986
13.5423 27.9285 37.3178
2.58306 10.7344 39.1141
6.1356 11.6816 26.3891
5.35389 12.4106 35.5045
7.21873 19.3289 49.0461
6.91113 8.47021 12.569
7.41647 25.8947 77.989
15.6853 30.0886 41.1224
6.36819 23.0821 53.9116
4.57242 11.4263 34.4887
6.43565 21.351 63.014
7.70234 7.46701 8.75391
5.07143 23.3797 75.1956
11.9781 19.0228 37.3215
10.1723 30.3553 63.6123
4.79037 7.05307 26.5187
7.74558 21.93 50.0106
7.79326 16.888 39.1876
4.5554 7.88756 21.6194
6.96443 19.2951 35.697
3.62089 10.6648 38.1651
7.80963 15.1112 31.2808
