# pn-170911/RbIIR-60-RbIIR-1280-1959.psd
# Power spectrum* (dif=0,1,2) (really just |FT|^2)
# NOTE: only the first half! (symmetric)
# weeks: 1280-1959
# 4295 clock-days, 61 excluded
# PSD: 1441
654.006 0.0872687 0.0371519
28207.4 0.593648 0.0253084
122798 2.55709 0.024202
30791.6 1.16408 0.0244367
34228.2 2.45233 0.0245973
11173.9 1.12704 0.0248427
8662.21 1.28479 0.0243248
5778.13 1.13856 0.0243875
4889.27 1.28431 0.0246212
3468.23 1.13385 0.0245202
2960.08 1.21612 0.0250048
2468.05 1.22429 0.0243855
2125.8 1.26102 0.025302
1784.06 1.23383 0.0259249
1583.15 1.28683 0.0251503
1368.73 1.25438 0.0255183
1283.31 1.35143 0.025477
1127.08 1.36549 0.0266155
1032.58 1.38286 0.0266726
940.437 1.42019 0.0269038
873.234 1.4682 0.0279286
806.954 1.505 0.027635
762.092 1.54653 0.0276717
705.194 1.57014 0.0291084
664.002 1.63277 0.0288817
618.452 1.64385 0.0292921
611.872 1.75587 0.0299241
555.929 1.75595 0.0299654
538.52 1.79986 0.0316533
509.041 1.84057 0.0314336
499.964 1.95016 0.0323083
479.361 1.9756 0.0348589
466.591 2.08418 0.0352494
444.416 2.11434 0.035345
458.523 2.29155 0.0383043
424.205 2.25513 0.0379009
411.692 2.31639 0.0390601
399.119 2.39212 0.0405185
394.652 2.50523 0.0432687
385.023 2.54962 0.0433469
369.974 2.60337 0.0445058
353.903 2.61489 0.0460317
361.423 2.85888 0.0485358
354.856 2.9295 0.0502052
365.376 3.13402 0.0532972
343.729 3.13225 0.0554787
339.919 3.23374 0.0584999
338.487 3.36306 0.0605808
338.844 3.46751 0.0627368
326.481 3.55408 0.0666102
320.72 3.58542 0.0685425
316.089 3.67832 0.0702703
309.581 3.79838 0.0723732
315.106 4.00153 0.0798133
305.52 4.02742 0.0814372
316.916 4.36957 0.0862762
291.743 4.15652 0.0878491
301.023 4.38234 0.0934883
301.808 4.59769 0.0977986
295.591 4.70891 0.102464
282.149 4.58283 0.102748
287.748 4.90603 0.112135
286.855 5.01769 0.117444
291.793 5.28875 0.12574
286.67 5.3508 0.128573
282.262 5.47178 0.13566
275.756 5.49167 0.140896
278.421 5.72826 0.147983
277.547 5.84081 0.152009
272.666 5.92338 0.159483
265.238 5.98104 0.16587
275.459 6.35893 0.177317
265.794 6.33967 0.181231
264.12 6.51821 0.191896
265.434 6.66674 0.200885
275.669 7.15655 0.219775
264.651 7.0561 0.217584
262.616 7.10695 0.226228
252.064 7.08055 0.229004
255.047 7.3872 0.244719
255.089 7.59015 0.257665
256.696 7.82478 0.269707
259.702 8.06034 0.282984
253.08 8.0072 0.287967
252.411 8.24069 0.303052
251.014 8.35798 0.312627
246.586 8.44735 0.323026
242.863 8.45849 0.33005
247.117 8.84052 0.354984
243.347 8.89068 0.359653
239.852 8.99034 0.373557
241.711 9.25365 0.389953
242.337 9.51482 0.406023
240.286 9.63403 0.419214
237.903 9.73642 0.432747
245.13 10.2898 0.462293
239.009 10.2274 0.468014
233.626 10.2062 0.480825
238.198 10.6234 0.50464
231.559 10.5557 0.518819
236.534 10.9099 0.544152
227.218 10.7658 0.543088
234.449 11.2738 0.582326
230.317 11.4417 0.604025
230.628 11.6151 0.622765
227.527 11.5549 0.629705
223.994 11.6535 0.645329
219.67 11.7313 0.663256
222.635 12.0959 0.696717
225.086 12.4245 0.722483
216.812 12.189 0.725103
219.102 12.5593 0.757894
218.416 12.7814 0.782301
220.377 13.1403 0.820597
213.032 12.9371 0.829334
217.548 13.4134 0.870142
210.011 13.2172 0.873007
217.843 13.9184 0.92475
210.853 13.7227 0.935685
210.905 13.9216 0.956421
208.136 13.9832 0.979337
210.644 14.437 1.03443
211.319 14.6087 1.05442
204.755 14.4721 1.06481
207.337 14.862 1.10825
209.856 15.3192 1.16284
205.855 15.2316 1.17362
202.185 15.1983 1.18089
208.384 15.9006 1.25415
200.419 15.6617 1.25882
196.178 15.522 1.2685
197.781 15.8267 1.31463
197.823 16.1613 1.3585
200.983 16.5242 1.40905
196.137 16.4918 1.43193
203.032 17.2549 1.50772
195.828 16.8775 1.49565
194.21 17.0796 1.54432
191.142 17.0048 1.57012
194.061 17.4133 1.61363
194.779 17.7758 1.66525
189.489 17.5985 1.68591
193.414 18.1818 1.76725
189.77 18.0755 1.76999
188.052 18.1563 1.80441
188.657 18.4939 1.86602
179.808 17.9043 1.83145
181.827 18.3038 1.89983
182.896 18.6927 1.96481
185.314 19.1674 2.028
187.022 19.7257 2.12116
185.892 19.7312 2.14872
180.548 19.4784 2.14635
179.687 19.6457 2.2036
176.818 19.4581 2.20124
182.653 20.4925 2.35961
178.5 20.2518 2.35885
179.054 20.5631 2.41916
176.772 20.4719 2.42534
181.299 21.3052 2.55916
175.051 20.9732 2.56549
174.196 20.9242 2.58054
175.189 21.3947 2.66164
173.801 21.4204 2.69672
173.184 21.7555 2.79346
170.089 21.5274 2.78626
166.851 21.3776 2.7988
172.247 22.4293 2.97014
170.147 22.4271 3.00342
168.184 22.4201 3.03623
166.331 22.357 3.06196
161.806 22.216 3.10423
161.895 22.2128 3.12147
162.83 22.8332 3.2437
160.475 22.5475 3.24261
162.784 23.0606 3.33448
168.443 24.2562 3.54959
166.254 24.2423 3.60104
155.24 22.9359 3.45029
161.633 24.0621 3.64262
157.096 23.8967 3.68036
157.95 23.9955 3.71411
159.735 24.5601 3.85142
161.86 25.2728 4.00295
154.325 24.2462 3.89087
156.88 25.0167 4.04506
158.118 25.3212 4.11473
155.301 25.2396 4.19516
153.079 25.2328 4.21793
150.159 24.9416 4.23351
151.783 25.2864 4.3102
152.854 26.0052 4.50671
149.803 25.548 4.43722
150.616 26.0333 4.56927
149.306 26.0128 4.61576
149.051 26.335 4.7108
149.005 26.4934 4.77884
148.873 26.9309 4.91166
146.524 26.7818 4.94967
149.809 27.5578 5.15489
144.499 26.9217 5.10561
147.962 27.7595 5.28485
143.878 27.2851 5.24658
140.566 26.8015 5.19608
142.289 27.4741 5.37047
139.747 27.3796 5.42017
141.241 27.847 5.57681
142.084 28.1921 5.69121
139.762 27.9536 5.65797
137.216 27.8729 5.72873
136.449 27.8097 5.74836
135.37 28.0103 5.84588
136.914 28.6546 6.07073
134.985 28.2616 6.02505
133.97 28.5 6.14494
137.196 29.3291 6.35639
132.76 28.6451 6.24731
133.657 29.2764 6.4773
132.768 29.3562 6.58579
132.944 29.4051 6.59137
130.737 29.0767 6.59046
135.22 30.6411 7.00389
131.9 30.0391 6.92636
127.207 29.2995 6.85366
132.589 30.6845 7.18249
125.762 29.361 6.92968
126.863 29.9977 7.18614
121.605 28.9847 6.99812
127.657 30.8935 7.56756
125.994 30.5345 7.46607
124.976 30.4737 7.55049
129.088 31.798 7.92992
128.199 32.0876 8.07314
124.651 31.2122 7.9104
119.773 30.4393 7.80575
125.112 31.9295 8.24134
124.225 32.0597 8.35245
122.594 31.6826 8.29766
118.513 30.8735 8.15883
122.693 32.3829 8.67337
124.499 32.837 8.78757
119.131 31.9878 8.67917
115.981 31.2212 8.52582
112.748 30.5813 8.40719
114.765 31.5261 8.74667
118.776 32.9906 9.22542
119.348 33.428 9.41023
116.586 32.6265 9.27493
116.355 32.9758 9.43727
115.511 32.954 9.49547
114.175 33.1709 9.72111
115.716 33.5678 9.85728
115.913 33.8902 10.0195
113.67 33.4702 9.95549
111.896 32.9445 9.82952
108.75 32.6262 9.88048
112.295 33.9268 10.3571
113.395 34.3896 10.566
110.213 33.5733 10.3513
109.655 34.1677 10.6987
109.982 33.9557 10.5865
108.846 34.2278 10.8764
109.144 34.4351 10.9851
106.863 34.1012 10.9687
107.409 34.2998 11.0554
106.125 34.2802 11.2057
107.066 34.9542 11.4971
106.352 34.8723 11.5357
104.084 34.3246 11.475
102.691 34.0131 11.3856
100.905 33.7836 11.4466
103.143 34.5884 11.7038
103.236 35.187 12.116
102.311 34.7787 11.9415
101.576 35.1435 12.2942
102.822 35.5157 12.3478
96.7853 34.1755 12.2241
101.625 35.5365 12.5509
96.8009 34.1355 12.2028
96.2071 34.4494 12.4318
94.8057 34.0714 12.4076
97.9915 35.2091 12.8271
95.6171 34.9198 12.8316
97.8096 35.9663 13.3374
95.9911 35.2891 13.149
99.5718 36.9477 13.8389
97.8042 36.5774 13.8146
98.1595 37.0001 14.0994
98.1047 37.0537 14.1559
94.5546 36.2825 14.108
96.0532 36.7155 14.2054
95.3969 36.8258 14.264
94.2259 36.6823 14.4454
92.3681 36.1064 14.2629
93.3841 36.903 14.6902
92.1014 36.4946 14.5686
92.7894 37.1898 15.0396
93.5374 37.6914 15.2212
88.4941 35.7471 14.6254
91.9923 37.7902 15.6156
90.1774 36.9176 15.3248
90.3417 37.274 15.4852
89.7183 37.4592 15.7292
88.5234 37.0872 15.6841
86.8321 36.6336 15.6049
86.4566 36.624 15.6559
85.6869 36.22 15.5228
86.0854 36.9195 15.9685
83.0936 36.1321 15.8695
86.9439 38.0269 16.7802
87.961 37.9451 16.5628
84.6536 37.1265 16.4155
83.7387 37.3322 16.7097
82.6377 37.0599 16.8111
83.5635 37.1261 16.6678
84.0203 37.8156 17.1784
84.3642 38.2855 17.4882
81.9644 37.3926 17.1912
80.8265 37.1706 17.2589
82.7022 38.0623 17.5984
80.7592 37.8454 17.8635
80.614 37.6383 17.8275
80.5074 37.8917 18.015
80.254 38.0915 18.2047
78.2365 37.2442 17.9212
80.1811 38.388 18.5104
78.8777 37.9175 18.4066
79.2046 38.3338 18.716
80.201 38.9503 19.0727
78.7817 38.5179 18.9918
77.327 37.9926 18.8044
76.6356 38.3189 19.326
77.6061 38.5558 19.3881
78.193 39.15 19.7489
76.5453 38.4541 19.5469
73.8816 37.6576 19.4243
77.6556 39.6763 20.3975
75.2396 38.1536 19.5941
74.0035 38.317 19.9211
72.9267 37.8946 19.8504
75.1658 39.3394 20.7388
73.042 38.238 20.23
73.1488 38.8638 20.7861
74.0219 39.0981 20.7993
71.311 38.1076 20.5489
71.2927 38.183 20.6396
71.0669 38.5442 21.0714
72.0022 39.24 21.5345
71.2758 38.9142 21.5437
70.7285 38.5709 21.2981
70.6263 38.8681 21.5761
69.672 38.4694 21.4122
71.3907 39.9035 22.357
70.227 39.6055 22.48
67.2159 37.7209 21.4923
69.6978 39.3266 22.4031
67.2446 38.2429 21.9228
67.2381 38.5362 22.3158
68.1813 39.1594 22.5105
66.1766 38.6548 22.7141
65.6994 38.3235 22.5995
67.7983 39.4394 23.1116
66.6907 39.4262 23.4764
66.4096 39.0135 23.1849
67.9202 40.7246 24.4806
64.394 38.0856 22.901
66.2387 39.672 23.8456
63.1669 38.2267 23.3639
64.5173 39.1632 24.042
64.8806 39.2086 24.0216
65.1917 39.8385 24.4883
65.2668 40.2422 24.9473
63.3826 39.1739 24.4135
61.8165 38.5618 24.3568
65.7046 41.3823 26.2242
65.457 40.9601 25.8257
63.1361 39.692 25.2601
63.005 40.0303 25.6716
62.788 39.9841 25.6736
61.0869 38.9944 25.1515
60.4444 39.0761 25.46
61.0593 39.5184 25.7539
59.1907 38.338 25.1439
60.8462 39.9558 26.2875
59.2203 38.8348 25.652
58.3784 38.6126 25.6717
59.5918 39.8909 26.9644
59.707 39.4455 26.2484
59.489 39.8251 26.7837
56.5257 38.3164 26.229
57.9061 39.5047 27.1188
58.6926 39.9027 27.4219
56.8715 38.9193 27.0219
58.9011 40.1616 27.5962
58.249 40.4683 28.3379
57.3822 39.5709 27.5654
57.7271 40.1982 28.1258
56.2364 39.2165 27.5467
55.5457 38.8093 27.3156
54.9063 38.9983 27.9208
54.4035 38.6186 27.7624
55.757 39.8957 28.6703
54.3652 38.4818 27.5258
53.5704 38.9778 28.6035
55.0877 39.7246 28.8645
53.6545 39.005 28.6247
54.1603 39.3825 28.8959
55.6216 40.8562 30.1219
53.8639 39.5195 29.3427
53.7116 39.4596 29.1857
51.7538 38.4134 28.7705
51.4541 38.3844 28.8265
51.7536 38.7491 29.3289
52.9517 40.0393 30.4425
52.0024 39.0472 29.5408
50.5574 38.9696 30.0874
51.4641 39.2226 30.1999
51.1927 39.2126 30.4068
50.5932 38.6024 29.7364
50.2731 39.3407 30.8733
51.1395 39.7233 31.2558
51.9166 40.6272 32.056
50.2804 39.0334 30.7905
50.5613 39.6716 31.3538
50.8962 40.1312 31.7659
50.4108 40.1521 32.1878
49.7179 39.3763 31.549
47.999 38.5411 31.2056
49.6587 39.8549 32.2955
48.6919 39.3443 32.0659
48.9464 39.7496 32.554
48.2924 39.4085 32.4585
48.5244 39.6841 32.5513
46.9742 38.6599 32.1695
47.8314 39.0872 32.2333
46.7612 38.9571 32.7788
47.8585 39.7041 33.2547
47.3866 39.549 33.269
47.5629 39.8397 33.5969
46.7723 39.3571 33.2735
46.7042 39.8153 34.0488
46.237 39.2121 33.4375
44.7336 38.3125 33.2324
46.8711 40.1307 34.3627
45.5268 39.6557 34.6424
45.281 38.8634 33.5658
43.7355 38.1403 33.553
43.7566 38.2814 33.8711
45.6012 39.9079 34.959
44.3873 39.2595 34.9776
44.2696 38.9891 34.7996
43.9594 38.8917 34.698
43.981 38.9382 34.8769
44.0431 39.2436 35.1805
42.9498 38.5408 34.8489
42.9961 38.8182 35.3166
43.7248 39.4579 35.6589
42.118 38.0836 34.683
42.9398 39.8036 36.9816
43.2454 39.0681 35.6348
42.4688 39.1067 36.1949
43.6521 40.4073 37.6
42.1047 38.8885 36.4208
41.929 38.6556 35.9037
42.0413 39.554 37.2911
41.395 38.5602 36.029
41.1057 39.1894 37.4663
41.731 39.7217 38.1097
41.9587 39.5719 37.6736
41.2352 39.2709 37.8399
40.7294 38.8103 37.2015
39.4323 37.9955 37.0186
40.6324 38.9668 37.437
39.5886 38.9621 38.5924
41.0127 39.3719 38.3437
40.0227 38.9772 38.5333
40.8899 39.5827 38.3983
38.9599 38.2542 38.0211
40.4634 39.9317 39.5043
38.2061 37.8302 37.6871
38.0147 38.2832 39.0594
39.6898 39.0394 38.8218
40.0886 40.1695 40.119
38.537 39.025 39.8813
39.6403 39.8834 40.4348
38.5777 38.7861 39.3735
37.8637 38.4019 39.2685
38.415 39.2836 40.3209
37.7551 38.8759 40.5399
38.316 39.2153 40.6445
37.8564 38.859 40.4264
37.6574 38.7235 40.052
36.7178 38.2602 40.3096
36.7092 37.6797 39.1265
35.6534 36.9634 38.6727
35.7946 38.1134 40.6324
36.6232 38.5561 40.9209
36.384 38.647 41.4341
35.7622 37.6939 40.4168
36.096 38.1313 40.5747
35.5981 38.4731 41.9379
36.7466 39.0698 41.9336
35.3689 37.7755 40.6193
34.4981 37.2779 40.6606
35.4894 38.3858 41.689
34.7506 38.0759 41.9415
34.574 37.3169 40.8041
34.7452 38.3305 42.262
34.5916 38.4289 43.1442
35.6143 38.9989 42.9055
33.928 37.4024 41.8041
34.367 38.2241 42.6586
34.1738 38.3888 43.3457
35.1282 39.686 45.0143
34.9535 38.903 43.7184
34.1922 38.7461 43.9362
32.7585 37.0967 42.4112
33.3367 37.9285 43.8168
33.3236 37.7613 43.2631
32.8257 37.81 44.0456
32.9503 37.2591 42.8487
33.4749 38.662 44.6942
32.5193 37.3761 43.8456
33.5092 38.6519 44.794
33.105 38.1523 44.268
32.0637 37.446 44.0413
32.678 38.3219 45.1306
31.5681 36.9049 43.6532
31.5448 37.487 44.7897
31.3986 36.6008 43.2512
31.1011 37.0746 44.4859
31.582 37.5761 45.1647
32.3886 38.7699 46.588
31.1618 37.2889 45.1094
31.0986 37.2485 45.0995
30.7426 37.0491 45.1035
31.1342 37.4445 45.3863
30.2702 36.9935 45.8966
31.4816 37.8616 45.798
30.3943 37.2569 45.8752
30.091 37.0036 46.3256
30.9389 37.6916 46.3513
30.2648 37.0267 45.8732
29.8313 36.9574 46.3568
31.0471 37.987 46.7745
30.0985 37.4705 46.8976
30.4934 38.1709 47.8717
30.0594 37.5916 47.167
28.7027 36.403 46.9273
29.4878 36.706 45.9801
28.8982 36.6909 46.7169
28.2806 36.3509 47.2045
28.3774 35.702 45.9202
28.9855 37.0835 47.4902
28.8058 37.2247 48.3942
28.3048 36.4358 47.5988
28.1583 35.9511 46.7556
28.1496 36.1228 46.9075
28.6724 37.0291 47.9838
28.1683 36.7656 48.1161
27.6516 36.1643 47.6985
27.919 36.7844 48.9569
28.3332 37.0532 48.9652
28.0096 36.9653 49.2802
28.3404 37.3475 49.6076
27.9473 36.9488 49.0873
27.2036 36.4053 48.9396
27.3541 36.5617 49.4083
27.5187 36.7254 49.3956
27.4365 36.462 48.9998
27.5174 37.258 50.2768
26.4049 35.7325 49.3794
28.0238 38.2146 52.1898
27.9227 38.0582 51.8199
27.5512 38.2543 53.5037
29.0871 39.1655 52.5522
25.9824 36.0588 51.2737
29.183 40.4852 55.8716
28.6497 39.5877 55.3379
27.9274 38.1642 52.8244
26.9849 37.5162 52.7736
27.3114 37.9964 53.1073
26.1457 36.6131 52.0563
26.3937 36.4606 50.7838
25.0859 35.0932 49.8098
25.7694 36.5465 52.1183
25.6128 36.1838 51.9231
25.4788 35.6539 50.7168
25.3996 35.8625 50.8065
24.5319 35.125 50.5874
24.7917 35.6811 51.6586
25.1296 35.809 51.4239
24.3983 35.2375 51.6213
25.2002 36.0556 51.9515
24.7717 35.9582 52.8741
24.9179 35.6365 51.5216
24.4381 35.7046 52.6535
24.7882 35.7763 51.7593
23.8533 35.4255 52.9208
23.944 34.5277 50.5893
23.5597 34.4096 50.9249
24.2916 35.9101 52.849
23.648 35.4613 53.2872
23.4764 34.7709 52.4542
23.9146 35.4632 53.1209
23.6734 35.0472 52.2531
23.1462 34.8737 52.9206
23.2596 35.0206 53.4915
23.4963 35.4304 54.1121
23.4315 35.3284 54.0934
23.361 34.698 52.4694
23.2414 35.2834 53.1719
22.2965 33.9349 52.3168
22.6533 34.6256 53.2723
22.2096 33.6742 51.946
22.538 34.5614 53.4153
22.3943 34.0733 52.4765
22.2319 34.3817 53.6399
22.4413 34.7045 54.1307
22.1921 34.2375 53.4779
22.0957 33.7317 52.0641
22.0133 34.7404 54.67
22.5254 35.3741 55.5831
22.088 34.8558 55.3839
21.521 33.6055 53.79
22.19 34.7984 54.8187
21.7865 35.0184 56.3105
21.6732 34.1061 54.8439
22.1254 34.7547 54.7788
21.4273 34.7999 56.3009
21.5927 33.9018 54.0522
21.2253 34.4543 56.0779
21.4191 34.2919 55.4539
20.7666 33.33 54.5213
21.2459 34.1682 55.5416
20.7586 33.0688 53.5161
21.4022 35.3096 57.7928
20.9781 33.9953 55.6954
20.8994 34.2186 56.4465
20.5776 33.5582 55.831
20.8986 33.9184 55.7888
20.6351 33.8801 55.9549
20.9508 35.0036 58.2887
20.6011 33.769 56.4114
21.0063 34.6006 56.9963
19.96 33.3857 56.3507
19.9955 33.5136 57.4022
20.5567 33.6453 55.9664
20.0068 33.1963 55.5657
19.6649 33.0642 55.9073
19.8342 33.4161 56.8303
20.0562 33.786 56.7635
19.6829 33.6795 58.2902
20.301 34.2392 57.8221
19.4582 33.3438 57.9887
19.9955 33.5812 57.5834
20.249 34.7633 59.5033
19.3696 32.9042 57.2368
19.6796 33.5651 57.7083
19.247 33.4834 58.4212
18.8331 32.0443 55.4212
18.8725 32.6749 56.6316
18.6141 32.4546 57.3795
19.0469 32.9724 57.7958
19.2205 33.6673 59.2528
19.0328 32.7848 57.2612
18.6799 32.7901 58.2566
19.1787 33.5109 58.8955
18.5133 32.3055 56.969
18.6722 33.502 59.8659
18.513 32.4983 58.1203
18.4061 32.2603 57.5263
18.5217 32.6549 57.5065
18.1311 32.7356 58.826
18.0484 32.2827 58.4429
18.4804 33.4816 60.5787
18.1059 32.4149 58.8636
17.7781 31.9074 58.5125
17.8064 31.7543 57.9371
17.9922 32.3638 59.191
18.1796 32.725 59.0572
17.8002 32.2946 59.3362
18.2541 32.9922 59.4068
17.6139 32.3163 59.9579
17.7868 32.174 58.8612
17.6513 32.5616 60.3698
17.8858 32.8553 60.8157
17.8828 32.4717 59.3356
17.1152 31.7229 59.2758
17.6289 32.632 60.0043
16.9096 31.2287 58.3974
16.6049 31.1534 59.258
16.9891 31.5663 59.7215
17.1149 32.0098 60.7198
17.4025 32.2003 59.9809
16.6265 31.109 59.1715
16.6103 31.0406 59.4146
17.0954 32.1725 60.5188
16.9274 31.9476 60.3919
16.6686 31.5885 60.5828
16.6831 31.2778 59.815
16.4263 31.0071 59.2801
16.4563 31.5505 60.7565
16.5602 31.708 60.8799
16.4148 31.7543 62.364
16.6446 31.5938 61.2701
16.546 31.5169 61.1732
16.8437 32.1171 61.157
15.9468 30.739 59.7359
15.8254 30.7359 60.6709
16.0873 30.9971 60.345
15.9436 30.9406 60.7969
16.2215 31.2736 59.9494
15.7172 31.2447 61.5895
15.8351 31.3067 62.2894
15.8574 31.0146 61.6357
15.6292 30.6053 61.2475
15.967 31.5776 62.621
15.7084 30.881 62.0348
16.1551 31.9163 63.4976
15.5836 30.2697 60.0887
15.455 30.7959 61.7393
15.505 30.8757 61.6054
15.1032 30.0138 60.8303
15.2129 30.3085 60.9696
15.1852 30.3514 61.425
15.6454 31.4057 62.9181
15.25 30.6904 62.1108
15.194 30.7719 62.7752
15.1908 30.5265 61.9274
15.2176 30.9153 62.4483
14.8902 30.361 62.5922
15.2671 31.178 63.293
14.5314 29.5968 61.6602
14.8114 30.0079 61.6704
14.5408 29.979 62.5953
15.0927 30.9367 63.3453
14.5608 29.9873 62.5912
14.5093 30.0132 62.924
14.3786 29.3677 61.809
14.5024 29.8115 62.2886
14.3923 29.5637 61.6183
14.4355 29.7113 61.8261
14.2901 29.7932 62.6125
14.1569 29.1283 60.383
13.8464 29.2436 62.319
14.3795 30.4746 64.8991
14.5695 30.1997 63.309
14.0467 29.5587 63.1381
13.9835 29.2809 62.6675
14.3922 30.4809 64.2565
13.9514 29.4902 63.7188
14.2158 29.8339 63.5088
14.0125 29.4501 62.7832
14.1605 30.476 65.3451
14.0852 29.805 63.7743
13.7241 29.2485 63.0657
13.8691 29.9161 64.0733
13.7692 29.7513 64.4968
13.7468 29.6313 64.2645
13.4646 29.0738 65.0788
14.1477 29.9961 63.9157
13.3291 28.9109 63.6618
13.5512 29.1686 63.2338
13.3445 29.1248 63.5014
13.1225 28.7269 63.8178
13.2803 28.639 62.8049
13.3102 29.3084 64.5879
13.155 28.8547 64.6455
13.4629 28.8845 62.8166
13.195 29.5191 64.9398
12.7954 28.2737 63.6419
12.8139 27.7998 62.3599
13.0903 28.9162 63.6845
12.9578 28.8214 64.1979
12.9454 28.9542 64.9952
12.9823 28.8176 64.8242
12.9026 28.6019 64.4851
13.0119 28.9589 64.1501
12.3986 27.7042 62.8749
12.7254 28.9749 66.2912
12.9723 28.7866 64.2233
12.3737 27.8348 63.8207
12.5772 28.3816 64.9862
12.7009 28.4508 64.3148
12.3279 27.6857 62.809
12.2415 27.9381 64.4702
12.5496 28.567 64.9419
12.3724 28.2651 65.901
12.6314 28.0933 63.5395
12.2087 28.0483 64.223
12.0425 27.311 62.9891
11.9333 27.6858 65.1663
12.3167 27.612 63.1311
12.1043 28.3628 66.9501
12.4929 28.6649 66.1644
12.0472 27.7178 64.9986
12.1131 27.6563 64.6656
12.1944 28.2604 65.3138
11.9404 27.6657 65.0283
11.8641 27.5555 64.8893
11.8759 27.1563 63.6281
11.7383 27.3958 64.4482
11.7365 27.1123 62.9278
11.384 27.0055 64.9261
11.9739 28.1821 65.9739
11.4878 26.7996 64.3003
11.8892 27.9764 65.6321
11.4508 27.102 64.9646
11.706 28.1241 67.716
11.621 26.8953 64.3898
11.6966 27.9505 67.0276
11.645 27.2743 64.9292
11.3967 27.2256 65.1936
11.2896 26.7327 64.3452
11.355 27.6095 68.0968
11.7539 27.4933 65.0759
11.2228 26.9574 65.1981
11.3041 27.1921 65.8739
11.4193 27.6743 67.1135
11.4584 27.5507 66.6587
11.3424 27.7594 67.7567
11.2619 27.4322 67.7646
11.2143 26.5361 65.0983
11.1564 27.2045 66.6841
11.1255 26.8941 65.6189
11.0997 26.723 64.6214
10.8431 27.057 67.3116
11.1295 27.216 67.4087
