# pn-170911/RbIIR-53-RbIIA-1280-1959.psd
# Power spectrum* (dif=0,1,2) (really just |FT|^2)
# NOTE: only the first half! (symmetric)
# weeks: 1280-1959
# 3552 clock-days, 209 excluded
# PSD: 1441
4203.92 0.178606 0.035194
589793 12.2082 0.0342534
1.81904e+06 33.7829 0.0349415
351485 11.273 0.0383223
234407 13.7493 0.036793
106990 7.83815 0.0365998
72709.5 8.29261 0.0367275
47346.9 7.07044 0.0373509
39018.8 7.42516 0.0375332
28506.5 6.78255 0.0374998
23722 6.69509 0.0398934
19281.6 6.46627 0.0386489
16247.4 6.59674 0.0411552
13523.6 6.44056 0.0412591
11800.7 6.65412 0.0430871
10187.9 6.39339 0.041255
9138.15 6.53846 0.0426893
7978.63 6.4464 0.0438771
7216.12 6.41683 0.0447461
6173.11 6.27441 0.0465593
5923.33 6.62803 0.0474655
5331.13 6.64488 0.0489722
4841.99 6.7724 0.0513027
4439.14 6.75536 0.0511553
4231.01 6.91884 0.053384
3753.37 6.69277 0.0574501
3453.16 6.56838 0.0579598
3269.82 6.96321 0.0595806
3171.09 7.29014 0.0624428
2906.63 7.31023 0.0655805
2829.37 7.38111 0.0669983
2624.79 7.41404 0.0674347
2504.03 7.62451 0.0761833
2371.73 7.75319 0.0760978
2193.88 7.4415 0.0773273
2180.09 7.87914 0.0835617
2039.12 8.2061 0.0869031
2015.05 8.47333 0.0932213
1851.9 8.34794 0.094825
1760.92 8.33187 0.094229
1732.69 8.52916 0.103575
1682.81 8.89205 0.107012
1562.82 8.91629 0.109591
1595.97 9.3448 0.115365
1460.29 9.03171 0.117821
1413.25 9.19244 0.121581
1413.08 9.75055 0.134731
1345.46 9.62146 0.138582
1335.28 10.1001 0.147328
1275.35 10.2308 0.153056
1216.54 10.1503 0.157865
1233.3 10.4797 0.16694
1208.67 10.7568 0.174063
1174.83 10.9729 0.182988
1144.18 11.07 0.191104
1111.88 11.3286 0.200663
1064.19 11.2327 0.205987
1036.62 11.5855 0.215746
1005.16 11.3426 0.215772
968.68 11.6841 0.231219
948.505 12.0033 0.243394
944.312 11.8583 0.245036
923.277 12.2797 0.259024
879.506 11.9936 0.262359
852.844 12.0097 0.266433
849.73 12.4112 0.286264
823.626 12.5048 0.292682
806.272 12.6158 0.30641
775.427 13.0216 0.322973
776.628 13.2807 0.344288
779.845 13.321 0.343281
744.803 13.1917 0.352738
742.604 13.7373 0.372743
706.48 13.4351 0.37554
709.219 13.7537 0.396088
688.454 13.8672 0.403862
682.561 14.173 0.423339
654.025 13.8561 0.425163
642.823 14.2086 0.445385
621.038 13.9311 0.450477
618.053 14.3193 0.471334
601.476 14.2802 0.480162
627.324 15.1952 0.522461
586.636 14.8801 0.520808
556.043 14.0161 0.496906
561.069 15.0051 0.54749
553.476 14.8058 0.557686
540.885 15.0831 0.568308
519.846 14.5181 0.560718
514.793 15.1846 0.606704
523.135 15.3933 0.625021
510.467 15.5001 0.645584
501.746 15.3145 0.653053
496.989 15.5606 0.670292
470.097 14.9582 0.658737
481.026 16.0956 0.721138
508.588 17.7568 0.81216
466.309 15.9708 0.745486
448.404 16.049 0.762296
442.947 15.9388 0.775884
434.435 16.1975 0.797167
439.939 16.4852 0.831104
428.478 16.9049 0.868314
417.478 16.642 0.872204
414.044 16.6769 0.881608
406.297 16.7291 0.908618
388.82 16.1715 0.899201
379.327 16.198 0.915795
390.091 17.0414 0.978373
389.346 17.294 0.998758
378.532 17.326 1.02257
370.601 17.0266 1.03031
355.864 16.833 1.02965
368.538 17.4727 1.09122
357.642 17.5795 1.12117
354.545 17.4467 1.12904
349.617 17.8253 1.16557
337.805 17.215 1.14363
336.537 17.7444 1.20493
334.752 17.796 1.22724
321.062 17.6532 1.23432
314.472 17.2868 1.23022
319.484 17.9428 1.30544
309.81 17.7978 1.30542
317.612 18.3393 1.35861
309.946 18.698 1.41694
309.833 18.1657 1.39503
295.769 17.726 1.37313
290.665 18.4312 1.46484
287.323 18.1078 1.4578
282.246 18.6403 1.52157
283.402 18.5818 1.54096
278.67 18.7702 1.57213
279.278 18.566 1.58349
280.026 19.3827 1.67248
267.018 18.8151 1.65588
270.492 18.7294 1.66282
265.469 19.0259 1.70673
254.759 18.732 1.73293
258.651 18.9984 1.75743
257.924 19.3319 1.82364
254.798 19.2719 1.84862
240.647 18.3088 1.76996
247.706 19.1138 1.88148
243.883 19.3698 1.91851
242.642 19.3946 1.96998
239.163 19.4349 1.99485
244.312 20.2817 2.09187
233.806 19.8224 2.09251
235.906 19.7989 2.09114
231.769 20.0146 2.14676
224.849 19.7258 2.16774
228.534 20.3126 2.24333
224.797 20.3071 2.28311
223.432 20.2172 2.27114
218.214 20.1607 2.31497
215.59 20.0543 2.32042
218.917 20.916 2.45047
218.75 21.0261 2.4991
203.252 19.8506 2.41279
203.271 20.1717 2.45989
207.587 20.8996 2.59767
201.527 20.1251 2.52062
205.187 20.8644 2.62729
196.587 20.5638 2.63191
197.71 20.2773 2.61625
193.261 20.619 2.71686
198.499 21.6447 2.85826
194.562 21.1987 2.8472
189.137 20.9533 2.85545
186.83 21.2298 2.90973
188.215 21.3493 2.94983
182.745 20.8524 2.94301
177.536 20.6985 2.93014
181.38 21.3581 3.07645
182.656 21.7107 3.15896
178.555 21.4581 3.14465
173.377 20.8923 3.08781
179.633 22.1461 3.31749
173.939 21.717 3.28849
168.414 21.0308 3.22856
171.033 21.4944 3.34476
170.174 21.9162 3.41858
173.945 22.7097 3.60474
169.989 22.1631 3.53714
167.463 22.4758 3.65647
162.318 22.0143 3.60332
167.628 22.9902 3.80769
161.493 22.072 3.7
157.254 21.7504 3.6667
156.402 21.5518 3.67038
154.698 21.8426 3.77493
174.615 25.1258 4.33462
152.741 21.9277 3.82223
151.689 22.1227 3.93015
155.091 23.3656 4.17903
155.474 22.9996 4.15462
151.111 22.829 4.17418
151.065 22.8928 4.24167
151.017 22.9889 4.27322
146.342 22.9706 4.34149
146.39 23.172 4.38568
146.297 23.1657 4.46395
143.676 23.0863 4.46899
142.524 23.3021 4.58457
139.761 23.418 4.65695
142.668 23.6472 4.67631
137.859 22.9489 4.64055
138.293 23.464 4.75571
141.094 24.0355 4.96105
137.81 23.8221 4.92494
136.347 24.1014 5.02427
130.21 23.2337 4.90537
129.543 23.4448 5.01493
130.392 23.313 4.98267
132.229 24.177 5.22176
130.666 24.0927 5.25731
131.021 24.5018 5.40602
128.104 23.6787 5.26418
131.933 24.9574 5.57947
126.532 24.0471 5.50454
126.168 24.0112 5.5412
128.796 24.6603 5.65255
124.353 24.1658 5.65509
123.778 24.5471 5.74977
121.325 24.1449 5.75023
123.863 25.088 6.01223
123.463 24.9808 5.99804
124.6 25.6651 6.19161
123.686 25.1568 6.15871
122.002 25.6803 6.30339
116.813 24.5068 6.09204
115.971 24.3134 6.14728
119.35 25.7188 6.55522
117.542 24.9926 6.38474
114.123 24.8067 6.39217
114.316 25.2293 6.51334
111.421 24.3809 6.41265
113.935 25.264 6.68949
112.004 25.4305 6.81216
113.09 25.949 6.97863
111.152 25.1188 6.78334
109.887 25.0988 6.83502
109.932 25.3464 6.99391
107.828 25.5758 7.16787
108.395 25.5955 7.0948
107.307 25.78 7.29428
109.364 26.3414 7.45479
106.344 26.0926 7.45789
109.008 26.3391 7.58004
106.013 26.3556 7.68126
101.507 25.4637 7.49309
102.956 25.8617 7.6593
103.801 26.0487 7.75423
101.956 26.1616 7.84732
100.86 25.6431 7.8126
101.571 26.4505 8.03941
97.6532 25.7435 7.92581
102.303 26.7455 8.29644
98.1445 25.9249 8.10843
99.5019 26.4611 8.36104
99.1246 26.1173 8.22715
93.9986 25.4926 8.14982
97.8645 26.968 8.65067
94.9312 26.1404 8.4334
95.9849 26.6869 8.71006
97.5079 26.8769 8.84336
92.7816 25.9301 8.57069
94.1308 27.0517 9.05147
94.5136 26.8403 8.96168
96.535 27.6386 9.24777
90.3153 26.2394 8.92287
95.2816 27.4524 9.40891
90.9099 26.5091 9.14959
94.4066 27.8734 9.55746
90.8106 27.2039 9.4981
91.0039 27.6298 9.78913
87.8853 26.5252 9.4232
89.2083 27.043 9.63585
86.1241 26.3476 9.52655
88.4442 27.4188 9.96236
88.5538 27.5481 10.1555
89.6357 27.738 10.1078
85.0776 26.9625 9.96589
84.6325 27.0892 10.0914
84.8691 27.0367 10.2297
86.3662 28.2046 10.6544
83.7842 27.7774 10.7383
97.4301 32.458 12.149
83.0337 27.7831 10.7632
81.5956 27.1837 10.5642
82.1383 27.7719 10.8207
82.2936 27.537 10.883
83.4837 28.4268 11.1942
79.4542 27.1009 10.861
80.2084 27.7198 11.0852
79.5403 27.226 10.98
79.2991 27.6293 11.1628
82.3232 29.1432 11.9844
79.9119 27.8081 11.3486
77.9881 27.5879 11.4023
78.258 27.7614 11.6674
78.0187 28.0728 11.7583
77.0695 28.0924 11.8337
79.5564 29.2019 12.3954
76.7316 27.6455 11.8039
77.4825 28.3797 12.2144
77.9023 28.9372 12.5498
74.2332 28.0125 12.2055
75.7953 28.7854 12.6425
73.1133 27.5215 12.2269
75.5324 28.8162 12.7432
75.2476 28.8155 12.7967
71.1164 27.6953 12.5159
71.7737 27.4944 12.4778
74.5902 29.2717 13.227
70.1068 27.6789 12.7644
72.0969 28.5866 13.1637
73.4258 28.4068 13.1297
71.697 28.7158 13.3899
71.997 28.9836 13.665
70.5052 28.489 13.3611
69.9483 28.3865 13.5287
71.509 29.5045 14.1072
69.0372 28.3204 13.55
67.3168 27.7287 13.3725
68.0205 28.5329 13.8467
69.4139 28.3794 13.8445
69.7261 29.1946 14.2877
67.9837 28.8536 14.2735
68.1995 29.2548 14.4591
67.916 29.2262 14.6321
65.9752 28.4756 14.3573
66.5054 28.955 14.6303
66.9656 28.6686 14.5167
66.427 29.0577 14.7353
65.1448 29.1935 15.1288
66.1314 29.7444 15.4905
65.3125 29.2026 15.1101
62.6882 28.7492 14.9975
61.737 28.3253 15.1132
66.1192 29.8431 15.7395
64.14 29.0694 15.3311
64.2632 29.6914 15.8456
62.891 29.9467 16.1455
63.2476 29.8633 16.207
63.0268 29.2154 15.7996
60.4166 28.6859 15.623
62.298 29.3089 16.2268
62.6485 29.7242 16.388
62.2796 29.7837 16.5833
61.119 29.4877 16.5471
60.8903 29.2712 16.4411
60.2757 29.7778 16.943
63.377 30.5884 17.2396
60.4026 29.881 17.0847
59.1273 29.717 17.1884
59.0315 29.1105 16.7875
60.8147 30.1493 17.5723
59.535 29.8434 17.3579
58.9241 29.9036 17.6112
57.7325 28.7105 16.8528
57.6069 29.8171 17.7858
57.7157 29.4565 17.376
57.5337 29.9981 17.9714
55.683 29.2427 17.7995
56.8385 29.0773 17.4374
58.6637 30.4394 18.4409
56.3995 29.8288 18.1339
55.7718 29.745 18.3194
54.2521 29.4474 18.2729
55.4817 29.6141 18.3903
54.7526 30.0019 18.8369
54.3013 29.5223 18.5832
55.9377 30.034 18.8076
53.9575 29.5633 18.8122
54.8979 29.8717 19.0139
54.324 29.5088 18.7695
54.0445 29.8546 19.1752
53.9349 30.0875 19.3512
51.7798 29.2712 19.2301
52.834 29.4642 19.3282
53.212 30.2773 19.7882
51.4725 29.3119 19.5564
60.2469 34.9367 22.5402
52.0753 29.4509 19.6128
52.3121 30.988 20.7308
50.7747 29.6552 19.9032
52.3401 30.4665 20.2679
49.7238 29.2626 20.1376
51.7471 30.8661 21.1188
50.9103 30.3505 20.9349
49.6486 29.3709 20.0605
50.9963 30.492 21.0058
48.6831 29.7616 20.8574
49.6769 30.2412 21.0739
49.3247 30.1314 21.0443
49.5476 29.9758 21.2328
48.4817 29.6077 21.0157
49.4994 30.1968 21.4083
49.1447 30.4025 21.7533
47.4034 29.4256 21.1483
47.8922 30.1709 22.013
47.5542 29.7411 21.6222
48.1845 30.8154 22.2883
47.1 30.1285 22.0516
48.0272 30.412 22.4216
47.7416 30.1782 22.1857
47.8117 30.7852 22.8799
46.4462 29.9589 22.242
45.8256 29.6777 22.1837
45.8319 30.3447 22.8765
46.5041 29.8637 22.5527
46.4572 30.013 22.8129
45.9809 30.6536 23.4786
47.6301 31.3412 23.8165
46.0366 30.4914 23.4336
45.7185 30.6916 23.5102
44.3937 30.0646 23.6878
45.0244 30.9028 24.0116
42.7637 29.1659 22.9529
45.4101 30.2722 23.7739
44.2565 30.4268 24.0938
43.4886 29.7339 23.2971
43.8295 30.2224 24.0712
43.2338 30.0444 24.1278
42.4316 29.714 24.139
43.0121 30.0787 24.3436
42.8372 29.6126 23.9553
43.9072 31.1233 25.3943
42.1317 29.5429 24.1617
43.1779 30.063 24.4326
41.4731 29.8981 24.7411
41.4656 29.8604 24.6689
41.2793 29.5971 24.8242
42.1552 30.1061 25.0056
43.1002 31.0388 25.9957
41.4563 30.01 25.5566
40.3761 29.2044 24.7534
41.1843 29.7406 25.2692
42.6749 31.2761 26.4979
41.2196 30.6773 26.1883
40.0548 30.1145 26.0428
41.6299 31.1428 26.9019
39.6722 29.7131 26.0439
40.2875 29.6201 25.5357
38.6555 29.4097 25.8207
38.9537 29.7578 26.1719
39.6539 30.5416 26.7994
38.5787 29.8782 26.6116
39.8436 30.5673 26.9464
38.7613 30.3161 27.1223
39.5238 30.2615 27.1422
39.7054 30.5006 27.3312
38.5068 29.6699 26.6327
37.8037 29.3844 26.5668
38.4344 30.6272 28.1896
38.3075 30.4534 27.7699
37.7068 29.9973 27.5709
38.3361 30.2848 27.7549
37.5189 29.7292 27.5757
36.8937 29.5865 27.3874
36.9635 29.5321 27.4787
37.1099 30.8147 29.0775
37.1804 29.8481 28.2116
37.1821 30.4608 28.8716
37.3825 30.0194 28.3851
37.0506 30.2742 28.9079
36.7347 30.4879 29.0776
36.6812 29.9722 28.7881
36.7638 30.8983 29.532
36.0264 30.1814 29.1921
35.8922 29.9515 29.3725
35.1015 29.6911 29.0238
35.9384 29.9764 29.3119
35.2103 29.9769 29.6532
35.3408 29.8958 29.2571
36.351 31.018 30.5686
35.6236 30.7153 30.5055
35.3529 30.5668 31.2754
39.5223 34.5486 33.4976
34.7856 29.7415 29.7801
34.3044 29.6253 30.2638
35.3655 30.8523 30.6965
34.0935 29.8058 30.4563
33.744 29.8425 30.3794
33.656 29.837 30.7052
33.8676 29.6613 30.6746
34.4953 30.1099 30.7966
34.22 30.1461 31.2425
33.9195 30.6595 31.8917
33.3143 29.5306 30.8354
33.2573 30.4714 31.9608
34.0569 30.4662 31.9132
32.9312 29.6326 31.3326
33.332 30.6879 32.4008
32.7612 30.5818 32.6391
33.1381 30.026 31.7433
32.4258 29.7643 31.8248
32.2907 30.113 32.1096
32.9405 30.7335 32.9821
32.6943 30.228 32.5128
31.188 29.2176 31.8453
31.3721 29.8489 32.9613
32.5172 31.1912 34.338
32.0124 29.526 31.9512
31.3576 29.6922 32.6194
31.9624 30.3124 33.4524
31.2186 30.1442 33.2776
31.2919 30.0426 33.5618
30.8214 29.5474 33.0771
31.819 30.4441 34.38
30.6303 28.8983 32.3816
31.05 30.3453 34.1174
30.9998 30.0302 33.8237
31.2969 30.3016 33.6447
29.9062 29.9138 34.3007
30.5633 29.9 34.1761
29.7844 29.6539 34.1903
30.1919 29.5503 33.517
29.9734 29.8369 34.9074
30.1676 29.9367 34.9087
29.8022 29.5824 34.4859
29.9539 30.2706 35.1585
29.9465 29.9721 35.1526
28.9663 29.0941 34.0616
28.9545 29.6919 34.9011
29.048 29.6888 35.5247
29.0151 29.2817 34.7876
28.982 30.0353 36.0321
29.7086 30.377 35.7017
28.3631 29.0941 35.0076
28.1626 29.7615 36.3384
28.4389 29.3166 35.2012
28.326 29.1257 35.3053
28.892 30.1915 36.6416
27.9376 28.9167 34.85
27.6849 29.2626 35.6746
26.7454 29.0247 36.1162
28.296 29.8814 36.6521
27.3831 29.3072 36.5892
28.8751 30.2318 37.4174
28.0013 29.9902 37.0201
27.8137 29.4721 36.6907
27.4194 29.4162 36.8682
27.0762 28.923 36.1408
27.5611 30.1467 37.8424
26.8709 29.2331 37.1632
26.7223 29.0779 36.8193
26.687 29.7643 37.7585
26.815 29.584 37.9694
26.9629 29.1972 37.5455
26.422 29.4148 37.7824
26.3323 29.587 38.566
26.8495 29.4137 37.4545
26.8429 29.7378 38.3817
26.8517 30.338 39.3846
25.7559 28.8424 38.1263
26.7779 30.0934 39.2738
26.5187 30.1803 39.3647
25.6181 28.668 37.9902
25.9196 29.247 37.9428
25.3602 29.464 39.3148
25.3382 29.0284 38.5705
25.4504 29.3638 39.6626
25.3032 29.0035 39.0773
25.3319 29.0851 38.3919
24.8603 29.1953 39.4137
25.2399 29.1825 39.5533
25.5608 29.4436 39.5952
25.3694 29.6263 39.8501
25.1514 29.3453 39.884
24.7724 29.2378 40.4189
25.1095 29.5894 40.6371
25.6519 29.5875 40.562
24.6484 29.3757 41.6078
28.6148 34.2351 44.9342
24.1191 29.0616 40.0942
24.2134 29.2105 40.7576
23.973 29.538 41.4917
24.2472 29.1711 40.737
24.5985 30.0557 41.8657
23.844 28.3061 39.793
23.8148 28.6097 39.8871
22.8594 28.32 41.1821
23.6946 28.953 40.9155
23.6756 28.5324 41.1452
23.5257 28.5272 40.0889
23.1641 28.9047 41.714
23.4702 28.9288 41.9909
24.5134 29.8176 42.4882
23.7514 29.6845 42.1725
22.8018 28.7002 42.4163
22.8896 28.2684 41.471
23.2234 28.7742 41.975
22.9577 28.2357 41.0832
23.112 29.0289 42.2729
22.9617 28.5776 42.3268
23.0465 28.7839 41.9007
21.988 28.6193 42.8048
23.3443 29.8352 43.901
22.5872 29.1018 43.7156
22.3758 28.5173 42.9377
22.101 27.9466 41.3999
22.0317 28.3345 42.7472
22.9066 29.4463 44.3962
22.5034 28.5351 42.3702
22.2566 28.356 42.8545
22.1103 28.4886 43.0975
21.3954 28.0939 42.9947
21.6942 27.8279 42.8927
22.0928 28.9178 43.6776
22.0635 29.6088 45.4148
22.1746 28.4633 42.9678
21.7709 28.9351 45.1343
21.4033 28.4672 43.7394
21.3347 27.885 42.6923
20.8683 27.9611 44.1145
20.9122 27.7598 43.2109
20.7614 27.9146 44.0831
21.3214 27.8271 42.8986
20.7588 28.2389 44.1218
20.5475 27.3665 43.5717
20.8256 28.078 44.0532
20.6113 28.3377 44.883
20.2759 27.7589 44.7332
20.581 28.1826 44.54
20.195 27.3734 43.7895
20.5922 28.0983 45.1451
20.5112 28.0473 45.3599
20.9311 27.765 44.5012
20.4882 28.2244 45.3795
19.6339 27.7626 45.1655
20.4706 29.1417 47.6249
19.9306 27.7385 45.8448
20.2338 27.5331 44.3827
20.2277 28.4805 45.6814
19.0068 26.8625 45.3508
20.4718 27.8391 44.7904
19.766 27.8776 45.6366
19.1326 27.5284 46.1166
20.2313 28.6642 47.5726
19.9026 27.8202 46.1975
19.0845 27.6405 46.5485
19.5256 27.3026 45.3224
19.2826 28.1244 47.339
19.4039 27.3812 46.3813
19.3817 27.8764 46.5509
19.1582 27.1801 45.4648
18.7987 27.1211 46.1758
18.7664 26.6339 44.5143
19.0578 27.684 47.0764
19.0971 27.8108 47.7216
18.9624 27.6373 46.745
18.9226 27.2596 47.2179
18.6918 27.5151 47.6424
18.9075 27.507 46.711
18.2216 27.3624 47.5969
18.5268 26.9491 47.0331
18.493 26.9198 46.9518
18.7356 27.9104 47.7626
18.0488 26.9219 47.5759
18.4998 27.2658 48.4487
18.6282 27.2767 47.0623
18.4369 26.9087 46.2349
17.6887 26.568 46.8823
17.634 26.8098 47.4257
17.6744 26.6912 47.6792
17.8106 26.9188 47.8399
18.3555 27.7184 48.9395
17.6262 26.1672 46.9732
18.009 27.6946 52.4401
20.6547 31.3537 52.4651
17.457 26.3579 47.0327
16.9255 25.803 46.8263
17.2362 26.1711 47.3598
17.1362 26.202 47.5312
17.3329 26.5281 48.562
17.6064 27.1778 49.957
17.2917 26.7586 48.4843
17.3744 26.8695 48.6247
17.1076 26.2246 48.2239
17.1887 26.6557 49.1838
16.9223 26.2532 48.2816
17.0281 27.3462 50.1542
17.321 27.7047 50.7029
17.514 27.4681 50.7585
17.165 26.5156 49.043
17.3455 27.2199 50.0325
17.0345 26.7276 49.1554
16.6607 27.0401 51.1506
16.6625 26.5783 50.459
16.5791 26.0851 48.8495
16.8079 26.7934 50.3711
16.1464 26.1358 50.4564
16.9674 26.6989 49.9761
16.7324 26.2522 49.2395
16.6247 26.7529 50.6214
16.6423 26.5856 50.1177
16.3048 26.0877 50.3269
15.9469 25.7517 49.5487
16.4236 26.3503 50.2012
16.125 26.6173 51.0325
16.3001 26.4598 50.6527
15.949 25.8704 50.1297
16.0197 26.3739 51.4327
16.0788 25.9296 50.2413
15.9472 26.3236 50.8225
15.8729 26.458 52.4129
16.3233 26.8066 51.6206
15.9626 25.8386 51.3426
15.7396 25.7267 51.0689
15.5572 25.5314 50.6347
15.4137 25.5442 50.0824
15.535 25.6897 51.147
16.0959 26.3409 51.3369
15.8827 25.851 50.7178
15.3289 26.1479 52.2753
15.7238 26.6045 53.6354
15.6928 26.0386 51.9259
15.5419 26.8215 52.0037
14.6849 25.139 50.7448
15.0184 26.059 52.6659
15.5523 26.1826 52.5851
15.2352 25.9831 51.5465
15.0039 25.7013 51.9678
14.9972 26.455 54.1671
15.0856 25.5525 53.3155
15.3297 26.0685 52.2588
15.0121 25.2373 50.7124
14.9036 25.5688 52.09
14.784 25.6468 52.0789
14.6394 24.8242 50.3362
14.4481 24.9614 51.6771
14.3073 24.8345 51.2602
14.3746 25.1375 51.8912
14.3557 24.8545 51.986
14.5665 25.1252 52.2299
14.6447 25.5235 51.9885
14.0239 24.5907 51.4185
14.0802 25.0008 52.7645
14.3946 25.1503 52.3898
14.3846 25.1986 52.9096
13.998 25.5126 53.7053
14.5394 25.4526 53.2352
14.2517 25.0088 52.6022
14.025 24.9797 53.6756
14.6322 25.5978 53.9874
14.0753 25.1314 53.5852
14.1125 25.0005 53.4357
14.5404 25.5676 53.4754
13.748 24.3884 52.2311
13.9535 24.9801 52.7928
13.4875 24.1153 52.4833
13.8531 24.5208 53.0239
13.7748 24.5971 53.0019
13.8917 24.9278 53.0888
13.4994 24.548 52.8347
13.4724 25.1671 55.258
13.5346 23.8265 52.0223
13.6775 24.5856 53.8969
13.6894 24.2405 52.4656
13.2145 24.2804 53.597
13.4852 25.0783 54.359
13.4003 24.4228 54.0195
13.0924 24.2342 53.5983
13.4368 23.7107 52.4615
13.509 25.2029 58.7648
15.2325 27.4373 55.8025
12.9807 24.4435 54.6589
13.2195 24.0708 53.1589
13.1569 24.5432 53.6447
13.0396 23.7597 53.4146
13.2858 24.2021 53.5255
13.1893 25.0422 54.4557
12.578 24.2671 55.455
13.084 24.2297 54.6618
12.6445 23.3812 51.9634
12.5989 23.7362 53.2991
12.9619 24.505 54.7803
12.7761 23.7702 54.2732
12.4955 24.378 55.8296
12.6635 23.3961 53.0305
12.8638 24.171 55.4711
13.1172 24.3879 54.7449
12.45 23.8905 54.9557
12.5533 23.8989 54.3328
12.3762 24.3566 56.5466
12.8477 24.0603 54.0038
12.4717 24.4008 56.8435
12.9252 24.1508 54.6958
12.2545 23.0259 52.8103
12.3253 24.3523 56.9367
12.5237 23.767 54.9569
12.1984 23.4549 55.4421
12.4349 23.6533 55.4376
12.3784 23.6605 55.8005
12.5197 24.1801 55.7107
12.0757 23.3534 55.0051
12.4155 24.0325 56.5687
12.5197 24.1391 55.9693
12.1012 23.8969 56.8019
12.2068 23.2846 54.6722
12.2612 23.7362 57.1264
12.0841 23.8126 55.5879
11.9537 23.2683 54.2635
11.8365 23.276 55.5471
11.75 23.1344 55.0734
11.9536 23.5364 55.5715
11.892 22.9846 54.612
11.5879 22.9326 55.06
11.7669 23.402 55.9914
11.9282 23.6426 56.3587
11.5694 22.5521 53.9035
11.7261 23.5507 56.7613
11.4806 22.8185 55.2858
11.8327 23.4605 57.2324
11.7816 23.9143 56.8738
11.6871 22.9912 55.2241
11.4295 23.1861 56.9419
11.5311 23.3718 57.1743
11.8142 23.6254 56.3578
11.447 23.3433 57.35
11.53 22.9797 56.3755
11.4031 22.5245 54.6614
11.2581 23.2599 58.1112
11.57 23.0444 56.5357
11.8738 24.4118 59.8593
11.6239 23.5016 57.4532
11.3599 22.983 57.1146
