# pn-170911/RbIIR-60-USN7-1280-1959.psd
# Power spectrum* (dif=0,1,2) (really just |FT|^2)
# NOTE: only the first half! (symmetric)
# weeks: 1280-1959
# 531 clock-days, 4 excluded
# PSD: 1441
120.219 0.0413474 0.0227325
12665.8 0.263144 0.03121
46734.7 0.964385 0.0299626
12963 0.531212 0.029568
14722.2 1.0578 0.0329666
5042.77 0.534834 0.0291707
3712.75 0.553645 0.0309203
2606.46 0.513913 0.0321357
2353.18 0.642676 0.0304324
1648.51 0.587689 0.0323877
1370.83 0.559353 0.0304515
1192.5 0.601478 0.0313187
939.034 0.607336 0.0316556
865.239 0.59669 0.030601
763.989 0.622061 0.0292144
661.861 0.631408 0.0319812
591.7 0.631793 0.0325936
580.76 0.732692 0.0330588
503.782 0.698777 0.0290572
478.567 0.739746 0.0323489
398.491 0.695642 0.0332709
418.223 0.762908 0.0321309
386.818 0.801711 0.0331944
338.059 0.766786 0.0341638
279.235 0.722006 0.0292043
290.839 0.811481 0.0335765
268.56 0.778492 0.0336114
252.874 0.810367 0.0334279
253.228 0.889101 0.0341349
241.468 0.891839 0.0338267
236.449 0.945961 0.0329282
222.227 0.94297 0.0360595
210.85 0.958474 0.0370252
217.969 1.01314 0.0343428
200.75 1.03077 0.0395038
196.095 1.07244 0.0360226
193.514 1.08071 0.0365169
187.494 1.13238 0.0397282
176.926 1.18282 0.0382529
179.443 1.18235 0.0402206
175.21 1.23216 0.0408856
171.325 1.32362 0.0435722
159.108 1.2705 0.0416932
151.51 1.29868 0.0413059
156.656 1.42226 0.0449167
165.62 1.46613 0.0426434
160.539 1.49467 0.0465401
155.734 1.59425 0.0493159
149.832 1.56188 0.0459805
147.341 1.59607 0.0466427
141.991 1.59276 0.0525569
145.912 1.71932 0.0499625
148.123 1.81013 0.0531488
148.672 1.81795 0.0601307
144.388 1.89002 0.0570534
130.911 1.84618 0.0557035
136.58 1.97235 0.0622162
134.464 1.99469 0.0621175
134.39 2.05452 0.0629709
129.744 2.09978 0.0622859
125.037 2.0453 0.0647328
133.382 2.30204 0.0716523
134.345 2.4054 0.0818639
126.624 2.28442 0.0753501
121.101 2.31964 0.0778626
125.875 2.49881 0.0837469
125.584 2.44569 0.0833895
131.192 2.76541 0.0870271
127.405 2.67279 0.0879476
122.397 2.66106 0.0937003
122.883 2.82878 0.0991113
124.917 2.90134 0.0998372
123.972 2.91895 0.103267
123.888 3.08466 0.104963
124.49 3.17332 0.114199
124.507 3.18163 0.113528
117.852 3.17277 0.115383
107.037 2.90736 0.116721
112.736 3.19927 0.123249
119.976 3.51668 0.138981
111.584 3.34968 0.133749
118.792 3.59688 0.145621
112.336 3.54751 0.148374
115.9 3.67463 0.146352
108.188 3.58236 0.147351
108.438 3.60907 0.159114
114.969 3.9192 0.171536
105.377 3.64215 0.167157
112.231 4.0582 0.186201
112.649 4.09948 0.19199
111.431 4.16086 0.186631
108.124 4.1141 0.188662
107.015 4.18529 0.199147
109.918 4.42389 0.205054
107.358 4.44487 0.213504
103.708 4.40198 0.217442
111.484 4.66959 0.216481
112.873 4.92246 0.251466
102.622 4.61308 0.242327
98.6077 4.62537 0.242283
106.559 4.90524 0.264446
110.251 5.24876 0.283295
102.03 4.94724 0.27252
104.954 5.24394 0.287968
105.766 5.32396 0.299785
97.4799 5.02683 0.289706
106.228 5.61268 0.31979
102.225 5.44492 0.312723
104.161 5.6893 0.337892
91.8857 5.13146 0.327683
99.7272 5.60977 0.348285
93.0926 5.31399 0.328358
104.895 6.1869 0.390025
99.8873 5.96151 0.391397
102.544 6.17435 0.409831
96.8744 5.8866 0.398261
93.0408 5.97847 0.412474
99.3179 6.42075 0.444152
94.7339 6.16012 0.434514
96.6216 6.38211 0.45281
96.9219 6.49478 0.471201
96.4011 6.61778 0.483345
101.341 6.96969 0.50704
93.5963 6.61745 0.49644
91.8499 6.69164 0.504437
97.6756 7.20027 0.565
101.001 7.51804 0.589682
90.9251 6.84192 0.542194
93.5054 7.21345 0.598431
91.6316 7.23221 0.593003
98.2561 7.6449 0.626888
91.6229 7.41575 0.638603
97.7663 7.97587 0.670994
95.897 7.99087 0.695368
97.3051 8.17503 0.69993
94.2121 7.937 0.695015
85.8397 7.41762 0.68367
87.0103 7.65411 0.700591
89.1393 7.92815 0.748738
85.5927 7.67713 0.719465
90.3946 8.22364 0.786669
81.4668 7.63492 0.749223
83.3526 7.87561 0.781152
92.0477 8.80709 0.858471
84.4132 8.20089 0.829846
90.8856 9.00998 0.912707
78.353 7.84308 0.800895
80.5499 8.23355 0.874659
84.7236 8.80456 0.939158
85.4503 8.90072 0.95466
83.3796 8.85228 0.96729
84.9713 9.17705 1.01933
87.0491 9.40642 1.04129
84.4058 9.32564 1.03726
79.0836 8.7763 1.0065
80.2225 9.05912 1.04181
78.3217 8.81862 1.01344
80.4749 9.26885 1.10639
83.3743 9.72391 1.18107
86.699 10.3013 1.26139
82.0935 9.68591 1.17979
78.6229 9.47259 1.16573
80.4161 9.85679 1.25612
86.3668 10.7647 1.34398
78.6366 9.61641 1.22012
80.1438 10.1402 1.32764
76.4163 9.85324 1.30902
78.3022 10.2123 1.34108
77.8396 10.2937 1.38286
72.7038 9.74704 1.33554
78.7684 10.5832 1.45959
78.0546 10.7677 1.53616
74.1458 10.1397 1.44994
71.6677 10.0731 1.4513
72.6241 10.2854 1.46828
80.9999 11.6107 1.70637
78.5763 11.4132 1.67612
72.5893 10.5342 1.56289
76.9124 11.2575 1.69334
71.5361 10.7168 1.6284
73.9497 11.0962 1.71709
70.9505 10.6459 1.6209
78.0156 12.1257 1.87985
67.71 10.744 1.75487
78.5001 12.1922 1.92988
73.7267 11.5655 1.85829
76.1412 12.3036 2.01166
67.654 10.9361 1.82815
72.1851 12.1387 2.03152
71.9397 11.9275 2.00097
69.5925 11.9523 2.06028
63.7432 10.6462 1.8255
72.7466 12.4914 2.1568
71.8362 12.4264 2.13863
69.6874 12.1944 2.1515
73.0876 12.9952 2.33974
65.5533 11.7317 2.1269
72.387 13.1026 2.37612
64.7977 11.6438 2.17311
69.079 12.7973 2.41957
69.3259 12.762 2.36019
69.2683 13.1471 2.55025
67.2153 12.6003 2.40819
69.8131 13.2957 2.54336
66.4407 13.0327 2.56388
66.5707 13.0905 2.61759
64.2697 12.7464 2.56971
65.5867 13.067 2.64955
60.3311 12.2545 2.54931
67.6658 13.5174 2.73384
64.3413 13.2683 2.73866
62.1031 12.6957 2.61968
64.3377 13.501 2.9103
62.5261 13.1752 2.81034
61.0429 13.0793 2.80218
64.4536 13.7412 2.93868
60.373 13.1889 2.87376
65.352 14.4748 3.20581
65.2152 14.2661 3.1361
63.861 14.1936 3.15174
59.2017 13.6907 3.21607
62.306 13.6588 3.06313
64.5708 14.6594 3.33093
65.8575 15.0529 3.47469
62.1343 14.4074 3.43284
61.54 14.4038 3.39373
61.2797 14.4151 3.4384
58.5797 13.9878 3.39991
57.6107 13.7548 3.37283
57.0286 13.7928 3.314
55.7438 13.8435 3.46817
62.6322 15.301 3.77034
61.1921 15.5492 3.98842
61.8395 15.2101 3.80492
57.1479 14.7349 3.78273
61.8511 15.6935 4.03233
57.2128 14.6374 3.76587
53.7049 13.9851 3.66016
56.3515 14.5381 3.81614
50.8139 13.5842 3.68696
53.6835 14.32 3.88177
55.6424 14.9486 4.05468
55.0989 14.737 4.00105
56.3718 15.6216 4.32968
53.1358 14.7164 4.10541
56.7107 15.5843 4.31443
57.3077 16.0867 4.52238
58.8275 16.3456 4.56639
59.7373 16.8507 4.77681
54.3264 15.5794 4.48023
55.9601 16.4284 4.84671
51.3273 14.9137 4.43772
58.0621 16.7819 4.89701
50.3641 15.2382 4.60889
53.8491 15.9884 4.79278
53.9404 16.245 4.8836
50.9442 15.2543 4.65565
52.8933 16.3315 5.07921
51.7419 15.7137 4.82203
48.1308 14.7145 4.55295
49.1822 15.158 4.75193
48.9577 15.5638 4.9244
53.2259 16.693 5.28759
46.6391 15.0019 4.85661
51.4753 16.148 5.18907
48.8396 15.798 5.18421
51.9361 16.9325 5.48928
48.152 15.9826 5.26764
47.9457 16.075 5.43441
46.3051 15.5116 5.2238
46.2563 15.219 5.07039
44.6912 15.0503 5.14987
48.4468 16.6654 5.74773
49.168 16.994 5.93867
50.0552 17.0713 5.95739
50.8827 17.4654 6.122
44.3624 15.2873 5.36177
50.1591 17.6437 6.20842
45.3029 16.0568 5.76976
45.8457 16.0449 5.68879
45.6494 16.3723 5.92958
48.5032 17.5174 6.35739
43.3134 15.8874 5.82525
43.6035 16.0193 5.99918
43.1923 16.0865 6.0541
46.0148 16.7925 6.16313
43.0069 16.3374 6.19054
45.3161 17.2794 6.69343
48.5355 18.2563 6.85096
43.4981 16.6862 6.43329
46.6095 17.9031 6.87704
42.5991 16.7184 6.58383
47.0277 18.2593 7.16117
42.3773 16.9842 6.84979
45.085 17.8082 6.97545
45.3294 18.2865 7.39839
42.9711 17.0076 6.76461
41.5926 16.8701 6.88542
42.4742 16.8456 6.81701
41.6102 17.2141 7.1192
39.8885 16.2781 6.70425
41.7638 17.564 7.43807
46.7479 19.3984 8.04245
45.837 19.1537 8.01038
41.8447 17.792 7.58139
42.197 17.9302 7.56615
42.2252 17.6865 7.43797
38.2416 16.6457 7.2691
39.5612 17.5016 7.82275
41.8186 18.1796 8.0029
39.7164 17.1088 7.48178
42.9185 18.5928 8.03294
39.4143 17.6657 7.84227
40.1376 18.0235 8.15915
39.6801 18.1493 8.26559
40.4176 18.1771 8.15854
38.002 17.3274 7.96463
40.8443 18.9175 8.68495
39.4698 17.96 8.24449
38.9037 18.0937 8.44205
37.7822 17.5606 8.14944
39.0577 18.6015 8.91435
38.3478 18.0525 8.51441
38.534 18.3313 8.85449
35.9388 17.2417 8.36168
37.3255 17.937 8.77787
36.9205 17.265 8.28723
40.1681 19.3458 9.42728
37.8605 18.4151 8.98658
36.7585 17.9674 8.91452
35.7065 17.434 8.64018
36.9944 18.137 9.01343
36.1789 18.4509 9.44832
35.6162 17.627 8.8008
38.4814 19.2648 9.83057
37.5989 19.2069 9.85005
35.1518 18.0129 9.37917
37.037 18.6596 9.4147
34.9866 17.9021 9.25657
34.2627 18.088 9.71826
34.4599 17.8552 9.41084
35.7724 19.1349 10.1807
35.2886 18.2164 9.50889
36.4351 19.391 10.4241
33.953 18.0464 9.61291
36.1476 19.535 10.5865
34.162 18.5568 10.0823
34.7983 18.8347 10.2913
34.5955 18.7357 10.4018
35.9057 19.4915 10.663
31.8435 17.6775 9.93052
33.1919 17.8781 9.8461
35.0495 19.5864 10.8855
31.4437 17.9248 10.1476
31.3581 17.6928 10.0297
32.6301 18.1401 10.2415
31.8534 18.7765 11.0354
32.1781 18.1742 10.4204
31.3427 17.884 10.1608
32.4552 18.8956 11.1703
30.0195 17.7622 10.7712
33.1475 19.0621 10.9943
31.4133 18.5506 11.1449
31.2293 18.3375 10.8449
31.65 19.2632 11.7223
32.7118 19.1252 11.2618
31.5916 18.8555 11.2412
29.194 17.9437 10.9988
29.8436 18.2516 11.1723
29.6057 18.3524 11.4667
29.6686 18.2178 11.3229
30.4222 18.624 11.6058
30.5053 18.8869 11.7112
29.3081 18.0984 11.376
32.4253 20.4437 12.8938
29.1373 18.1982 11.6202
29.3447 18.2896 11.4627
27.8371 17.8775 11.6026
30.6197 19.2753 12.2197
30.7732 20.0197 13.0957
28.0279 17.7083 11.4185
30.7354 20.3735 13.5281
29.1656 18.5336 12.1273
31.25 20.3556 13.2237
27.3042 18.3713 12.5394
30.3479 19.7589 13.1073
28.3432 18.3687 12.1123
29.7641 19.7937 13.1122
27.0301 18.4427 12.5927
28.0255 19.0084 12.9608
26.989 18.5516 12.869
29.8405 19.6577 13.0392
28.2496 19.7025 13.864
27.9965 18.8099 12.8826
29.9922 20.9161 14.6062
27.9465 19.2033 13.3658
27.8307 19.7105 13.991
28.546 19.5915 13.636
27.1971 19.2932 13.5433
27.8753 20.3601 14.8023
27.0631 18.5442 12.9645
26.529 18.6273 13.2996
28.8982 21.0703 15.1914
24.2284 17.2554 12.6524
27.284 19.8503 14.5114
27.8507 19.835 14.5415
29.5037 20.9016 14.7391
26.6837 19.6373 14.4516
25.1474 18.8627 14.1227
26.2886 19.6916 14.6626
27.009 20.3773 15.2343
23.7757 17.2689 12.9139
23.8939 17.9173 13.5557
25.9177 19.6152 14.8937
25.5879 19.3767 14.6871
24.8892 18.801 14.2481
25.0525 19.8153 15.5715
25.4521 19.7974 15.5475
25.8979 20.0222 15.6813
24.5219 18.854 14.8539
23.9824 18.3523 14.2231
23.6907 18.4455 14.4921
24.1554 18.6955 14.6655
24.4835 19.1389 15.1652
25.2219 19.8207 15.4635
22.0816 17.7575 14.3884
23.6601 18.8875 15.2379
24.5239 19.487 15.3846
24.5047 20.2528 16.8141
25.1629 19.9683 16.0425
24.2981 20.0132 16.1376
22.2653 18.3183 15.2175
23.4051 18.9749 15.6196
22.7443 18.2925 14.8738
22.7348 19.1211 16.0268
24.0844 19.6462 16.0878
23.9576 20.0369 16.6768
23.8294 20.3674 17.0555
22.4052 18.9588 16.3027
22.3701 18.6419 15.739
20.8782 17.8774 15.5291
23.9387 20.2916 17.0878
23.9703 20.5733 17.5636
23.2474 19.8574 16.9482
22.1725 19.4476 17.0754
23.4997 20.0506 17.1337
21.6251 18.5595 16.1316
21.1085 18.9948 17.0338
20.4539 17.6942 15.537
21.7195 19.9334 18.1002
21.2876 18.6858 16.6908
21.9203 18.8757 16.7057
22.3445 20.0504 17.8927
20.5983 18.5527 17.23
20.5126 17.7227 15.6674
22.2703 20.6472 18.9338
22.3621 19.7673 17.3951
20.9778 18.9956 17.0823
20.0253 18.846 17.6996
20.248 18.1563 16.4928
19.7048 18.4868 17.5231
21.4218 19.52 18.1365
20.3822 18.6244 16.9334
19.1137 17.7808 16.71
21.4929 20.9154 20.1191
20.5112 18.8579 17.6949
20.1977 18.5171 17.3279
20.8887 20.0001 19.0629
21.3043 20.6041 19.9062
20.9311 19.4877 18.4365
18.8948 18.0178 17.296
21.1499 20.6595 19.9013
20.0129 19.5002 19.1163
19.4284 18.5798 18.0695
18.9826 18.5002 18.3439
19.5575 18.9926 18.7373
19.4293 19.0056 18.9429
20.7346 19.7289 19.0371
20.1618 19.8073 19.2888
19.258 19.4509 19.6116
17.8312 17.7967 18.1178
19.8795 19.6764 19.4255
19.2399 19.8188 20.2249
18.5794 18.8111 19.493
19.6825 19.2468 19.2033
19.2506 19.5089 19.7169
19.6077 20.3373 20.8871
18.7809 19.4668 20.5663
17.6701 17.2164 17.6422
18.3112 18.1847 18.2933
18.7568 19.7785 20.7296
19.3942 20.0323 20.7326
18.8495 19.5188 20.0796
17.7222 18.5571 19.6387
17.6576 18.2921 19.2828
17.5878 18.5277 19.4099
17.9411 19.5488 21.2907
18.1345 19.2507 20.4656
18.0047 19.695 21.6786
18.6812 19.3582 20.309
16.6066 17.6119 19.1014
17.3567 18.8003 20.5012
17.7966 19.0238 20.5084
17.1515 18.2482 19.8437
17.3492 18.7486 20.2767
16.1164 17.524 19.7479
17.6068 18.6254 19.731
17.8686 20.163 22.2476
16.8966 18.4799 20.4632
16.8925 18.7312 21.077
17.0728 18.7516 21.068
17.4929 19.0883 20.7031
16.8456 19.0958 21.6059
16.9098 18.975 21.0608
16.201 18.4444 21.1596
16.2954 18.6064 21.5716
16.1506 17.7968 20.0908
15.7334 18.2853 21.3606
15.8224 17.2114 19.3013
15.9523 18.3577 20.764
15.8742 18.7599 22.0912
15.3622 17.4547 20.2301
16.1181 18.5012 21.6488
15.8195 17.8959 20.4922
15.8067 18.0413 20.8614
16.3868 19.3069 22.1627
15.3488 17.8945 20.8411
15.26 18.5364 21.9913
14.5709 17.2828 20.9153
16.1997 19.3797 22.9932
15.9069 19.0431 22.9191
15.1484 17.387 20.3664
15.4404 18.9309 22.8855
14.2358 17.1311 21.0039
14.9001 18.1654 22.3015
15.0085 18.5928 23.397
14.8355 17.1687 20.6189
14.5652 17.6615 21.7432
14.8188 18.0525 21.796
14.8651 18.2851 22.5272
14.9061 18.1117 21.9431
14.4515 17.782 21.9966
14.429 17.8151 22.4927
15.2963 18.9067 23.4323
15.2986 19.1764 23.9704
14.8606 18.1294 22.3016
13.7277 17.4096 22.3129
13.7047 16.8303 21.2337
13.8148 17.7175 23.0128
14.6905 18.3088 23.1646
15.1147 18.9916 23.7713
14.447 18.5832 24.0252
14.3386 18.1007 22.733
13.4205 17.3721 22.8607
13.9861 17.9355 23.538
14.0841 17.6342 22.3269
14.523 19.539 26.1487
15.3436 19.9018 25.5473
13.265 16.7545 21.9468
13.7421 17.6074 22.6026
13.4295 17.8215 23.7625
14.1993 18.6966 24.2499
11.9844 15.9835 22.2866
14.4113 19.1253 25.124
12.9824 16.932 23.2478
13.0189 16.6072 22.1217
13.7975 18.6018 24.8831
12.914 17.2477 23.187
12.6332 16.6406 22.6347
13.7701 18.295 24.271
13.7195 18.7932 25.7082
13.739 17.9111 23.6046
12.4838 16.8367 22.5843
12.479 17.7321 25.319
13.7215 18.8448 26.2967
13.81 17.7793 22.9619
12.5479 17.995 25.9154
13.8317 18.8645 25.6446
13.3403 18.6453 25.7787
13.0115 18.1938 25.5365
12.9213 17.8294 25.2101
13.8105 19.1913 26.4739
13.6192 19.5597 27.8837
13.0081 17.8431 24.9279
11.6136 16.1371 23.7165
13.7116 18.747 25.588
12.612 18.0309 24.9602
10.5768 15.0361 22.046
10.9176 15.5697 23.1247
11.8185 16.3231 23.249
12.1807 17.4826 24.8631
12.2267 17.9586 26.2672
12.2636 17.1233 24.223
11.5562 16.7569 24.6405
12.7956 18.9053 27.4523
12.18 17.5325 25.9592
12.1764 17.671 26.1291
12.326 17.4482 24.6708
11.1728 16.6639 25.2559
11.7573 17.3018 26.0365
11.7156 16.587 24.4487
12.3363 17.8413 25.5144
11.5805 17.8925 27.5092
12.0871 17.3583 25.2951
11.2739 16.6032 24.7298
11.9861 18.4122 27.8987
12.0537 18.4447 28.4119
12.3405 18.0374 26.8791
11.2891 16.7725 25.6567
11.7641 18.1852 27.6162
11.0389 16.2118 24.6237
11.6659 17.9784 27.0355
10.7696 16.64 26.213
11.2935 16.846 26.3147
12.3748 18.7126 27.9645
11.1903 16.7586 25.2734
10.9629 17.4546 27.5457
10.9583 16.8705 26.4387
11.7034 18.3594 28.6955
11.6186 18.2509 28.7375
10.9437 16.3365 25.5989
10.9278 17.2459 27.3832
11.5773 18.1724 28.3512
10.9782 17.4647 28.0306
11.5487 17.73 27.1028
10.4832 16.3408 25.3803
9.81786 16.3364 27.873
11.272 17.4466 27.5633
11.1026 17.5997 28.0606
10.8306 16.6667 25.5511
9.34379 14.6883 23.6014
10.2616 17.3364 29.0752
11.2582 17.5344 27.0199
9.47252 15.6973 26.6981
10.4611 16.6135 27.05
10.181 16.0951 25.8239
10.4058 16.9241 27.4937
10.1564 16.8156 28.3129
10.1246 15.4223 24.3723
9.68804 16.9321 29.1105
10.2413 15.9273 26.1628
10.0457 16.0992 25.7567
10.3422 17.7347 29.2585
9.76691 16.3592 27.7233
9.83552 16.2597 27.2649
9.35269 15.0884 25.1157
9.7259 16.693 28.6721
10.236 17.2339 29.26
10.0435 16.4169 27.5684
10.229 17.2536 29.1294
9.83634 16.6644 29.0584
9.96963 15.8319 25.8407
8.78995 14.7718 25.5394
9.26332 15.868 27.5716
9.406 15.8706 27.6302
9.87141 16.6951 28.8986
10.6511 17.6033 28.2444
9.49928 16.7559 29.7473
10.1636 17.2222 29.1211
9.58685 16.6569 28.2662
8.44838 14.6502 26.3892
9.48323 16.8551 29.526
9.22874 15.9931 28.7571
9.91322 16.9101 29.1161
9.46009 16.6434 29.1286
9.19186 15.7328 28.1382
9.76853 17.112 29.4354
9.08114 16.354 30.0955
9.5933 16.4788 29.1211
9.38308 15.6924 27.4739
9.93063 18.3208 32.3848
9.40844 16.5966 29.9128
9.11165 15.6854 27.7184
8.85255 15.8512 29.3261
10.0422 17.1524 29.3345
9.18105 16.7592 29.826
8.58771 15.5612 29.2231
9.92737 17.5992 30.7063
9.492 17.1709 30.3162
8.79432 16.296 31.2093
9.56654 16.7808 29.46
8.54008 15.8174 28.8171
8.07637 14.9022 28.7043
9.49694 17.3005 31.2544
8.78272 15.4282 28.2197
8.80639 15.7115 28.1508
8.94404 16.7253 30.5718
8.95519 16.8678 31.6258
9.16761 17.1398 31.5751
8.4228 15.2597 28.1579
8.48022 16.1638 30.7235
8.52918 15.5939 28.6069
8.15026 15.8587 30.7848
8.40797 15.5424 29.3152
8.10402 15.0981 28.954
8.35959 15.396 29.5025
8.7714 16.4243 30.6789
8.32764 15.6369 29.5341
8.21911 15.0655 27.851
7.85413 15.6583 31.2249
8.68668 15.8303 29.272
8.07737 15.7793 30.628
7.7284 13.9232 27.2928
8.75908 17.178 32.3128
8.53339 16.5374 31.6212
7.92519 15.2983 30.7835
8.03931 14.8145 28.2199
7.86187 15.111 29.1539
7.95127 15.2689 29.6597
8.12464 15.6761 31.2242
8.30336 15.4147 28.7559
7.86945 16.3015 32.2021
7.83501 15.066 29.5725
8.04993 16.2961 32.7927
7.7952 14.6994 29.2599
8.0966 15.7559 31.4387
8.51647 16.9114 32.1514
7.48192 14.8149 30.5069
7.90314 14.8269 28.4417
7.62706 15.3089 30.4078
7.38139 14.5062 28.9267
7.54181 14.9945 29.391
7.16235 14.6861 30.8103
8.19746 15.9383 30.5161
7.01205 14.0455 29.042
7.61784 15.2484 29.9909
7.34484 15.3176 32.0886
7.57716 14.9659 29.9104
7.08654 14.646 30.2948
6.96999 14.1765 30.3351
7.59124 15.1694 31.9723
8.15308 16.2167 31.9995
7.6114 15.4052 30.9337
7.09821 14.7778 31.329
7.20358 14.3151 29.2738
7.07023 13.8733 27.8092
7.08462 14.9111 31.4604
7.60522 15.2877 30.0685
6.91362 14.9743 31.559
7.05596 14.4267 30.646
7.0259 14.2623 30.1082
7.42518 15.4063 31.9101
7.18907 14.3239 28.5325
6.84529 15.0128 32.1332
6.63441 13.2523 28.2496
6.80501 14.3202 30.4245
7.30429 15.5046 32.1589
7.19412 14.8571 30.509
6.67403 14.5117 31.054
6.65286 13.9156 30.4856
7.34093 15.9911 34.025
7.1217 15.1316 32.8358
7.05807 14.3235 29.8604
6.43478 13.9872 31.2169
6.97762 14.6771 31.6433
6.702 13.9009 29.812
6.43064 13.3983 29.3849
6.44523 13.2058 27.7688
6.81322 15.6685 34.5116
6.81605 13.9178 31.3851
7.14234 14.7263 30.6946
6.8322 15.0265 33.0846
7.20678 15.4465 33.2303
7.30733 15.6391 32.3085
6.36191 13.726 30.2476
6.66517 14.9333 32.7913
6.63738 14.2198 30.8705
6.68049 14.8505 33.109
6.77274 14.7263 32.6732
6.92214 14.743 30.8326
5.68075 12.3145 27.5975
6.06988 13.9648 31.7032
6.29014 13.2181 28.5123
5.88669 13.4939 29.9523
5.98506 13.7147 31.5603
6.35089 14.4352 33.3385
6.53452 14.1395 31.0241
5.99165 13.2753 30.9995
6.33559 13.7795 30.1826
6.00161 13.6446 31.2098
6.30761 14.4259 32.0432
5.83294 12.8171 29.8064
6.30465 13.9411 30.7402
6.05687 14.2726 33.3757
6.07281 13.8123 32.4912
6.14445 13.6879 31.1177
5.9313 13.4419 32.1786
6.32711 13.9435 32.4459
6.19008 13.1319 29.9913
6.34935 14.9878 35.6005
7.12474 15.729 33.4887
5.92889 13.598 31.6039
6.23283 14.2451 31.7433
5.89337 14.0064 32.5692
6.08883 14.7821 35.8709
6.49011 14.2813 31.9951
5.85529 13.7469 32.3138
5.72664 12.623 28.9126
5.46034 13.1677 31.5032
5.82783 13.2853 30.9921
5.64775 13.5348 33.1635
6.20437 13.5212 30.2132
5.48521 12.7225 30.4183
5.71545 13.1578 29.5504
5.34274 13.1139 31.9255
5.65564 13.495 33.3537
5.97166 13.5296 31.7998
5.57721 12.8196 30.7552
5.64511 13.0767 31.7206
6.05202 14.0507 32.4201
5.86358 13.862 31.8702
5.61174 14.0997 33.8487
5.65193 13.6414 34.3478
5.97853 13.4069 30.2015
5.20315 12.6689 30.8985
5.45031 13.8753 35.4345
6.02682 13.8397 32.9813
5.40008 12.8417 32.7416
5.9327 13.9538 32.84
5.72502 13.8385 33.181
5.80484 14.626 37.303
6.5907 15.623 36.6022
6.12837 15.1461 37.591
6.30553 15.0884 35.8183
5.7722 14.3436 36.6028
6.07684 14.1824 34.1698
