# pn-170911/RbIIA-31-RbIIR-1280-1959.psd
# Power spectrum* (dif=0,1,2) (really just |FT|^2)
# NOTE: only the first half! (symmetric)
# weeks: 1280-1959
# 207 clock-days, 82 excluded
# PSD: 1441
4477.41 0.484429 0.0143168
794730 15.3797 0.0139468
2.0548e+06 37.1765 0.0158443
592984 19.0968 0.0148315
426535 25.8181 0.0145654
191652 15.1006 0.0205403
125667 14.1405 0.0156164
78607.9 13.0292 0.0250437
72517.5 15.7223 0.0225538
38908.8 10.5839 0.016257
50165.5 19.3416 0.0149372
36846.6 19.5892 0.026234
32752.5 16.4918 0.0320927
32600.1 19.6456 0.0332433
26597.9 14.697 0.0317484
26631.8 18.6145 0.0378957
19530.5 16.3785 0.039691
18296 23.0388 0.0461792
9559.68 9.15025 0.030164
9571.71 11.5616 0.0349518
7943.56 8.30594 0.0383138
6048.15 7.13189 0.0368282
4803.55 5.59296 0.0240143
6351.8 10.7232 0.0492119
7015.39 9.54065 0.0482567
6562.5 10.8904 0.0356285
4241.65 7.10178 0.0353902
3818.45 9.73776 0.0490937
5255.03 12.1034 0.0665579
3941.85 12.21 0.0395594
4005.73 10.9885 0.0566784
2961.08 8.19119 0.0366043
2648.79 7.4184 0.0484925
1897.3 4.82019 0.0386461
1959.81 5.8932 0.0633484
2149.78 6.9745 0.0646393
2487.68 8.4024 0.0805133
1992.06 7.87877 0.0529414
1717.28 8.12655 0.0727755
1536.98 7.51105 0.0654634
1835.65 8.02281 0.0777371
2701.68 13.1642 0.0717116
1497.39 6.65207 0.0567921
1192.07 6.14089 0.0509059
1145.69 7.89235 0.094743
1242.1 7.36219 0.0909683
1871.68 10.0258 0.120319
1110.06 6.07065 0.0777311
1622.79 11.0745 0.160515
1180.27 6.65778 0.0773459
974.227 6.92706 0.0784227
1351.9 9.99863 0.128536
1234.29 8.21688 0.130953
977.228 6.04331 0.0785766
803.54 8.13391 0.103665
832.62 6.24239 0.108368
922.005 7.18192 0.119629
949.357 7.63338 0.141249
810.414 7.43045 0.128354
968.362 9.39998 0.149686
700.98 6.37611 0.1202
1112.06 11.7886 0.188884
559.008 5.20003 0.112049
620.94 7.43055 0.158255
543.399 5.72758 0.122902
835.099 9.35392 0.194507
712.191 7.98947 0.186354
512.358 6.04007 0.146251
576.17 7.62846 0.179962
582.214 7.81336 0.160829
539.228 7.06019 0.176157
620.699 8.11688 0.198537
563.244 8.22518 0.216043
457.381 6.16042 0.172862
504.262 8.0615 0.195415
442.7 6.17615 0.174487
563.742 8.70453 0.249021
531.749 8.34448 0.251891
511.868 8.2695 0.219121
443.91 7.93162 0.234283
433.687 7.48193 0.234938
362.213 6.90126 0.217951
389.608 6.8998 0.210964
340.267 6.80027 0.222436
418.192 8.54987 0.276207
427.484 8.44716 0.294177
377.783 7.54241 0.275808
349.589 8.48807 0.314509
413.457 9.42195 0.340579
426.431 9.59937 0.354099
351.226 8.09224 0.305283
307.111 7.26322 0.280008
345.392 7.83653 0.312146
359.66 9.58584 0.365838
318.537 8.86766 0.364853
323.826 8.11532 0.347384
378.238 8.41679 0.371337
293.026 8.52021 0.375454
284.849 8.90616 0.401979
379.429 11.7878 0.548873
339.104 9.60796 0.454001
266.792 7.95141 0.373744
325.626 10.0053 0.492163
284.404 8.97831 0.429864
268.379 9.57009 0.488096
304.232 10.9356 0.533956
305.656 9.29477 0.498483
316.074 11.2634 0.620777
246.919 8.29733 0.487472
289.51 11.2783 0.652599
268.974 9.27524 0.500414
252.808 9.07275 0.548542
253.981 9.37867 0.538781
245.495 10.0924 0.618323
251.405 10.2262 0.604818
272.887 10.8419 0.673544
261.293 10.7992 0.695271
262.39 10.574 0.663264
284.933 12.665 0.829199
216.73 9.49006 0.66165
260.529 11.0449 0.741838
226.392 10.659 0.747248
257.691 10.5378 0.719236
188.355 8.90499 0.640117
193.935 10.253 0.737615
215.559 11.6235 0.840926
228.203 10.3118 0.764289
221.608 10.5305 0.806054
211.183 11.3965 0.886633
226.192 11.5954 0.875158
184.087 10.7072 0.860355
182.164 10.7419 0.836368
202.245 11.101 0.928731
210.296 10.9168 0.910657
172.162 10.2811 0.859641
181.112 10.7176 0.900969
177.51 11.0061 0.938635
187.691 10.744 0.966653
220.935 14.0884 1.2639
189.854 11.0858 1.00217
167.716 10.6236 0.976721
184.42 12.0039 1.09419
173.726 12.2641 1.18881
187.91 11.1282 1.05093
175.592 11.6598 1.14952
178.107 11.4061 1.14302
160.697 10.652 1.02164
171.362 12.3658 1.24259
157.895 11.0958 1.15797
153.547 10.3728 1.11984
167.639 10.7062 1.10793
177.004 13.1182 1.41846
177.646 13.0607 1.43126
160.634 11.3032 1.24475
140.307 12.2547 1.3871
182.984 15.4126 1.72961
161.857 12.1892 1.361
156.013 12.146 1.36902
141.756 11.8488 1.38782
157.696 12.4689 1.51464
141.969 11.9627 1.422
154.749 12.9685 1.57587
138.434 13.2798 1.69062
162.661 14.1797 1.7768
137.309 11.1501 1.40166
130.656 11.4021 1.49052
158.337 14.2049 1.80267
127.224 11.4834 1.50996
139.096 13.849 1.8192
136.049 12.2244 1.6113
131.395 12.0114 1.62145
137.144 12.8459 1.75266
138.438 13.5807 1.79928
124.022 12.0973 1.74069
123.894 12.6792 1.81766
117.668 12.694 1.86103
123.503 12.6298 1.84336
131.302 12.9503 1.87317
120.829 11.8035 1.68915
119.059 13.0121 1.93064
120.52 13.829 2.12949
122.252 13.6038 2.08875
113.327 12.1575 1.84869
116.378 11.2667 1.75152
116.125 12.7376 2.06081
112.062 12.9453 1.98384
119.939 12.6506 2.05862
112.918 13.7667 2.21268
109.236 13.351 2.30788
120.19 13.436 2.22409
96.5567 12.1383 2.10918
116.721 13.9495 2.38337
93.9736 12.6333 2.21248
104.498 12.5644 2.21145
113.237 13.7896 2.43745
113.169 12.7814 2.28428
88.3523 11.0718 2.02831
99.1753 13.013 2.33752
87.7359 11.5183 2.19378
99.5977 12.3725 2.2872
102.485 14.9294 2.80714
82.2638 13.5522 2.58628
94.0576 13.3144 2.59014
95.0354 12.3486 2.33995
102.167 13.6088 2.60555
95.6701 13.8452 2.67467
86.3649 13.0193 2.61134
88.8283 12.2898 2.52004
88.1969 12.5353 2.50735
85.907 12.2524 2.60158
103.69 15.8148 3.21541
78.7593 13.2905 2.84638
94.2401 14.4552 2.99945
85.2645 14.2073 3.01027
88.8808 13.8622 3.04068
93.4676 14.4931 3.10101
78.9687 12.0528 2.64946
92.7925 14.7603 3.18522
83.7413 12.0633 2.79792
83.3464 13.0031 2.87929
85.489 13.2982 3.07671
80.5834 11.6945 2.66696
90.1112 14.8431 3.49633
87.8918 14.3725 3.30078
87.3551 14.746 3.47116
77.8917 13.024 3.04269
78.363 13.2157 3.10538
80.741 13.5292 3.25251
71.5624 13.4075 3.32726
81.7819 15.4467 3.67349
70.0464 13.145 3.33403
81.6363 13.6127 3.47217
75.2204 13.6497 3.419
67.2706 13.2844 3.45784
75.3734 13.3243 3.24783
73.2669 13.6396 3.60175
65.3243 12.9915 3.32371
80.0245 13.001 3.45029
62.2433 12.6987 3.36548
83.2849 14.7744 3.90078
66.4223 13.5828 3.6669
71.3993 14.5541 3.85833
71.666 13.5094 3.77314
72.691 12.8574 3.42346
62.1321 12.258 3.40468
67.1317 14.461 3.97512
68.4778 14.1266 4.02528
72.892 14.424 4.02727
64.8888 13.951 4.03871
72.2696 15.6684 4.46148
70.9819 15.185 4.44653
65.9788 13.7905 4.05675
64.3341 13.9835 4.1221
63.9971 12.3114 3.6879
63.7252 14.3277 4.25875
71.941 15.7183 4.84987
58.0026 13.8162 4.23573
64.8481 14.6486 4.60051
67.5668 13.9472 4.24148
60.5056 13.9919 4.29244
64.3862 13.4785 4.26545
67.7564 15.3948 4.85852
59.244 13.2621 4.19514
62.3611 13.1628 4.15278
66.1303 15.4813 5.17428
63.8236 14.642 4.67491
71.0387 15.0687 4.79301
58.5466 15.3832 4.96171
60.9093 15.9708 5.35684
52.0276 12.9131 4.43685
60.73 13.8212 4.65057
62.7914 14.63 5.0843
54.9578 14.1299 4.8317
52.7822 13.974 4.7053
53.6992 12.5716 4.37577
58.1627 14.7366 5.137
51.2404 12.8366 4.59014
54.9002 13.4183 4.56131
58.135 14.4321 5.33493
68.7761 17.2782 6.18414
57.9884 15.195 5.3166
64.3888 16.9096 6.31025
57.8408 14.8368 5.33574
58.3835 14.6009 5.38042
58.6416 14.872 5.4687
54.1874 14.5499 5.79207
53.7596 15.5651 5.93356
51.2212 13.4856 5.18037
60.4875 17.589 6.66056
53.4028 14.8928 5.66505
60.0959 16.8952 6.38884
54.1949 15.0243 5.79626
56.7218 14.2539 5.63325
48.2345 14.1948 5.53733
45.093 13.4341 5.50981
50.1347 15.4353 6.33365
51.4528 15.9717 6.77607
53.2172 15.2226 5.863
60.554 15.6919 6.46882
58.2601 19.0388 7.5356
47.0226 14.2481 6.07072
49.1154 15.9136 6.60428
46.0659 14.8273 6.3312
50.8441 13.5703 5.64667
56.9364 16.4857 6.96939
51.5242 17.1756 7.45477
52.5713 16.4514 6.96293
50.9263 15.0714 6.81325
56.005 17.0186 7.17206
48.166 15.0131 6.86452
58.1277 17.2489 7.2252
45.043 13.9125 6.25103
53.3435 18.6937 8.11756
43.6165 13.9022 6.4779
55.8311 19.142 8.21662
49.5564 15.4472 7.01769
45.9785 17.3408 8.28561
47.6707 16.0509 7.4568
49.8091 15.8379 7.00586
42.9689 14.5941 6.80706
44.3928 14.0112 6.63602
46.2336 15.5712 7.36812
43.0159 14.9008 7.16326
45.6241 16.6666 7.744
43.0461 13.9943 6.62779
49.8841 18.0201 8.72227
41.1846 14.6385 6.88223
48.8242 18.4969 9.02637
44.1109 16.0295 7.996
41.3969 14.6823 7.48777
40.6671 15.0565 7.39547
40.4978 15.3866 7.9523
38.8795 13.591 6.71593
38.6293 13.7816 6.74409
40.8868 13.9528 7.07934
45.3041 14.9515 7.80116
54.958 20.6394 10.096
36.4789 13.4211 6.91001
45.216 19.0514 10.1874
43.2339 15.6412 8.11841
43.4791 17.2931 9.12073
34.6628 13.7916 7.31341
38.0938 16.0935 9.06384
43.8998 16.4053 8.13407
36.8817 14.115 8.02524
38.0235 14.8224 7.89148
33.7426 13.3534 7.08131
46.8446 17.5262 9.325
42.5192 16.7591 9.05459
33.8383 14.226 7.95982
34.0481 14.3278 8.20068
41.7799 14.975 8.30899
42.4972 15.1748 8.33648
37.6412 14.5081 8.55792
35.5694 16.1259 9.10139
34.5003 15.6595 9.24986
41.23 17.3776 9.69022
37.2087 14.8818 8.38241
34.9731 14.1273 8.19708
38.4164 15.3136 8.91986
34.613 15.1802 8.96706
34.4354 14.6231 8.79092
38.0723 16.2227 9.75879
33.7129 13.4064 8.31964
41.1033 15.4033 8.72536
32.8817 13.2736 8.12846
35.1489 15.4857 9.18268
31.1526 14.8313 8.83624
32.2989 13.8257 8.5183
36.6119 17.0009 10.5546
32.9021 14.9745 9.26626
42.5418 18.9702 11.5212
29.7335 12.6317 7.88478
38.5438 18.1604 11.4433
35.0959 15.8519 10.6725
34.6405 15.4734 9.6884
35.7798 15.2149 9.20293
31.7924 14.9602 9.61974
29.7316 13.7944 9.15734
31.5293 15.12 9.60208
32.4413 14.6163 9.41489
31.9646 13.05 8.06467
33.0543 14.7685 9.57764
30.4267 15.1204 10.1643
34.2584 14.2164 9.27024
33.0597 13.969 9.24191
31.4179 14.2222 9.59583
31.4053 14.9641 9.7437
26.764 13.3989 9.51822
32.3346 16.5872 11.3355
29.8035 13.3732 9.08014
30.2696 12.7055 8.70427
29.815 14.3382 9.67156
28.1807 13.359 9.70716
26.7911 13.5211 9.25867
28.0931 14.213 9.99011
33.3265 13.8992 9.26154
29.4892 14.8837 10.7131
29.4115 13.6736 9.46437
27.1648 14.113 9.98442
28.2955 13.8008 10.2715
29.3146 14.1932 10.0619
29.8847 15.9922 11.681
29.2691 14.0257 9.95092
22.9284 12.6353 9.77412
27.5173 14.2423 9.97991
26.0225 13.9966 10.4365
28.3732 13.3793 10.0689
31.2329 14.6536 10.6861
26.4938 13.6883 10.5325
24.1837 14.016 10.5017
25.2384 12.833 9.34633
28.447 14.5171 11.2539
28.1903 13.7722 10.3627
26.3606 14.6156 11.1737
24.1735 14.8025 11.2854
25.6004 13.0296 10.5889
30.4321 15.5952 11.4851
28.7096 15.6022 12.2483
26.0125 13.663 10.7145
25.8469 14.8569 11.4826
28.9608 16.8011 13.3631
28.4336 16.1064 12.4667
27.4977 16.1009 13.3823
28.3608 15.0649 11.8631
24.0224 13.5246 10.7685
24.757 13.7626 10.8
26.7652 16.1541 13.2548
26.4303 15.7026 12.9418
24.6322 14.9666 12.0463
23.261 13.2078 9.938
23.0302 14.6784 12.5994
21.0514 13.6016 11.6589
24.5548 13.5009 10.9427
22.7709 12.689 10.6657
23.7137 12.9891 10.8644
24.507 13.66 10.4274
24.1314 14.397 12.2172
22.5036 14.6648 12.534
24.1398 15.2222 14.1549
24.8754 15.3816 12.7671
23.7155 13.8338 11.7618
23.4703 14.5494 12.7409
22.1933 13.3245 11.083
23.0547 14.7552 13.1407
22.7933 13.3543 11.3486
23.5134 14.6644 12.7123
21.8476 12.8067 11.5565
23.2247 14.9877 12.4588
21.2064 15.2825 13.9562
20.1546 13.9191 12.3391
21.422 13.7822 12.1143
22.7488 13.2133 11.3643
18.9013 12.8862 11.9032
19.8088 12.6682 11.3861
21.6645 14.9242 13.2407
20.4157 13.683 12.3007
20.225 13.3184 11.9057
19.6299 13.5256 12.9353
25.1574 15.9155 14.6535
20.9852 15.3054 13.7022
20.5075 14.4493 13.6608
20.8114 13.3402 12.4688
23.8625 14.8549 14.2096
19.292 12.8331 12.5407
21.0584 14.046 13.0135
20.0651 13.3585 12.6892
21.9749 13.8961 13.0571
21.4932 13.1837 12.5759
20.4015 14.2199 13.8292
19.0848 13.458 12.8912
17.9925 11.6905 12.3181
21.1927 13.9217 13.0645
19.7783 13.4325 12.4672
19.076 12.76 12.8419
18.3301 14.2814 14.0381
19.1179 13.468 12.9407
19.1807 14.5619 14.683
21.3649 16.0407 15.7044
19.9796 12.7429 13.2393
20.5076 14.3713 14.314
19.2811 13.2038 12.9734
20.1647 15.8999 16.0984
19.4791 15.0881 14.9416
19.7003 12.608 12.9262
20.8546 14.4705 14.068
17.2848 13.0563 13.1123
17.935 14.3263 14.6455
17.8144 13.2713 14.3131
21.275 14.4271 14.5526
22.423 15.378 15.9908
18.3421 13.7233 13.8965
17.2472 13.599 14.6484
18.7696 15.4033 16.0435
17.6822 12.5601 13.3533
20.0735 13.3268 13.577
17.6869 12.9902 14.4407
17.9374 13.898 14.8872
17.4102 12.6511 12.8841
17.4909 13.1394 13.8336
20.1387 14.0985 14.9585
20.2848 13.6755 15.097
17.3527 13.6701 15.0441
16.7912 13.4735 15.0362
19.7074 13.7948 14.9184
18.1058 13.3156 14.0959
16.2425 12.5804 14.1116
15.8501 11.8704 13.2224
16.325 11.495 12.6777
16.6148 13.2001 14.8765
18.2799 13.6003 13.8342
16.5307 14.2935 16.3528
18.6901 13.5588 15.359
17.7415 14.6564 17.2661
16.6794 12.6177 15.0214
20.4674 16.3445 17.5776
18.7787 14.2187 15.7021
17.2605 12.0434 13.9974
17.4495 14.7968 17.2175
17.6249 15.0214 17.2002
16.6688 13.1676 15.8329
19.3763 15.3472 17.405
17.4272 13.8108 15.5329
19.0918 15.2467 17.6645
16.9566 13.0975 15.6563
17.2695 12.7118 14.6333
15.6118 13.9943 17.0954
17.5585 13.6588 16.1078
17.3724 12.8133 15.482
17.156 13.6968 15.7377
16.0207 13.7018 15.8478
14.5598 13.3111 16.7319
15.34 13.1598 15.5246
17.7559 14.1396 17.7168
18.8219 13.6235 15.4914
16.9457 14.0582 17.6964
17.278 15.1934 18.5104
13.6025 12.3948 15.278
16.0891 14.0533 16.5676
14.0581 11.9202 14.4968
16.4774 12.9128 15.4827
15.5758 14.3667 18.1068
13.8489 12.9729 16.503
15.6075 12.4983 15.2441
17.7302 13.0168 16.5226
16.0194 13.3576 17.0081
15.6616 12.5022 15.7774
15.1945 11.8735 14.3004
16.9223 14.4016 17.5258
14.2808 12.8227 17.2817
18.0463 15.234 19.0857
16.9378 13.6707 16.8785
17.4287 14.1613 18.0684
15.2305 11.9935 16.69
16.022 13.6183 17.4774
15.6926 13.4778 17.1711
15.4426 13.2136 16.9572
16.4112 13.8163 17.9235
13.2217 12.5121 16.4316
14.3277 11.827 15.3506
14.5776 11.7869 15.7407
17.3987 14.9897 19.4646
14.814 13.1317 17.4927
13.6228 12.9127 17.8966
14.6672 12.561 16.3232
16.061 13.8097 17.2961
13.7334 12.79 17.8288
14.7221 13.752 19.3425
14.6949 12.6414 16.7723
13.9475 12.7199 17.5969
14.4706 13.7171 17.8817
15.1443 15.3064 19.9458
16.1786 12.9935 17.8166
14.6335 12.214 17.9202
14.1747 13.525 17.507
13.8125 13.8809 19.2585
13.164 11.7417 17.0369
15.9637 13.2023 17.1255
12.8235 11.9527 16.4525
12.785 12.7524 19.0743
14.1589 12.9726 17.892
14.7488 11.8247 16.4745
13.3317 12.4146 17.1688
13.1435 11.919 17.3571
14.8775 13.3105 18.5102
13.5838 11.3435 16.6549
14.7179 15.0523 20.9118
14.069 12.2252 16.6114
13.0117 13.8761 20.0484
15.2031 11.9892 17.2259
12.7464 12.596 19.7395
13.7037 12.6492 17.5551
12.8592 12.283 18.9398
15.2011 13.0932 17.8909
14.2861 12.742 19.3462
13.7752 11.9484 17.0253
12.2721 11.8924 18.5034
12.8119 12.4563 17.4504
12.5557 12.7154 18.966
12.3103 11.6592 17.5243
12.7876 10.8695 17.626
16.3509 14.6545 19.5116
12.4256 12.6292 18.1801
11.6801 12.7979 20.4253
13.4238 14.4047 20.9703
14.1618 11.8255 16.992
14.4596 11.7444 18.6796
12.0148 12.6405 18.69
11.5083 12.7864 20.1308
13.0482 11.9591 18.3513
15.3681 13.7845 20.4902
13.2066 12.5888 18.8353
12.9702 12.4024 18.4752
12.7757 12.9185 20.6887
12.942 11.0443 16.7336
11.9394 12.528 19.5897
14.3891 13.2055 19.7771
13.9341 13.167 20.3636
12.898 12.9221 20.1552
11.7183 11.4295 18.164
11.85 11.5362 17.7353
14.4674 13.1931 19.7747
13.6519 11.5329 17.9352
10.3416 11.7664 19.5801
10.5612 10.979 18.1219
13.0345 11.6474 18.0129
13.0151 12.4958 19.3365
10.4043 11.115 18.2034
10.7124 11.1258 19.5666
13.4659 12.3418 19.4585
11.7631 11.6176 18.2518
10.6088 11.5457 19.2596
12.385 12.5831 20.2048
12.5452 11.5887 18.3289
11.5139 10.2599 16.766
11.2384 11.6848 18.7865
11.6019 12.6008 21.0726
11.7117 11.8827 18.2891
13.0324 11.6565 19.3764
12.184 11.5597 19.1391
11.2864 14.1455 23.291
11.2619 11.5673 19.936
12.5823 12.2432 19.9044
12.8679 14.046 22.893
12.1108 12.827 21.856
11.108 11.8224 20.3965
11.3667 12.73 21.6292
11.0813 10.9838 17.8818
10.2214 10.0087 17.4181
12.6112 11.5268 18.2993
11.9481 12.0978 21.1372
11.752 12.2505 20.2583
10.328 11.5979 19.5972
11.1309 11.5713 19.4913
11.8515 11.0863 20.2957
12.2686 12.8411 20.472
10.1173 11.5522 19.2274
10.453 11.445 19.9768
10.3423 11.347 21.1204
12.2152 12.4993 22.2835
11.1845 12.3244 21.4775
10.7019 10.4818 18.851
11.3589 11.9733 20.8801
10.153 11.4162 20.5667
10.9208 12.0149 20.493
12.1123 12.3588 21.1633
11.3024 12.5644 22.5051
11.7483 12.9243 22.5706
9.65289 10.7435 18.7087
9.46731 11.1988 19.5473
10.605 10.6879 18.461
10.3135 11.2218 22.6902
9.65797 10.1553 17.2995
10.7738 13.621 23.1558
10.4799 11.7032 22.3812
9.40411 10.0295 18.2348
10.6388 9.6965 17.3201
11.2091 12.8286 22.7182
10.64 11.9146 21.7782
9.4613 10.8375 19.9361
8.5046 11.2887 21.1191
9.62779 12.0782 23.7678
12.5434 12.0931 20.8745
11.2084 10.8224 19.7267
10.3793 12.1019 22.551
10.2709 11.3692 20.6859
10.222 11.6416 20.6938
10.9892 11.4252 21.4095
9.65437 12.3608 23.6985
9.91512 10.79 20.5717
9.55523 11.3706 21.1581
8.30484 10.0554 18.5628
8.80403 10.0618 16.9019
7.88577 10.2946 21.5352
9.90366 10.1487 19.2483
9.33476 10.4202 19.8295
9.43654 12.1231 21.9781
9.89713 12.4896 22.8806
9.72434 10.2779 19.3373
10.4951 11.0345 21.4359
8.94572 11.0356 21.3642
7.95285 10.7315 21.5099
10.5635 11.8536 21.6044
9.33195 11.2003 21.4262
9.6815 11.2999 22.5855
10.066 12.2576 23.2323
8.73517 10.8931 23.0971
9.61628 11.5805 21.3009
8.92073 11.1046 21.3783
9.08009 10.4789 20.9354
8.36912 11.4146 21.6391
9.97816 12.2406 22.8096
7.85565 11.1923 22.1795
8.46188 11.188 23.0142
8.99577 11.8753 21.6403
8.73021 10.0164 22.1502
10.0729 11.4348 21.8858
8.17534 11.517 23.5732
8.80494 11.0087 21.1134
9.11608 11.2287 23.3608
8.66163 9.75746 18.4021
8.48454 11.0744 21.4137
8.36656 11.6415 24.143
8.71244 11.3646 25.4178
8.80584 10.1914 18.6704
7.15963 9.99199 21.4314
9.06613 10.3573 19.901
8.4705 12.2233 26.7455
8.31584 11.0997 22.6262
8.57958 11.9986 22.9691
7.7613 10.8447 22.4831
9.25034 11.3115 22.8197
8.60683 10.4781 23.2901
8.81658 11.4669 23.611
7.98789 10.7198 22.4279
7.25563 10.8602 22.6896
8.56196 11.3089 23.9324
9.79148 12.2579 23.3335
9.05709 11.3873 23.2434
7.86599 10.56 22.3457
7.80628 11.2407 23.5405
8.12695 10.9583 23.5
8.96256 10.5025 20.8282
8.76376 12.3371 25.473
8.62218 10.3669 22.744
6.92451 10.3357 22.0385
7.35415 11.2648 24.1397
8.65838 11.1217 22.3412
7.66346 10.0884 21.7097
7.99868 10.1784 22.7099
7.72969 11.0411 21.8094
6.63671 9.56915 23.5316
7.41848 10.5564 21.9895
9.05223 11.2282 24.3127
9.05447 10.8831 20.9462
7.23127 10.4792 22.6231
7.97108 12.6299 24.9539
7.13989 9.9537 21.9441
8.24673 11.313 25.4254
8.50189 11.5311 24.8763
8.42126 11.1069 23.4861
7.13541 9.43547 21.3785
7.5353 10.3865 22.8125
6.66341 10.536 23.7762
8.51789 10.9494 22.4944
7.91481 9.88968 21.9164
6.90659 10.2462 23.338
7.41558 12.155 25.9017
7.34906 10.3403 23.916
7.88457 10.018 24.197
8.70192 10.0385 20.8222
6.50292 8.97413 20.2373
7.41642 11.2149 24.7392
7.19879 9.66777 21.0091
7.10267 10.2977 23.0725
7.62762 9.3565 20.217
7.26484 9.72819 22.5981
7.84859 12.0216 26.199
6.60779 8.94777 19.8825
6.28306 9.81501 23.2792
8.83322 11.5201 24.6616
7.57143 10.0875 23.7595
8.38674 11.2891 26.9333
7.00544 9.11084 19.1552
6.28787 10.65 24.4975
7.18538 10.7331 22.9724
6.93789 9.08975 22.6384
7.9193 9.77637 21.1105
6.44705 9.36047 20.9385
6.51931 9.52572 23.3617
7.53647 9.45022 20.766
7.0044 10.1334 23.06
7.4905 10.6329 23.2889
6.28867 8.49743 22.6143
7.22524 10.5912 24.0893
6.07606 11.4903 25.9359
7.45616 10.1328 24.5491
8.12157 10.5088 25.5936
7.98102 10.091 24.0065
7.28645 10.3001 23.3612
6.89432 11.4862 27.3978
7.59539 10.3587 24.3434
7.68584 9.24147 19.2952
6.92075 10.5626 23.9332
6.03039 8.91349 21.9541
6.72203 9.96025 23.8208
6.70423 9.58706 21.6058
6.87072 10.3789 26.6156
6.91272 9.15051 21.6421
6.85298 10.4573 23.9714
6.80991 9.7511 22.9181
6.60014 10.0157 25.0829
6.57296 9.13255 21.752
6.56121 10.0651 23.6116
7.77975 8.88783 20.6731
6.39266 9.43719 25.007
7.431 11.1789 24.3243
5.96213 8.95354 22.1617
6.35299 8.79571 22.4233
7.12232 10.2313 24.0261
6.34399 9.7295 23.9814
6.63952 10.5895 25.8381
6.13838 9.00135 22.6991
6.81267 9.97004 25.5696
7.4147 11.3951 29.1752
8.18944 10.7023 25.2289
7.76452 10.6173 25.7738
6.85455 9.5753 23.1953
5.80622 9.16114 22.8859
6.49335 10.5271 27.0105
