# pn-170911/RbIIR-46-RbIIF-1280-1959.psd
# Power spectrum* (dif=0,1,2) (really just |FT|^2)
# NOTE: only the first half! (symmetric)
# weeks: 1280-1959
# 2261 clock-days, 283 excluded
# PSD: 1441
1757.4 0.115566 0.0299461
71588.8 1.162 0.0573199
416452 8.82992 0.0557452
33738.5 1.08754 0.0579013
83144.3 6.10099 0.059391
11160.4 0.860136 0.0576979
10795.5 1.37046 0.0550894
5426.46 0.785018 0.0570452
4966.24 1.09941 0.058205
3058.87 0.712007 0.0571439
2580.88 0.853406 0.0577426
2030.89 0.757431 0.0563345
2050.4 0.92246 0.0603265
1572.74 0.775351 0.0585877
1325.71 0.888543 0.0596563
1261.79 0.874981 0.0586151
1029.38 0.907482 0.0574193
988.97 0.923899 0.0601516
959.98 0.995341 0.060473
832.813 0.95634 0.0565082
792.569 1.08367 0.0583359
727.088 1.09595 0.0591664
648.24 1.1097 0.0593801
647.712 1.17885 0.0607615
642.575 1.32207 0.0592054
574.741 1.33791 0.0595379
567.804 1.42083 0.0618993
560.775 1.52927 0.0629667
572.77 1.70445 0.0635842
531.33 1.71879 0.0654789
524.046 1.81925 0.0677376
530.489 1.96754 0.06505
534.4 2.16303 0.0693796
484.549 2.10446 0.0674718
477.341 2.27014 0.0700788
501.073 2.51389 0.0722527
495.188 2.64799 0.0736145
476.865 2.72873 0.0780978
495.373 2.96207 0.0801188
460.468 2.92368 0.0815768
482.23 3.20891 0.0850628
473.949 3.33882 0.0842347
472.573 3.50024 0.0883532
485.994 3.81753 0.0919584
474.539 3.89899 0.0932022
453.534 4.00813 0.0961511
452.341 4.03359 0.101051
465.823 4.50975 0.106558
472.157 4.75478 0.1087
462.905 4.87353 0.111158
449.498 4.86912 0.114195
476.071 5.37202 0.123062
470.386 5.58932 0.128774
483.418 5.89055 0.1316
454.426 5.87994 0.141822
458.099 6.04834 0.146111
452.338 6.20852 0.153471
460.776 6.71498 0.161511
446.264 6.74174 0.163602
420.581 6.55897 0.166924
439.108 6.9574 0.175466
430.645 7.18927 0.181986
422.051 7.24681 0.187959
430.892 7.60041 0.202399
401.469 7.34553 0.19879
428.637 8.15345 0.222699
422.843 8.1907 0.221938
426.791 8.52348 0.23244
421.653 8.77306 0.254662
397.152 8.60327 0.255134
397.099 8.66514 0.264103
373.148 8.62552 0.263841
415.612 9.6256 0.292386
380.59 9.3125 0.289954
395.449 9.73507 0.309706
390.426 9.89028 0.333664
373.882 9.82029 0.32393
384.445 10.3668 0.351545
365.682 10.1989 0.346917
363.377 10.4679 0.364067
363.849 10.581 0.371052
364.548 10.7941 0.388715
359.366 11.1364 0.40831
345.405 10.8359 0.402834
345.431 11.069 0.418699
332.025 10.9417 0.430435
332.133 11.1157 0.438121
338.83 11.5623 0.462788
335.457 11.7835 0.487445
323.3 11.7989 0.492553
320.714 11.8523 0.503179
327.465 12.5519 0.534354
310.984 11.9502 0.530575
310.276 12.2126 0.556093
307.368 12.3283 0.557583
298.264 12.247 0.573823
419.647 17.9536 0.817043
301.925 12.9256 0.614901
288.811 12.5563 0.615967
283.303 12.6007 0.630544
284.823 12.8888 0.663966
268.858 12.5518 0.658625
307.586 14.6199 0.77671
277.55 13.5389 0.736476
265.167 12.995 0.712761
263.552 13.1922 0.728008
255.526 13.2187 0.742524
261.91 13.7989 0.785375
261.108 13.9572 0.818084
251.532 13.7792 0.822502
247.386 13.6725 0.819654
235.78 13.42 0.834397
241.739 13.9795 0.85143
250.394 14.8602 0.942686
254.291 15.1388 0.97385
245.093 14.8035 0.957954
228.25 14.0526 0.933079
221.902 14.0053 0.959571
225.322 14.391 0.98942
220.593 14.3545 0.994753
234.895 15.5753 1.10517
215.213 14.2259 1.03365
216.895 14.6579 1.08407
219.219 15.3466 1.13174
221.118 15.4374 1.16191
218.724 15.5988 1.18957
214.356 15.675 1.22222
206.058 15.0837 1.19142
207.365 15.5795 1.24261
195.86 15.0498 1.22023
196.486 15.186 1.24828
202.482 16.2384 1.37345
211.635 16.6716 1.40434
194.72 15.7344 1.37009
193.068 15.9169 1.38568
191.103 16.0683 1.43411
182.712 15.3932 1.38126
183.857 15.6733 1.42482
190.177 16.4368 1.48486
176.294 15.7163 1.46243
178.007 16.1095 1.52681
177.407 16.2191 1.57534
173.335 15.8597 1.52855
182.79 17.1326 1.68871
179.52 17.3082 1.71187
172.521 16.2355 1.62023
163.191 16.0869 1.65026
172.786 16.9338 1.75036
166.032 16.8279 1.7707
169.798 17.3076 1.84406
164.316 17.1087 1.82352
159.89 16.7653 1.83908
158.524 16.7477 1.86991
158.471 17.1829 1.92784
154.196 16.7947 1.91494
159.576 17.5554 2.0368
155.962 17.4967 2.02745
154.086 17.5129 2.06853
151.294 17.1302 2.03496
142.09 16.3234 1.97691
149.205 17.2693 2.11029
151.07 18.1248 2.27228
142.039 16.9156 2.09935
144.524 17.4939 2.20204
147.825 18.3168 2.3489
147.554 18.2719 2.37233
142.155 17.8792 2.34341
150.016 19.143 2.52032
142.221 18.3866 2.4384
136.197 17.655 2.37595
136.564 18.1865 2.51175
132.622 17.7667 2.42898
137.887 18.7656 2.63522
128.202 17.5885 2.50892
132.325 18.3919 2.62801
134.041 18.8159 2.69687
123.072 17.6158 2.60086
124.283 17.7904 2.63943
125.266 18.1176 2.70932
124.961 18.4934 2.79721
127.818 18.7454 2.88605
121.041 18.2405 2.85703
124.217 18.8588 2.91758
122.519 18.8656 3.03144
119.739 18.3653 2.92373
116.976 18.5655 3.01863
118.493 18.7072 3.03022
110.863 17.7804 2.97563
122.429 19.7492 3.28694
118.112 19.313 3.22111
112.36 18.4424 3.15106
111.987 18.8118 3.28132
205.194 34.932 5.92714
111.014 18.668 3.25883
107.365 18.7212 3.35489
108.629 19.155 3.41837
111.344 19.4022 3.47971
105.559 18.8489 3.43681
106.213 19.1788 3.56523
106.14 18.9565 3.50409
103.507 18.8016 3.54177
103.684 19.1318 3.64286
105.659 19.5826 3.72343
98.7353 18.9878 3.71168
110.763 20.9928 4.07961
103.12 19.3376 3.79021
101.051 19.4994 3.89288
99.4975 19.3893 3.91063
100.821 19.7787 3.99048
97.9442 19.7929 4.07959
100.418 19.9916 4.08675
98.708 20.2226 4.22243
93.0874 19.287 4.0776
95.7102 19.4898 4.13996
92.0996 19.4065 4.15024
94.1652 20.3023 4.43635
97.7011 20.5797 4.40313
92.3722 19.8786 4.35819
90.5411 19.9129 4.47437
91.3882 20.2021 4.55754
92.1557 20.2068 4.54161
88.4501 19.4493 4.42053
93.2538 21.0599 4.83133
87.5313 19.7068 4.49199
88.3462 20.198 4.75699
88.4526 20.1934 4.77755
84.4042 19.683 4.67396
86.4865 20.3904 4.94249
90.5423 21.4307 5.19008
88.3755 20.8832 5.02443
81.2712 19.3388 4.75813
80.4006 19.5706 4.91125
83.2948 20.3616 5.12501
81.3782 19.9789 5.07802
84.8315 21.0485 5.34343
78.4249 20.0355 5.23346
83.6473 20.6897 5.27421
76.2591 19.2734 5.05442
75.7901 19.6128 5.23095
81.0773 20.9785 5.61177
83.7402 21.6933 5.71845
78.1251 20.7828 5.57923
79.5446 21.0279 5.73064
77.0488 20.9457 5.78999
78.1845 21.131 5.87803
78.6287 21.2388 5.87956
79.5196 21.6848 6.0802
76.1372 20.9898 5.93961
79.4795 22.253 6.3315
72.4478 20.4169 5.95674
74.1171 20.9478 6.02474
73.9151 21.2758 6.331
77.4651 22.303 6.52906
75.2461 21.6938 6.41334
70.0796 20.5045 6.09201
71.6846 21.2791 6.37574
70.9591 21.3044 6.42107
69.6655 20.8976 6.44513
73.5655 21.9091 6.73269
72.4426 22.0109 6.8769
69.3319 21.3048 6.69795
73.6473 22.5271 7.12525
70.813 21.7722 6.90118
70.3109 21.8973 6.99276
70.8175 22.4309 7.17749
67.3947 21.0782 6.81879
65.7528 21.356 7.01061
65.0281 21.1963 6.99928
66.4785 21.5294 7.19103
68.2113 22.4228 7.52199
71.3733 23.5525 7.89258
62.2959 20.5569 6.95379
62.001 21.0161 7.26404
63.5383 21.2888 7.38467
65.567 22.2736 7.7118
62.5791 21.309 7.53605
66.4795 22.884 8.03534
64.6422 22.2157 7.8875
63.2389 22.1303 7.83038
60.7036 21.233 7.6191
61.1006 21.5053 7.81775
62.2287 22.0214 8.04696
63.2701 22.554 8.28431
59.6291 21.4605 7.93251
62.383 22.6719 8.40681
60.639 21.9384 8.14758
56.7372 21.1139 8.13396
58.3921 21.8793 8.7682
123.494 45.5633 16.5235
58.7264 22.0922 8.58758
56.5048 21.63 8.49625
56.1149 21.3989 8.36792
56.1897 21.4377 8.45188
59.3858 23.0011 9.09525
56.6891 21.8171 8.67718
56.0345 21.8919 8.74126
55.0776 21.6782 8.78057
56.6674 22.4865 9.12301
55.8787 22.273 9.06011
56.3658 22.6166 9.41372
56.9483 22.8067 9.29428
54.9321 22.4348 9.40306
56.7621 23.3185 9.76802
53.3605 21.8944 9.22269
54.5962 22.4557 9.40823
54.6519 23.0135 9.86124
54.9697 22.8077 9.73012
53.2121 22.6601 9.71535
50.7183 21.6773 9.47173
53.9339 23.1179 10.1662
53.913 23.3076 10.288
50.4224 21.9357 9.79543
53.7272 23.3737 10.3773
51.4502 22.5078 10.0449
51.3776 22.5379 10.1817
49.9401 22.0401 10.0261
49.5005 22.0459 10.1017
50.4968 22.6265 10.2475
48.1591 21.9656 10.3037
51.3251 23.3054 10.8024
47.5174 21.9286 10.3315
50.2339 22.8495 10.686
48.4308 22.4666 10.6994
49.4574 23.1357 11.0378
48.3716 22.7117 10.8215
48.1141 22.4406 10.7572
46.719 22.2859 10.8739
47.2458 22.4739 11.0145
46.8918 22.3462 11.0346
48.029 23.097 11.2969
47.1575 22.8323 11.3655
47.2072 23.187 11.6551
45.7519 22.4012 11.2493
46.9883 23.2049 11.6749
46.631 22.9708 11.6645
45.756 22.696 11.506
47.4377 23.8079 12.1774
47.485 23.902 12.1794
44.5872 22.8223 11.9479
45.1311 22.9209 11.9082
45.0434 22.9759 12.1256
45.4923 23.3236 12.2681
44.179 23.2896 12.5531
45.113 23.2995 12.3897
43.4385 22.8774 12.2362
43.982 23.0951 12.4744
42.9955 22.7226 12.3395
44.4359 23.6003 12.8148
42.1757 22.3951 12.2358
43.1391 23.5973 13.0871
43.8417 23.657 13.1065
40.9648 22.2408 12.4275
42.1102 23.0735 12.984
41.1881 22.5617 12.7034
40.5292 22.672 12.9806
42.4106 23.8063 13.586
41.7294 23.3515 13.5102
41.8802 23.3099 13.3473
40.9112 23.0716 13.4372
40.469 23.2911 13.5966
40.912 23.4995 13.8289
39.2489 22.1319 12.9265
39.3868 22.7718 13.5817
39.0942 22.8416 13.7689
40.7149 23.3639 13.9185
40.6062 23.8208 14.367
39.876 23.1951 13.9858
39.0592 23.2463 14.1565
39.2873 23.055 14.0239
38.2913 22.9157 13.9562
37.7218 22.6183 13.8978
37.9946 22.9936 14.2642
38.6179 23.4644 14.5536
35.907 22.131 14.0243
37.7429 23.2945 14.6877
36.5725 22.5267 14.361
38.6778 23.942 15.1289
37.2157 22.9683 14.6196
36.8721 23.2078 14.9269
37.2614 23.396 15.1509
36.8648 23.5301 15.4217
36.3293 23.196 15.201
37.0354 23.7202 15.5337
35.3637 23.908 17.5389
77.2543 48.9187 29.2445
36.2579 23.815 16.233
35.5423 23.18 15.538
35.3171 23.2718 15.634
34.6533 23.0248 15.6584
34.2752 22.7556 15.5447
35.6623 23.8593 16.3088
34.5218 22.7592 15.4964
34.7498 23.1565 15.8905
35.271 23.9824 16.4965
34.2657 23.458 16.4225
34.6128 23.1788 16.0874
34.0046 23.527 16.5969
34.4033 23.4299 16.415
33.5915 23.441 16.7885
33.0819 22.7834 16.2024
33.5455 23.5912 16.9993
33.8204 23.4754 16.8558
32.4523 22.8497 16.5145
33.6369 23.5067 16.9317
32.9559 23.4441 17.03
33.2896 23.4971 17.0397
32.289 23.4299 17.3417
33.7651 24.4375 18.1005
32.4432 23.2912 17.0951
32.5426 23.7619 17.8397
32.5748 23.1052 16.8396
31.7277 23.7307 18.0821
31.4365 22.8367 17.2023
31.0959 23.0766 17.6225
31.1168 23.1171 17.6789
30.2146 22.232 16.8755
31.6478 23.7277 18.0712
31.2771 23.5402 18.1752
31.308 23.7832 18.6287
29.8602 22.69 17.8004
31.1249 23.469 18.1399
30.3609 23.3203 18.4834
29.2195 22.2311 17.6269
30.4568 23.1508 18.3602
29.7085 22.9567 18.0418
29.6403 23.3664 18.749
29.4343 23.0816 18.622
29.4052 23.2441 18.7171
30.5086 24.1278 19.5196
29.0212 23.2237 19.0241
29.457 23.4798 19.2147
28.459 22.7733 18.8249
29.3481 23.3531 18.9997
29.2118 23.6202 19.4744
30.3484 24.2869 19.997
28.3565 23.0507 19.3305
27.5902 22.4767 18.7638
28.7257 23.6185 19.8972
27.3339 22.5978 19.2406
27.1137 22.6942 19.3722
27.9651 22.9605 19.6679
27.462 23.0109 19.7064
27.1533 22.8485 19.8422
27.6177 23.1466 20.0148
27.5423 23.1142 20.2221
27.7302 23.0578 19.7883
27.8117 23.6162 20.5138
26.5251 22.5276 19.7673
27.2483 23.5632 20.6927
26.6966 23.2291 20.6381
26.5707 22.8006 20.2241
25.717 22.5174 20.4191
27.1496 23.4709 21.004
26.5877 23.0819 20.3978
24.867 22.0746 20.1024
26.4801 23.2009 21.0548
26.7268 23.5167 21.4621
26.8661 23.625 21.4271
25.977 23.1092 21.0513
24.9607 22.5938 20.8215
24.2371 22.2107 21.2856
26.3046 23.393 21.3849
24.1064 21.9435 20.7046
26.2262 23.6725 21.8477
26.163 24.1202 22.6504
25.3312 23.375 22.0158
24.2057 22.1705 21.3205
25.0756 23.0002 21.6124
24.1186 22.3577 21.2467
23.9277 22.5636 21.8562
23.9849 22.2557 21.3186
23.6225 22.4428 21.8583
23.6162 21.9626 21.3213
24.1909 22.8819 22.1122
23.4822 22.2135 21.7367
24.1682 23.1291 22.8007
23.6323 22.5128 22.32
24.0591 23.0135 22.8426
24.4157 23.8284 24.087
22.8134 23.1335 27.1374
52.5238 49.1828 42.3049
22.8224 22.9225 23.7751
22.9751 22.3979 22.6921
22.2549 22.0072 22.3253
21.2812 21.2975 21.8645
22.6137 22.4015 23.0902
22.6777 22.471 23.0498
22.3333 22.3209 23.1366
22.7237 22.3873 22.822
21.8672 21.5518 22.1775
22.6998 22.7641 23.5495
22.1446 22.771 23.9552
22.2815 22.4685 23.4401
22.4807 22.8662 23.8927
22.4086 22.4544 23.206
21.974 22.9897 24.5665
22.3668 22.9888 24.219
21.377 22.2713 24.0571
21.5505 22.3294 23.9026
21.324 22.0159 23.3645
21.4668 22.7205 24.6148
21.6618 22.2582 23.7014
20.5507 21.9782 24.034
20.8215 21.7352 23.5686
20.6324 21.7988 23.9839
20.3174 21.4133 23.4623
21.1211 22.8927 25.1603
21.1379 22.4734 24.6727
20.4219 22.1636 24.5112
19.84 21.6217 24.5875
20.8748 22.1664 24.3364
20.5277 22.3038 24.8959
19.7155 21.5824 24.0915
20.5016 22.2753 24.967
19.5883 21.5809 24.3766
19.6309 22.076 25.3286
20.6907 22.8658 26.0742
19.9695 21.8173 24.6766
19.4675 21.8683 25.1496
19.0686 21.2411 24.3854
19.5039 22.1576 25.7648
20.4896 22.9868 26.2611
19.1213 21.6487 25.1003
18.8682 21.427 25.2566
18.8346 21.6603 25.6864
19.7924 22.4944 26.3519
19.6078 22.2 26.1254
19.1769 22.1625 26.3166
18.993 22.1363 26.2048
19.0239 21.9762 26.333
18.7093 21.3373 25.2846
18.4386 21.4238 26.0033
18.2643 21.1722 25.4975
18.8188 21.9733 26.0735
18.3291 21.6118 26.6226
18.5198 21.1569 25.2473
18.7565 22.6409 27.5977
17.7079 20.8198 25.5033
18.4012 21.9449 26.8879
18.3257 21.8727 27.1285
17.7057 21.0716 26.0903
18.2348 21.8415 26.942
18.0304 21.7153 26.8307
18.2185 21.9493 27.0903
17.7196 21.3607 26.6733
17.3455 21.3162 26.7124
17.4228 21.3857 26.9994
17.9165 21.894 27.7085
18.1697 22.1874 27.9353
17.6686 21.4367 27.0983
17.1465 20.8554 26.2742
16.8761 21.7148 28.4014
16.8758 20.8372 26.9104
17.857 22.1777 28.1492
17.5718 21.9089 27.9313
16.3982 20.8535 27.5284
17.4657 22.0116 28.8124
17.183 21.4918 27.8497
17.6265 22.4222 29.2836
17.2107 22.0155 28.7527
17.5284 22.2885 29.0543
16.8256 21.6186 28.8389
17.0435 21.6844 28.5019
16.8687 21.8371 29.0037
16.538 21.2836 28.7534
17.3269 22.0715 28.9334
15.7908 20.5715 27.8938
16.8388 22.0198 29.5161
16.0382 20.8891 28.3548
16.0723 21.1479 28.6477
16.2998 21.445 29.141
16.1359 21.1731 29.0712
16.9591 21.9879 29.2109
15.963 21.9115 30.8654
16.2132 21.7639 31.1416
16.0911 23.5302 41.1963
37.5819 46.8516 52.2535
16.2801 22.2452 31.0916
15.7231 21.5476 30.3317
15.4522 21.3377 30.3613
16.2468 21.7246 30.1885
15.2878 21.1436 30.3113
15.5813 20.7511 29.2934
15.2217 20.5287 28.9026
15.3216 21.1785 30.1863
15.7777 21.4839 30.4543
15.6201 21.6368 30.6871
15.276 21.1576 30.3875
15.0315 21.0299 30.8009
15.8782 21.2898 29.5026
15.1873 21.3563 30.8461
14.7023 20.5455 29.969
15.0093 20.8052 29.8737
14.6992 20.9085 30.7778
14.7764 20.6168 30.4044
15.0534 21.1603 30.4374
14.7368 20.8974 30.7277
14.9891 21.4096 31.077
14.0139 19.8006 29.5146
14.6064 21.0334 31.2397
14.7215 21.4486 32.3221
14.9132 20.82 30.5668
14.3714 21.0122 31.6244
14.4746 20.5118 30.6184
14.4413 21.1235 31.6822
14.5537 21.1307 31.6984
14.5548 21.0862 31.3377
13.9791 20.6799 31.758
14.4285 20.3724 30.3774
13.6231 20.2419 31.0827
14.176 20.6434 31.0727
13.5805 20.3996 31.3923
14.2127 21.6789 33.6337
14.1452 20.605 31.2535
13.5974 20.1442 31.4135
14.0792 20.9897 32.3036
13.9041 20.8629 32.247
13.6131 20.6669 32.7841
14.5588 21.6702 33.639
13.6512 20.4584 32.5038
14.1405 21.0155 32.467
13.5376 20.5143 32.0053
13.2037 20.1199 31.8175
13.6226 20.5395 32.3424
13.5021 20.3877 31.8175
13.1252 20.1882 31.9196
13.4856 20.5021 32.3808
12.7599 19.7399 31.5716
13.1596 20.3491 32.4697
13.3181 20.7919 33.7308
13.022 19.9396 32.1622
13.0639 20.0597 32.2217
13.1499 20.6247 32.926
12.9212 20.3144 32.9189
13.153 20.8716 34.5276
13.4369 20.5885 32.9462
13.4087 21.5083 35.2998
12.9862 20.346 33.538
13.0067 20.8267 34.3406
13.2017 20.3872 32.4046
11.7593 19.3029 32.64
12.5957 19.8745 32.408
12.0598 19.7461 33.4153
12.7949 20.4181 33.9492
12.5497 20.2179 33.2649
12.5203 20.4028 34.325
12.3933 20.3191 34.5377
12.1529 19.6398 33.4943
12.6954 20.4085 33.7613
12.2163 20.0128 34.261
12.4523 20.0588 33.639
12.0111 19.5573 32.6903
11.5775 19.467 33.8162
12.3168 20.0165 33.912
12.0657 19.9599 34.0947
12.0344 19.7903 34.0254
11.7237 19.3606 33.4111
11.8172 19.5407 33.9017
12.2975 20.6994 34.9859
11.2693 18.9139 33.8523
12.1842 19.9096 34.1884
11.6377 19.6509 34.7758
11.9969 19.8867 34.2616
11.3101 19.2643 34.6493
12.1141 20.1692 34.7574
11.7815 19.9236 35.0476
11.4226 19.4529 34.5771
11.807 20.2966 36.5185
11.987 20.2721 35.6922
11.3163 19.5978 35.265
11.3886 19.9011 36.8417
11.4054 21.6081 52.3927
27.0048 43.0347 57.7118
11.3026 20.913 38.2912
11.1173 19.3469 35.2815
11.2262 20.0184 37.0904
11.5263 19.4828 34.5128
10.8918 19.309 35.033
10.5956 19.0094 35.5792
11.304 19.5712 35.6854
11.2709 19.6717 35.4402
10.7752 19.0551 35.3805
11.0792 19.2311 34.8915
11.1516 19.8895 35.8665
11.0635 19.5261 35.5141
10.2112 18.0561 33.4847
10.3564 18.5262 34.0447
10.1693 18.5482 35.4674
10.8286 19.0982 34.9873
10.6255 19.2275 35.9991
10.6826 19.247 36.1077
10.7577 19.2026 36.1596
10.8942 20.0581 37.4686
10.8217 19.4358 36.7175
10.7013 19.2205 36.0923
10.5539 19.2111 36.7012
10.7311 19.2572 36.1595
10.2401 18.8622 35.9752
10.4205 18.8217 35.2697
10.4284 20.2557 39.3669
10.8467 19.0891 34.9931
10.4075 24.0586 56.9539
15.5959 23.6519 38.1974
10.494 19.5451 37.0009
10.3932 19.114 37.037
10.2672 18.3121 34.992
10.2143 19.0649 36.4815
9.94821 18.8362 36.2253
9.7647 18.0766 35.369
9.8301 18.4669 36.179
9.75109 18.035 35.3636
10.0404 18.8962 36.6854
9.78541 18.2176 35.9885
9.85862 18.5406 36.7154
9.66923 17.6995 34.1259
9.48 18.331 36.5358
9.70644 18.2207 35.4273
9.20025 17.4448 35.135
9.45047 18.1887 35.6137
9.30231 18.4598 39.5727
11.2265 20.8808 39.5711
9.62841 18.0472 35.7518
9.26698 18.23 37.158
9.33672 17.6254 36.0028
9.34177 17.9084 36.5758
9.72634 18.083 35.597
9.2806 18.4134 37.1841
9.21597 17.5667 35.9626
9.37871 18.2723 36.9152
9.18371 17.6415 35.5172
9.17161 18.0835 36.6627
9.00249 17.517 35.8381
9.15184 17.9589 36.508
9.04282 18.047 37.3541
9.01767 17.7999 36.8475
9.17837 17.8845 37.0734
9.1001 17.7733 36.2707
8.8117 17.643 36.7656
8.9449 17.52 36.0181
8.68176 17.7349 37.5463
8.74947 17.05 35.2169
8.75536 17.8774 37.6393
8.71925 17.3319 35.5159
8.49717 17.1535 37.0832
8.98055 17.6825 36.7246
8.88923 18.0045 37.3803
8.65731 17.6173 37.442
8.88962 17.9941 37.5743
8.43368 17.5112 37.9351
8.76428 17.5833 37.0617
8.39319 16.7571 35.2315
8.05297 16.7199 36.9046
8.4652 17.1788 36.2239
8.53043 17.5048 36.7554
8.2858 17.3381 37.4736
8.19924 16.8064 36.6676
8.51687 17.3545 37.9124
8.71451 17.8393 37.6352
8.66078 18.1666 39.5411
8.55408 17.5915 37.6357
8.06405 16.6634 36.3103
8.28295 17.3652 37.4496
7.84005 16.1217 36.4319
8.28135 17.0021 36.4024
8.05974 17.2095 37.8994
7.96357 16.8407 37.7209
7.98187 17.4314 40.2446
8.17687 19.8009 64.0516
19.9735 37.7608 58.0807
7.86559 17.1415 37.8443
7.96811 17.0587 36.9579
7.72377 17.2772 38.6487
7.72691 17.2298 39.0328
8.19574 17.5093 39.2441
7.96965 16.9482 38.3681
7.75226 16.2686 36.3589
7.82519 16.7088 36.7989
7.30227 15.7504 36.3751
7.77957 16.9735 37.6442
7.6257 16.6172 37.591
7.55541 16.1831 36.9342
7.53943 15.9406 36.4206
7.49714 16.4647 38.2284
7.85664 16.9744 37.6674
7.72443 16.9482 38.4939
7.64072 16.7062 38.3066
7.84691 16.9894 37.5742
7.08457 15.622 36.169
7.40225 16.2918 37.7935
7.42772 16.192 37.2255
7.54678 16.7168 37.8729
7.33426 16.1426 37.1801
7.40024 16.4154 37.1879
7.31415 16.7154 39.4102
7.47432 16.435 38.0576
7.58871 16.9872 39.7554
7.66476 16.6336 37.6311
7.02366 15.8711 38.6142
7.43762 16.0655 36.6774
7.13634 16.3135 38.5625
7.31541 16.3116 38.4464
7.19107 16.0139 38.1078
7.31133 16.1887 37.9252
7.31236 16.4886 38.6993
7.15055 16.3854 38.6234
7.37396 16.6525 38.8342
7.07218 16.1434 38.2147
6.92888 15.6795 37.5221
7.18158 16.2808 38.608
7.15146 16.2338 39.0578
7.09768 15.7112 37.8021
6.94945 15.7908 38.1812
7.24371 16.2416 38.1864
7.1147 16.2067 37.8466
7.15314 16.6295 39.3686
6.7919 15.8178 38.4239
6.92079 15.9763 39.289
6.7289 15.4444 38.1494
6.77542 15.6927 38.0042
6.86872 15.7344 37.7853
6.798 15.9195 38.4797
6.73134 15.4661 37.5904
6.58153 15.2508 37.3584
6.58195 15.4154 38.3905
6.98375 15.9562 38.3243
6.61659 15.3251 38.388
6.94029 16.004 37.8464
6.40123 15.0773 37.5493
6.56305 15.2896 37.6494
