# pn-170911/RbIIR-48-AMC2-1280-1959.psd
# Power spectrum* (dif=0,1,2) (really just |FT|^2)
# NOTE: only the first half! (symmetric)
# weeks: 1280-1959
# 477 clock-days, 15 excluded
# PSD: 1441
836.33 0.0819962 0.0410111
27318.8 0.831851 0.0675858
117953 2.74229 0.0672162
15782.2 0.806593 0.0697203
43514.1 3.35384 0.0686047
7493.85 0.730876 0.0698127
6328.62 0.832476 0.0657987
4157.37 0.616158 0.0680067
3847.92 0.809705 0.0677281
2709.38 0.548382 0.0664211
2336.43 0.598227 0.0614651
1765.23 0.497746 0.0721493
1638.29 0.580801 0.0724701
1247.46 0.543783 0.0680633
1024.38 0.548957 0.0678309
846.684 0.536507 0.0673368
780.141 0.620174 0.0678649
662.354 0.603356 0.0674216
653.412 0.65834 0.0744453
555.908 0.685689 0.0668449
533.71 0.690459 0.0726597
517.884 0.725791 0.0717751
491.616 0.755011 0.0688404
496.566 0.802508 0.0711681
462.143 0.866353 0.0705752
418.728 0.828003 0.0702055
428.225 0.991496 0.0713366
384.759 0.962774 0.0658056
399.324 1.05522 0.0703591
356.612 1.00106 0.0688446
375.647 1.25284 0.0766901
340.958 1.24143 0.0706015
321.427 1.27147 0.0728291
303.728 1.28298 0.0816278
315.176 1.38586 0.0719631
325.799 1.5477 0.0816989
302.923 1.46607 0.0851255
309.334 1.55607 0.0721622
302.703 1.71179 0.0800575
321.468 1.86546 0.0867325
298.395 1.91966 0.0801654
297.585 2.02925 0.0812375
287.667 1.9637 0.0881113
260.141 1.92029 0.0839107
279.69 2.1165 0.0780059
281.756 2.28395 0.0948358
266.552 2.30168 0.0915302
257.887 2.39759 0.086354
284.515 2.87446 0.102771
250.693 2.41462 0.0948156
262.94 2.83128 0.104211
256.292 2.85369 0.105594
276.875 3.1933 0.108766
257.623 2.95288 0.114096
276.009 3.37195 0.119468
248.934 3.24764 0.111312
244.33 3.26475 0.117052
262.234 3.70059 0.127775
252.716 3.53518 0.138862
263.932 3.88957 0.130302
247.27 4.04405 0.12957
241.799 3.98408 0.132586
240.894 4.04697 0.155298
225.279 3.96521 0.157148
239.514 4.30856 0.154184
240.956 4.49563 0.15338
247.365 4.64647 0.166368
234.199 4.72701 0.173936
225.03 4.42961 0.167467
241.719 4.87813 0.180211
197.156 4.19092 0.162306
227.766 5.17726 0.177595
255.411 5.96175 0.217012
201.821 4.91306 0.193091
231.114 5.48905 0.217623
206.077 5.20634 0.204616
231.016 5.9459 0.227801
216.006 5.67697 0.225128
245.376 6.5644 0.25757
209.468 5.79607 0.236168
210.834 5.93819 0.252089
195.986 5.58342 0.246071
209.35 6.24979 0.27366
231.62 7.04336 0.288789
214.243 6.71598 0.29756
194.996 6.26972 0.271621
192.703 6.60718 0.29303
191.222 6.47055 0.297417
190.512 6.70053 0.31369
191.673 6.78921 0.32411
200.542 7.3481 0.338868
216.178 7.86695 0.366439
177.337 6.85856 0.33342
187.973 7.2814 0.357443
188.449 7.53311 0.364502
190.516 7.67088 0.378926
250.318 10.5885 0.521917
189.37 7.94633 0.40113
174.057 7.3776 0.416847
186.976 8.14422 0.427696
196.64 8.93409 0.505306
173.178 8.05426 0.440742
190.544 8.75112 0.496096
164.744 7.79741 0.432392
154.749 7.67416 0.449593
166.932 8.12658 0.480177
165.437 8.55149 0.535567
170.866 9.07341 0.549963
161.024 8.47963 0.526031
159.527 8.58922 0.562259
163.055 8.95336 0.590278
154.594 8.57587 0.579539
152.675 9.00397 0.589052
163.468 9.50602 0.628465
175.655 10.4947 0.700608
157.07 9.60201 0.662107
147.091 8.95358 0.609957
143.858 8.9956 0.646556
152.705 9.781 0.686875
142.543 9.19584 0.704284
163.186 10.6938 0.785264
146.15 9.65221 0.730212
130.982 8.80052 0.681254
146.583 10.2541 0.768792
153.443 10.9716 0.86018
140.868 10.3281 0.825841
165.881 12.1197 0.973774
149.148 10.6441 0.854401
128.445 9.46957 0.804576
143.732 10.7465 0.880232
125.704 9.53917 0.819506
153.237 12.1716 1.03864
138.068 10.997 0.958431
138.919 11.1172 0.957784
135.887 11.1489 0.985229
132.811 11.0294 1.0261
122.188 10.5214 0.981249
138.182 11.9607 1.11014
141.977 12.1413 1.15638
135.251 11.7694 1.12006
124.688 11.1971 1.11452
125.948 11.5866 1.15134
126.751 11.7852 1.18189
129.523 12.2325 1.23132
140.273 13.6112 1.38766
127.112 11.9242 1.1874
116.477 11.3205 1.19016
129.632 13.1256 1.37958
126.918 13.085 1.40908
114.915 11.4777 1.23497
129.297 13.5506 1.45981
119.427 12.3463 1.34646
125.819 13.3886 1.48916
111.299 11.8768 1.3473
119.598 13.0731 1.5005
123.301 13.1944 1.50189
130.621 14.8031 1.73916
122.726 13.7321 1.59198
106.409 11.9444 1.43534
109.978 12.7445 1.54711
110.227 12.8872 1.58888
123.196 14.6724 1.87161
112.566 13.3604 1.64883
113.497 13.6478 1.74503
113.077 13.6706 1.73499
108.971 13.7772 1.78742
115.083 14.4687 1.90335
112.047 14.3527 1.92687
110.757 14.4528 1.94494
111.555 14.1347 1.89869
113.425 14.9569 2.02328
113.868 14.9835 2.09464
111.373 15.3253 2.19652
100.643 13.7408 1.92324
111.907 15.4417 2.18919
100.546 14.2647 2.0531
96.8722 13.7062 2.04447
96.4749 13.6649 2.02457
96.6017 13.9866 2.13446
92.4607 13.7008 2.05994
109.283 16.2073 2.45306
96.6872 14.3509 2.16926
96.5588 14.7678 2.32433
92.9958 14.193 2.29583
96.2863 14.7097 2.34306
100.466 15.9784 2.65314
109.869 17.2492 2.76847
95.2679 15.1535 2.48774
98.7421 15.9981 2.69694
102.373 16.4715 2.70027
100.243 16.5721 2.77613
98.8176 16.8245 2.95675
133.036 22.3454 3.8326
95.1102 15.9244 2.78018
103.694 17.8338 3.13304
87.3125 15.2246 2.74407
89.8911 15.6458 2.81188
93.8837 16.6139 3.00215
105.102 18.9083 3.51852
92.9464 17.1161 3.19987
85.6121 15.6474 2.97079
89.8505 16.956 3.28417
93.0167 17.349 3.30769
89.341 17.0552 3.30826
102.269 19.1645 3.67524
82.2493 15.8451 3.10315
89.5051 17.2172 3.38968
83.4482 16.0164 3.15743
81.5952 15.5906 3.08471
89.3257 18.0675 3.72158
86.8034 17.3884 3.62188
78.2533 16.0554 3.36475
79.209 16.1653 3.41971
80.6595 16.9528 3.70757
83.2412 17.0747 3.67529
85.1044 18.2091 3.92973
83.8492 17.4382 3.81433
88.4806 19.1221 4.21384
85.635 18.5477 4.08901
81.5798 17.7162 4.00242
78.6193 17.6193 4.06011
79.1173 17.6155 3.98984
92.5305 21.5234 4.96313
82.9262 18.1975 4.07067
77.1629 17.8628 4.27419
79.7866 18.1352 4.20951
83.8953 19.5945 4.72264
79.8331 18.8617 4.58445
87.6841 20.6323 4.99156
80.0186 18.6989 4.50169
78.3867 19.0953 4.71889
77.1069 18.3936 4.59451
75.7341 18.4331 4.57194
81.9429 20.3504 5.21138
81.2127 19.8121 4.9624
75.8639 19.0755 4.94428
71.2799 18.448 4.80652
74.274 18.4657 4.76079
70.0382 18.141 4.90794
67.7382 17.7754 4.73994
75.9788 19.9975 5.41048
68.2139 17.7331 4.7764
74.3751 19.9107 5.48555
70.4141 19.3418 5.40641
73.9697 19.7643 5.36318
65.9679 17.8438 5.0728
72.3461 19.6829 5.55795
73.422 20.3587 5.87267
73.6898 20.0352 5.65104
67.8295 19.0637 5.47177
70.8722 20.2056 5.84432
70.2938 20.47 5.95782
70.0511 20.4098 5.99415
75.5855 21.9143 6.47909
69.3552 20.1247 5.98057
66.5705 19.9146 6.0343
64.7968 19.3055 5.90247
65.1963 19.8597 6.22166
67.8838 20.7505 6.40293
64.0829 18.8627 5.73303
64.0649 20.0699 6.2039
74.077 22.632 7.04788
60.5319 18.896 6.11496
68.1952 21.2196 6.70669
71.9758 23.1381 7.56825
69.7793 21.887 6.99639
63.9602 20.304 6.47667
63.2533 20.9002 6.93027
57.6021 18.514 6.12606
60.8216 19.7874 6.59411
61.9597 20.8705 7.18226
69.2487 22.7381 7.51531
60.1112 20.6191 7.22217
65.1348 21.6528 7.48814
61.9844 21.3189 7.51944
61.9439 21.4 7.54544
63.1039 21.5495 7.475
61.4563 21.2726 7.59103
62.325 21.6124 7.67992
60.591 20.9442 7.29688
58.0128 21.407 7.80853
60.542 21.6606 7.79928
59.8569 22.0433 8.16897
56.651 20.6651 7.75254
64.0219 22.7975 8.32575
61.8035 22.8661 8.4751
59.0532 22.0775 8.41263
59.1324 22.3455 8.71345
84.634 31.659 11.6667
61.6398 23.0642 8.88422
54.1853 20.4297 8.01694
57.2253 21.9411 8.6382
54.5484 20.5797 8.02014
57.2207 22.48 8.96289
63.6552 24.911 9.76017
57.5803 22.5525 8.98139
58.3999 23.019 9.28973
57.2254 22.4883 9.01892
58.4208 23.7218 9.66289
53.4679 21.7876 9.06978
58.0732 23.5556 9.77174
54.175 22.2559 9.19081
52.4115 21.4927 9.15895
55.8458 23.0492 9.65739
58.5469 24.1052 9.92396
52.8033 22.4896 9.82086
57.3678 24.0318 10.1581
54.4043 22.7229 9.74775
48.2074 20.5548 8.89242
51.9736 22.244 9.81023
54.3568 23.6875 10.4949
56.0919 24.7458 10.9845
54.9549 24.0433 10.6454
55.6886 24.2414 10.805
54.1747 23.7816 10.447
55.7943 25.2223 11.4464
51.7241 22.9274 10.3505
51.6789 23.1772 10.533
51.6946 24.1071 11.2479
50.7247 23.4473 10.8365
44.0113 20.8271 10.1289
49.4169 22.87 10.6167
49.384 23.2867 11.2863
51.084 23.4496 11.1121
55.2211 25.5589 11.8666
46.5014 22.2466 10.8898
49.7987 23.4947 11.362
50.6082 23.8228 11.3451
46.3905 22.7086 11.4016
47.5221 22.7185 11.1145
45.4777 22.8004 11.5289
49.3095 24.3724 12.155
49.6671 24.7188 12.5116
48.1555 24.1892 12.2027
46.256 22.7099 11.4663
49.027 24.8799 12.7007
44.2519 22.4946 11.813
47.3631 23.5737 12.106
45.3954 22.619 11.5463
44.6439 23.9479 12.8848
44.7012 22.3366 11.5529
43.5321 22.6039 11.9042
47.5963 24.6757 12.8883
46.0864 23.7933 12.6555
42.6776 22.6289 12.4224
45.9873 23.9439 12.7183
41.8108 22.2558 12.1701
42.1821 23.3166 12.9871
45.6158 24.7569 13.6052
44.5031 23.9471 13.1467
47.2949 25.1643 13.665
40.1592 22.2691 12.5742
43.0307 24.2699 13.8258
40.1734 21.7757 12.3708
40.8154 22.4347 12.6625
46.0879 25.9119 14.6669
43.769 24.7623 14.072
41.7775 24.0203 14.1595
42.6283 24.1987 14.2787
41.0142 23.4842 13.8956
42.5775 24.4232 14.159
42.2769 24.2763 14.0794
43.9299 26.0253 15.7174
44.3754 25.6168 15.0529
42.637 24.8229 14.9343
41.185 23.3078 13.538
36.8511 22.3264 13.9647
39.5587 22.6902 13.1958
40.1643 24.9064 15.551
40.2598 24.0102 14.7071
43.6162 26.7682 16.3315
39.1578 23.6159 14.6448
39.6892 24.6964 15.4955
41.7799 26.3739 16.6642
43.0347 27.1872 17.3105
41.2906 24.9651 15.584
41.3852 26.2874 16.9009
40.7564 25.5796 16.4938
39.3404 24.689 15.8838
39.4865 24.7312 15.9245
37.3909 23.8184 15.5485
39.9669 24.7814 15.644
37.363 24.3087 15.966
37.5302 24.7811 16.979
54.4543 35.0326 21.6263
36.7984 25.0574 17.1664
39.1544 26.0995 17.4972
37.5038 24.5382 16.574
37.105 24.3379 16.6313
38.4954 25.4409 17.1607
40.3285 27.0501 18.5517
36.7637 24.4349 16.7936
35.4601 23.6739 15.8126
37.5833 26.075 18.2833
35.1131 23.6617 16.4549
36.2833 25.0852 17.6576
34.6395 23.1269 15.9184
36.3301 25.8397 18.3104
35.1609 24.2044 17.0444
36.5089 25.4661 18.1207
36.7281 25.8673 18.5943
37.7298 25.7248 18.1302
33.9534 24.1747 17.5887
33.0223 23.1568 16.8499
33.1181 24.0107 17.6084
36.5844 27.4924 20.5703
37.7633 26.2599 19.2917
36.5071 26.0957 18.8305
30.7443 22.2637 16.6529
34.2731 25.473 19.3618
34.6306 25.0825 18.6818
36.1977 26.4566 19.5152
33.0404 25.0512 18.8886
32.2262 23.3636 17.471
32.8695 25.4621 19.6631
32.1164 24.4998 19.2174
32.5053 24.8502 19.4023
34.7779 25.7861 19.5386
31.7983 23.5887 17.8192
30.5275 23.7202 18.905
33.1121 24.9527 18.9715
30.9487 23.6981 18.4153
31.6409 24.8499 19.6931
31.8363 25.6374 20.9514
35.3597 27.8526 21.7635
29.7825 23.8928 19.8873
33.5259 25.5728 19.7192
32.1936 25.5298 20.5921
30.477 23.8562 19.2507
31.5738 25.3745 20.549
28.9376 23.9459 20.2892
29.9353 23.4833 19.0704
31.9203 26.2185 21.9836
31.9224 25.3179 20.7766
29.3684 23.0518 18.8705
30.0431 24.4349 20.1397
28.3818 24.1511 20.7902
30.1265 24.4292 20.6967
30.693 24.625 20.0926
27.9957 23.1638 19.4504
28.0158 23.385 19.7927
27.0482 23.3621 20.6717
29.0459 24.1302 20.5805
28.7604 24.044 20.5933
31.1053 26.6993 22.5496
27.8411 23.9859 21.1919
31.0196 26.9245 23.3782
30.951 26.7139 23.3838
25.9252 22.6554 20.2397
28.6366 25.4559 22.7945
27.9094 24.8361 22.2403
27.1185 23.6971 21.5487
31.15 27.819 25.0477
29.6412 26.0418 24.3586
31.2773 26.3006 22.9984
27.7459 25.1612 25.0672
54.8212 48.012 39.3843
30.0162 27.7148 26.0392
29.4366 26.7971 24.9168
28.7983 25.2685 23.016
28.7304 25.6703 23.3596
26.4701 24.4451 22.9427
28.3259 25.5183 23.8899
27.9073 25.8331 24.1601
27.4538 24.446 22.2465
25.0281 23.3705 22.6947
28.6363 27.1933 26.0168
29.5574 26.8221 24.855
27.4288 25.4601 24.4375
25.9227 24.201 23.1295
26.7461 25.8723 25.4035
27.2883 25.4668 24.4867
26.5877 23.8362 22.1554
27.0637 26.9404 26.5576
24.8539 23.9744 24.3178
25.7529 24.252 23.7256
26.9479 25.6391 25.6961
26.0109 24.4827 23.8938
27.6105 26.6597 26.7361
27.2654 25.7367 26.4366
35.5432 34.2711 31.4215
24.9756 24.9619 25.0504
24.0093 23.8959 24.4872
24.0082 24.0993 24.5547
24.0697 23.766 23.9392
24.8191 25.1034 25.9395
23.3771 23.0252 23.752
24.8261 24.5603 24.5785
24.7044 25.1273 26.0765
24.7561 25.079 26.0373
25.3808 25.9026 26.7695
23.5323 24.0802 24.9401
24.2305 24.9315 26.8159
23.9917 24.0856 25.4381
25.1548 25.6652 26.2181
22.0299 23.5573 26.1983
24.5414 25.0571 25.7328
21.4273 22.6569 24.8445
23.271 23.5824 24.4922
23.3577 25.6478 28.2438
26.0816 26.9437 28.4587
24.6438 25.8104 27.3512
23.4637 24.2369 25.6508
21.5318 23.3277 25.5084
22.8614 24.4409 26.8501
23.23 25.1093 27.5904
23.5637 25.9505 28.7001
22.3624 24.0437 26.6935
25.157 27.4554 30.0927
23.0687 25.2174 27.6438
22.2149 24.9325 28.4702
24.6046 26.9085 30.1188
20.9121 22.9448 27.168
23.5376 23.9446 25.4617
22.4157 25.5349 28.9599
21.7327 23.166 25.6251
22.1132 24.703 28.2509
21.5939 25.188 29.4254
23.4578 25.6371 29.1247
23.0709 26.0074 29.5907
21.8068 24.1419 27.4475
21.6971 24.8184 28.3484
20.6338 24.4716 29.79
23.0823 25.1869 28.0086
19.7449 23.4395 28.4727
21.7234 24.6806 28.8893
21.3987 24.6478 29.0845
21.8952 25.0306 29.9046
22.0404 25.5543 29.7801
21.9025 25.5836 30.1453
20.412 23.3772 27.9439
19.8426 23.7011 28.9812
20.5105 24.0839 29.2377
21.8476 24.9979 29.0228
20.0924 23.9759 29.479
22.3314 26.002 30.7549
20.1213 24.6473 30.2154
21.3139 24.6266 28.8191
19.381 24.845 31.6534
19.8952 23.6945 30.0984
21.2177 25.6666 31.5348
20.984 25.4076 31.2127
19.1191 22.9287 28.4864
19.8129 25.13 32.048
20.0354 23.8272 29.5595
20.6733 25.7237 31.261
18.2962 22.6757 29.2997
18.6826 22.8774 29.4388
20.0607 25.3429 32.14
18.939 22.6646 28.4276
18.0977 22.6722 28.9071
18.2597 22.1007 27.5622
17.9985 23.6726 30.8659
19.9219 25.7174 32.9616
17.7171 22.1795 28.8596
17.6327 22.3296 29.753
17.8549 22.5836 29.9688
18.5883 23.4036 30.7463
19.2511 24.6482 31.996
19.4229 25.5249 33.706
17.1517 21.9098 28.9984
18.8765 24.1189 32.3943
18.9212 24.4789 32.8109
19.4835 23.918 30.5092
18.046 24.4223 33.0169
18.4097 23.5107 31.6696
19.0164 24.6669 31.9587
17.5617 22.8788 30.7651
18.1021 22.246 29.1657
17.8959 24.2474 32.8604
17.4941 24.1925 33.8744
17.5143 23.0988 31.5531
18.4193 24.6702 33.6604
18.1001 23.8838 32.8593
17.6328 24.0427 34.2477
18.9682 25.7126 37.0259
25.1254 33.3918 42.0991
18.1805 24.6296 34.1542
17.0338 23.6128 33.3452
17.8698 24.7195 34.5083
17.7185 24.2011 34.1309
17.2888 22.8055 31.3677
16.8139 23.5772 34.0692
16.5374 22.4392 32.3635
19.1122 25.9662 35.5782
16.8717 23.4204 33.6168
17.1991 23.3899 32.8305
17.8378 24.6475 33.8024
17.4907 24.9312 34.7226
16.1715 23.2423 34.0476
15.3843 22.1576 32.7125
15.8971 22.2476 32.4735
16.1787 22.7622 34.1747
16.9154 23.3866 33.6774
17.2609 25.5161 37.9577
16.9844 23.7795 34.8052
16.5517 23.5254 34.151
16.833 24.8229 37.5276
16.6856 23.26 33.5782
15.5285 22.3793 33.6155
16.76 23.7333 35.2755
17.2964 25.1804 37.1153
17.0051 24.941 37.6846
16.9786 23.9262 35.2468
16.3972 23.2422 34.1565
15.0191 22.5072 34.1132
14.9375 21.468 31.8464
15.8598 23.9324 35.9972
15.1749 21.9324 32.8849
15.4567 22.8587 33.6803
13.9886 21.2372 34.2198
15.9499 23.642 36.3372
16.5259 24.6253 37.0372
14.5127 21.1496 32.7593
15.2004 22.8558 36.2022
15.9939 23.3501 34.2081
15.0252 22.962 35.8527
15.281 22.7975 35.8427
15.6135 23.3069 35.6551
14.8641 22.5022 35.4686
15.1675 23.0341 35.2313
14.0964 21.4453 33.7975
14.0154 22.1115 36.3785
14.7339 22.2091 34.5501
14.7795 22.5843 35.4065
14.0143 21.9766 35.1984
14.2727 22.359 36.4472
14.663 22.6176 35.8035
14.2871 23.1395 37.2011
14.1851 22.0305 35.2864
14.0466 21.7287 35.7551
14.3677 21.4573 33.4327
13.8844 22.7054 37.2466
13.726 21.51 34.257
13.6136 22.0122 36.2638
14.0484 22.5173 37.453
15.3456 23.4808 36.6365
12.9803 20.7158 33.8047
12.8677 20.6084 34.1464
13.9678 23.6361 38.0457
13.4733 22.2826 38.0096
13.7102 21.9854 36.8672
14.7003 23.77 37.4483
12.621 20.9653 35.5478
13.1014 21.4738 37.5749
13.5141 22.1957 37.6259
14.2949 23.9423 40.21
14.4719 23.5563 39.5024
13.8297 22.1156 37.1695
13.3628 22.051 37.0082
12.7101 20.9325 36.6061
13.6346 22.0495 38.446
13.8494 22.4901 37.1659
13.6493 22.5867 37.384
12.4704 20.8305 35.9883
13.1923 22.4606 38.1522
12.9761 21.6587 38.1678
12.871 20.3788 35.0819
13.5012 22.8104 38.4558
12.8137 21.8988 38.5306
13.7916 23.2382 40.1842
13.1059 20.9222 35.1897
12.6315 21.8796 37.2026
12.2995 21.7153 38.943
13.0929 22.509 40.3879
12.7351 20.6765 35.1425
12.3466 21.4548 37.1878
12.2104 21.0612 36.8059
12.1578 21.3643 38.5619
12.2509 21.9826 38.9
12.1836 21.1562 38.3081
11.0711 20.5842 43.5576
17.9626 29.6891 47.9629
12.5251 21.0716 36.7854
11.4546 20.1491 36.7731
12.4488 22.3434 40.5136
12.3475 20.9266 37.6283
11.9615 20.851 37.61
12.6326 23.5454 42.4096
11.817 21.2526 40.5104
12.9729 21.8482 38.5146
11.4673 20.0652 36.3034
11.1786 19.8241 37.53
11.936 20.781 37.5467
12.3038 22.2399 40.1972
11.2027 19.9311 38.0575
12.3586 21.7525 37.8621
10.8738 20.2805 39.8107
11.5228 20.0315 36.9058
11.9451 21.9895 41.6481
12.2476 21.3796 39.1664
11.6693 21.0102 39.2842
12.1738 21.9493 39.4039
10.9079 20.1864 38.097
11.4856 21.8948 41.7503
11.3254 20.851 39.2774
10.8654 19.6658 37.8215
11.141 20.2538 39.7461
11.6467 21.1244 39.4827
12.1891 22.925 42.0211
10.7524 20.5253 40.3883
11.5267 21.6904 42.3582
11.2846 20.3443 38.3724
10.0775 18.3388 36.6278
11.7885 22.1751 42.533
11.3224 20.7429 38.7245
10.1864 18.7155 36.2842
10.4776 19.7877 39.1606
11.4166 22.2131 43.718
11.609 21.2231 40.7257
11.2757 20.8082 38.6734
10.8558 22.0018 43.9595
10.6269 19.2769 37.3756
10.388 20.0808 38.6015
10.3564 20.5107 41.9616
10.3788 19.1822 39.1168
10.6857 20.5918 41.8837
11.3236 20.5942 38.2743
10.0536 19.8877 39.8939
9.43484 18.4469 39.151
10.8883 19.9763 37.6751
9.97079 19.3827 38.9228
10.4645 20.2095 39.9386
10.0969 20.28 42.4845
10.7175 19.3336 36.6674
10.0173 19.6639 37.314
9.86523 21.0468 43.3696
10.0677 19.561 40.8744
9.69663 18.6815 39.5583
10.4857 20.4099 39.9294
9.67194 19.35 40.7304
10.3644 20.1589 40.4273
10.4956 21.0071 42.1614
9.96426 20.5049 43.2658
9.50189 18.285 38.0278
9.55964 18.9739 39.607
9.57527 19.0122 39.264
9.6715 19.4471 39.4434
9.48849 18.8138 39.0095
9.65608 19.7364 38.8227
8.94185 18.7355 40.8392
9.37138 18.5492 39.9541
9.65184 19.6571 42.1411
10.0548 20.6135 41.9991
10.021 20.4598 43.1688
9.92422 20.0607 42.2104
10.1476 21.0949 43.1746
9.48166 18.8904 38.5919
9.27921 20.8938 45.6691
9.75274 19.6569 42.5771
9.78007 19.8788 41.5598
9.33093 19.4232 41.6698
9.30112 18.8602 39.6544
8.86823 18.5463 40.5345
9.21856 18.363 39.966
9.6615 19.7852 40.5756
9.33162 19.8979 42.863
9.30092 19.1085 40.5287
8.76328 18.9384 41.2905
9.01174 19.0719 41.3108
8.59705 18.5818 41.6442
8.54576 17.433 37.2723
9.09668 19.6693 42.1194
8.68216 19.6342 43.5557
8.55125 18.4896 42.0857
9.36464 19.6053 42.7993
9.06983 19.9854 45.1296
8.76447 19.241 49.7609
13.0005 26.1578 49.4259
9.18571 20.345 44.4067
8.75619 18.3256 39.6508
8.50498 18.3229 41.164
9.28614 20.5257 45.2598
9.27857 20.2411 42.98
8.14009 17.4055 39.0982
8.10612 18.8269 44.2419
9.30459 20.8181 47.101
8.84699 17.7572 41.5035
9.32715 20.1968 43.3844
8.47328 18.8921 42.6067
8.82156 19.296 43.2329
8.45543 18.1329 40.5757
8.32906 18.155 40.9919
7.97921 18.2826 43.246
9.00827 19.6007 43.4549
7.75932 17.5775 42.0886
8.54106 17.8057 39.0761
8.1732 18.5893 42.3734
8.25381 18.746 44.4027
8.47104 18.7879 44.1415
8.6234 18.4745 42.3411
8.58271 18.8437 41.4697
7.91938 18.0187 41.4884
7.7013 17.0928 40.1912
8.09173 18.1116 41.1209
7.51237 17.127 41.1387
8.0576 18.0023 40.9664
7.69077 16.7448 39.1259
7.76809 17.4196 40.0406
7.91112 18.4227 44.0056
8.25348 18.4595 41.7179
7.36206 17.0619 40.3899
7.45879 17.2017 41.1348
7.67222 16.6916 39.1962
7.68103 18.4064 44.2555
8.08835 18.8439 45.646
8.20426 18.4901 44.0558
7.8728 17.1786 40.3279
7.45112 17.4354 42.2334
7.92263 18.2085 42.905
8.28904 20.0083 48.201
8.01782 17.6446 42.4857
7.65792 17.4161 41.7834
7.43507 17.2181 41.7757
7.37635 16.8674 41.8671
7.78198 17.7848 41.5126
7.35244 17.561 43.2883
7.49282 17.0463 41.1458
7.28491 16.9934 41.0678
7.21089 16.8996 42.6321
7.62423 17.5246 42.0522
7.37598 17.225 41.7838
7.43716 17.5186 44.4821
8.07725 18.298 43.2806
7.31575 16.6919 40.1264
7.10686 16.9421 38.7855
6.63438 16.1404 40.8927
