# pn-170911/RbIIA-26-RbII-1280-1959.psd
# Power spectrum* (dif=0,1,2) (really just |FT|^2)
# NOTE: only the first half! (symmetric)
# weeks: 1280-1959
# 256 clock-days, 78 excluded
# PSD: 1441
56020.5 1.08534 0.0127675
1.73799e+06 49.7442 0.0199193
3.26074e+06 56.0851 0.023125
697429 14.2161 0.0167914
638609 21.8581 0.020775
330969 10.437 0.017434
249667 10.6255 0.0212356
175581 9.56156 0.0182928
135783 9.83428 0.0182729
119075 10.3761 0.0236414
78334 8.61135 0.0206883
80535 8.73183 0.0208061
52558 9.04384 0.0218367
53935.3 8.85416 0.0274941
42744.4 8.68022 0.0279617
42259.9 8.687 0.0254273
34073.2 8.60541 0.0289645
34335.7 8.49128 0.0340834
30468.7 8.41096 0.0351677
25218 7.22377 0.0282942
15412 8.25511 0.0380558
28148.6 7.91724 0.0350881
21243.4 7.4982 0.0358077
15521.2 7.79419 0.0371954
13560.5 7.75721 0.0393583
13508.6 7.59659 0.0406745
9831.43 7.35019 0.0424035
12612.5 7.14262 0.0448182
11794.5 8.36696 0.0541431
8928.68 8.12077 0.0543594
8965.42 8.11382 0.0547346
8003.74 7.09628 0.0520984
8608.57 8.77023 0.0649994
7341.49 8.26028 0.0628666
7802.69 8.02388 0.066331
7586.19 8.19055 0.0628931
6772.23 7.8612 0.0649339
6613.68 8.17451 0.0717872
5906.96 8.38832 0.0770474
6201.51 8.37527 0.0858079
4577.95 7.45066 0.0786148
4243.31 7.19047 0.075731
5323.64 9.09478 0.102246
4253.61 7.9164 0.0961862
3863.01 9.22291 0.0997032
3770.88 7.13201 0.0893423
4141.88 7.75948 0.0914345
4366.08 8.38952 0.108528
2899.57 7.542 0.105888
3339 7.72301 0.101951
3438.36 7.35566 0.115994
3395.15 7.46903 0.120671
2755.85 7.96536 0.1284
2912.39 7.97357 0.127258
2812.76 7.00186 0.120162
2947.41 6.42787 0.116561
2714.69 7.07981 0.132832
3132.67 7.66639 0.142588
2665.83 8.00835 0.152103
2764.16 7.83023 0.153674
2529.75 7.54459 0.149387
2562.35 7.21713 0.150431
2538.24 7.31958 0.150847
2714.95 7.34859 0.159483
2368.26 7.43752 0.171786
2365.45 7.6747 0.166117
2053.5 7.50372 0.180337
2575.13 8.43405 0.204552
2064.42 7.4675 0.192144
2110.88 8.2734 0.199362
1842.01 7.93376 0.199211
1927.71 7.95457 0.204566
1834.83 8.41644 0.221351
1492.19 7.65327 0.221707
1705.6 7.63725 0.221921
1756.61 8.10436 0.235095
1722.1 8.56049 0.253197
1667.08 7.92463 0.247104
1547.57 6.97301 0.22185
1494.5 7.55205 0.244408
1396.68 7.40792 0.248211
1385.26 7.63237 0.257557
1313.93 7.77489 0.275355
1174.48 7.57442 0.263226
1181.16 7.92378 0.266907
1294.93 7.47596 0.269239
957.725 7.73925 0.273118
1124.61 7.6632 0.284564
1104.33 7.47997 0.297628
912.597 6.8394 0.268601
873.71 7.72217 0.313047
1077.81 7.98729 0.329779
1046.55 8.22997 0.347689
893.114 6.00732 0.26809
1067.12 7.49604 0.340509
1083.27 8.63815 0.379837
779.394 7.53887 0.342228
1083.85 7.53999 0.341802
941.306 8.14264 0.403839
705.344 8.29134 0.416224
860.32 7.50737 0.372948
1122.7 7.92184 0.420156
920.336 7.33702 0.378571
988.175 8.51619 0.42577
870.362 8.7357 0.483965
959.416 8.07307 0.428032
654.544 7.12775 0.407283
907.943 7.90746 0.461192
725.253 8.05522 0.464328
747.336 7.6029 0.442336
659.001 7.87678 0.468647
843.245 7.50563 0.439537
774.82 6.89226 0.413859
588.782 8.01339 0.523076
711.789 8.33449 0.53017
778.099 7.36455 0.484973
485.057 7.94226 0.530788
483.92 8.64321 0.57703
631.876 7.97672 0.548963
647.038 7.50866 0.518291
664.821 6.90681 0.483407
514.559 7.60027 0.546799
580.532 8.41413 0.618988
776.21 8.11754 0.619
662.819 7.59559 0.563853
563.427 7.59359 0.579308
533.605 6.49306 0.49751
502.463 7.34536 0.584889
508.304 8.02482 0.630899
484.644 7.945 0.60768
521.366 6.68489 0.554906
536.885 7.96271 0.643514
490.615 7.3946 0.628924
474.399 6.13417 0.513099
466.161 7.64887 0.65723
525.158 9.03558 0.780996
515.032 7.70745 0.695894
426.26 8.10273 0.735213
401.389 7.62715 0.709832
479.987 6.94389 0.648844
487.568 7.71696 0.721375
476.501 7.26516 0.71468
362.352 7.91492 0.768187
463.24 6.90728 0.678332
415.47 7.74514 0.793571
444.611 7.28082 0.733931
350.856 9.3864 0.974765
402.704 6.44207 0.672469
407.152 7.18777 0.747
406.822 7.78421 0.832146
353.926 7.52152 0.805947
427.638 8.43857 0.924968
415.543 7.61424 0.844013
467.455 8.42147 0.96597
394.109 8.05746 0.950265
373.548 7.18798 0.832996
357.026 7.7063 0.873422
411.946 7.61292 0.884768
357.775 8.12436 0.972535
311.581 6.76565 0.80538
322.991 7.56711 0.920687
313.735 8.21521 1.014
344.345 7.95333 0.969106
310.07 7.80517 1.01611
449.528 8.30288 1.06156
388.232 7.03595 0.938641
310.487 8.68996 1.14756
290.921 7.21149 0.994213
405.22 7.3065 0.987985
326.193 7.31624 1.00171
319.761 7.71144 1.04382
219.895 7.42472 1.04475
234.64 8.4422 1.17039
353.557 7.96766 1.15489
296.819 7.84182 1.13242
229.225 7.93296 1.17423
294.891 8.00344 1.18519
312.698 7.17417 1.08513
247.444 8.59728 1.32169
282.299 7.54022 1.1403
296.979 8.28104 1.24936
329.111 8.17167 1.31975
223.162 7.33385 1.1429
301.085 7.699 1.21902
287.976 7.7127 1.23291
327.079 8.35651 1.38077
274.067 7.41684 1.23302
313.361 7.19919 1.2477
256.816 8.50662 1.42665
212.403 8.05028 1.38259
262.118 8.13357 1.38411
288.816 8.42544 1.4257
210.085 7.82624 1.37222
280.855 7.43559 1.34202
257.28 7.42291 1.33428
235.6 8.51961 1.51966
241.25 7.20391 1.32098
264.761 7.68351 1.44727
190.618 8.26843 1.5296
211.148 8.46225 1.58971
211.031 7.37886 1.37032
218.863 9.25249 1.76477
180.119 6.63456 1.32402
254.632 9.01748 1.79871
213.638 7.77796 1.55171
193.001 7.55894 1.48278
215.975 7.44036 1.51442
228.847 8.4289 1.70128
207.889 7.71377 1.65162
232.457 8.4771 1.73999
222.154 7.33962 1.50477
243.997 7.15802 1.48104
236.237 7.94406 1.69187
219.907 8.316 1.75028
215.816 8.10383 1.71619
202.136 8.41618 1.84156
223.532 7.28517 1.64417
209.199 7.68344 1.71521
177.098 7.4733 1.68269
202.931 7.74559 1.71525
188.344 6.98466 1.59241
229.043 7.60459 1.77261
184.862 7.50231 1.7211
218.39 7.87488 1.87626
218.618 7.8973 1.96766
205.56 8.03063 1.89096
202.796 7.355 1.74595
183.474 8.46019 2.02648
183.913 8.35005 2.00596
193.523 8.43407 2.03232
156.073 7.94963 1.95024
179.311 7.56344 1.89089
179.783 7.09593 1.8249
182.239 8.11674 2.06681
147.799 6.85292 1.78859
173.519 6.88956 1.83899
150.519 8.35044 2.13017
188.727 7.99108 2.16244
168.884 7.46439 1.94516
172.938 7.63083 2.06855
137.897 7.68627 2.06323
165.167 7.7978 2.1624
158.82 8.17878 2.20103
141.103 7.5408 2.05907
125.63 7.52408 2.08475
154.433 8.71175 2.45138
166.126 8.26106 2.41479
133.231 8.04712 2.18036
131.993 7.8408 2.32141
176.435 7.96771 2.30079
145.969 7.29625 2.1156
163.785 7.42412 2.20158
155.183 9.52865 2.77552
139.587 8.25366 2.45703
152.405 7.93555 2.37256
125.49 7.80994 2.39077
144.955 7.46883 2.27967
130.974 8.01751 2.58404
139.511 8.65117 2.59458
119.421 8.33468 2.53998
144.524 7.94676 2.46993
129.465 6.93374 2.16767
111.09 8.43488 2.66781
127.473 8.00236 2.62486
117.169 8.4479 2.73413
118.075 7.2376 2.3448
153.26 7.0029 2.3203
169.017 7.67193 2.53853
100.568 8.0493 2.64945
144.686 6.54462 2.15775
140.089 9.08351 3.08357
135.377 8.31683 2.92282
118.31 8.57421 2.88291
125.777 7.4578 2.70588
123.829 7.64191 2.67219
130.218 7.44224 2.60111
103.825 8.01795 2.78682
133.846 7.47017 2.66133
102.665 9.31694 3.34479
112.581 8.04517 2.90879
105.519 7.28193 2.6629
115.745 9.23698 3.43007
114.014 7.81072 2.90103
107.8 7.45501 2.80901
88.772 7.51372 2.83262
54.8572 7.54148 2.93737
72.3986 8.2197 3.035
122.212 7.67567 2.87982
77.8158 7.70849 3.07242
64.2458 8.19191 3.00481
82.4191 8.26015 3.27274
77.9914 7.36153 2.84305
100.34 8.69159 3.40763
95.6302 6.7668 2.69319
100.545 8.2847 3.20949
100.236 8.0429 3.25524
103.441 9.92406 4.22559
99.8894 7.98265 3.35706
90.1556 7.84856 3.15246
119.663 8.39833 3.29375
88.7181 8.38112 3.39898
108.068 7.78608 3.27318
93.9123 7.85125 3.36163
101.907 8.85789 3.67502
98.8812 9.05194 3.91343
106.479 7.87627 3.35095
87.928 7.45398 3.1575
94.7239 9.65654 4.19294
77.3641 7.65632 3.29299
126.536 7.38448 3.28798
109.245 7.49171 3.26706
88.0789 7.6399 3.54002
78.9417 7.1174 3.246
91.0332 7.44188 3.41269
69.8436 8.36702 3.62386
94.8893 7.57423 3.48862
86.4597 7.51589 3.43071
75.5441 7.81996 3.56218
71.8961 6.7159 3.27225
88.986 7.64172 3.50815
89.4986 8.57555 4.01845
78.3712 7.42239 3.52084
98.1201 7.57516 3.65305
94.6492 7.98587 3.85098
84.6326 7.0713 3.33337
88.9922 8.52879 4.22799
83.1567 7.06175 3.40936
86.2581 8.16127 4.00836
75.5326 8.38912 4.21262
75.1945 9.15329 4.34432
80.6743 8.20944 4.13109
71.8859 8.60592 4.27719
73.9857 8.68194 4.24352
74.5974 8.63733 4.45781
74.1847 8.83236 4.41263
86.2338 8.85951 4.62356
62.4149 7.77646 3.95683
70.042 7.67822 3.90091
74.7745 7.61801 4.03296
89.3132 8.33524 4.43435
61.6633 7.16528 3.84025
64.8497 7.5482 3.99188
72.4334 8.78974 4.71737
79.1156 9.07389 4.64674
79.7783 8.8131 4.77737
89.7142 7.11542 3.82634
84.5181 7.94302 4.33254
85.0482 9.25934 4.98046
78.5664 7.60283 4.28205
86.8503 7.02581 3.80971
83.8958 9.03027 5.02972
84.8471 7.44252 4.20296
77.3158 8.35656 4.61013
86.8319 7.20082 4.28223
77.6248 8.12397 4.70773
99.0561 9.06753 5.13338
78.4849 8.85256 5.21332
83.1009 8.14512 4.66189
80.1557 7.18289 4.1232
81.663 7.39498 4.38249
79.3739 8.10859 4.6291
63.9193 8.03458 4.71479
80.0377 8.18254 4.98527
84.036 8.62143 5.34536
77.4657 8.52513 5.02877
64.5001 8.05126 4.85323
72.299 7.32966 4.4537
76.3514 8.37183 5.05327
69.6772 8.10334 4.88959
66.0274 7.94756 4.92534
61.1534 7.60964 4.79066
65.8362 7.99542 5.07852
71.2524 8.15072 5.00731
72.4841 8.63293 5.32438
50.9306 8.4749 5.44818
71.3903 8.09472 5.01626
68.5912 9.13038 5.6996
68.4109 7.69226 5.14627
53.6258 8.04963 5.28269
69.5822 8.39778 5.33829
66.7709 8.77646 5.63882
56.7082 7.9074 5.33823
73.8348 8.68341 5.39498
63.6292 7.8238 5.18141
54.1669 6.9162 4.74326
77.1537 8.52862 5.65629
66.452 7.32527 4.75841
51.328 7.82431 5.55665
67.7659 8.09184 5.25358
80.9726 8.0111 5.30761
67.6926 7.27773 5.22957
69.5306 8.40877 5.67163
62.0573 7.2044 5.13766
70.7135 8.70765 5.81642
55.8925 10.213 6.95991
70.6112 8.67237 6.37937
59.6375 8.28947 5.84749
63.5336 9.09435 6.45631
59.4672 9.16991 6.3385
71.458 8.85014 6.26331
59.7613 7.18443 5.239
49.7321 7.83178 5.87571
59.9103 8.54385 6.04768
69.7411 9.97843 7.05492
50.7359 8.08297 6.0851
51.3421 7.83692 5.78987
62.0863 7.9597 5.81912
60.4712 6.91322 5.11169
57.0909 7.73825 5.75653
52.2358 7.78636 6.05209
57.7671 8.55146 6.3518
65.4443 7.25741 5.19798
59.4539 8.07028 6.02694
60.6301 8.03558 6.3116
57.566 7.10907 5.55492
53.3382 8.09674 6.24337
54.5385 7.27399 5.69971
59.5922 8.09746 6.24962
56.8034 8.4443 6.61395
51.4861 7.63294 5.81258
51.0947 7.55847 5.96108
49.3342 8.31096 6.25737
45.0513 8.15858 6.77276
54.1284 8.18688 6.39187
52.7373 7.35707 5.91081
46.5861 8.58849 6.77573
40.8746 7.43958 5.78619
53.3677 8.06546 6.52428
55.9144 7.21389 5.97677
54.4382 7.81689 6.3996
42.419 9.01359 7.55882
56.0758 7.53216 6.51783
51.962 8.81378 6.97826
56.8927 8.71814 7.06129
47.5562 7.94159 6.54687
49.5019 8.01158 7.14628
49.3211 7.26414 6.13823
49.0948 8.02797 6.80012
52.1233 7.9613 6.77414
58.7826 9.31497 8.20578
53.088 7.92882 6.24882
68.4852 9.10377 8.08266
52.8783 8.54084 7.58522
59.4773 9.34564 7.52408
48.6063 8.12232 7.22242
60.8717 9.14796 7.89733
47.5071 7.89379 7.03906
45.6416 8.13212 7.17277
45.0501 8.39625 7.01705
44.409 8.23783 7.63358
48.1804 8.71324 7.44496
44.63 8.0109 7.55643
65.9954 8.90974 7.91288
56.8372 8.07609 7.1985
37.9597 8.25922 7.25147
43.6271 8.10207 7.71437
69.1242 8.94209 8.04078
50.8321 9.12072 8.29566
47.923 8.64413 7.79015
38.7072 8.14292 7.36281
37.6903 9.21164 8.56385
52.5112 6.7092 6.37277
48.1201 8.55294 7.939
39.4549 7.58451 7.0661
43.3482 8.87813 8.28327
47.2138 7.92743 7.31681
45.878 8.05923 8.23246
43.9284 7.00128 6.53114
46.463 9.12038 7.98728
55.1677 8.60604 8.53585
39.5538 7.72378 7.68672
46.0411 9.1121 8.98351
45.147 8.24945 7.83324
55.1451 7.92547 7.61529
45.6181 7.88775 7.7493
49.4697 8.27272 8.34721
41.7101 8.7614 8.70248
38.3781 9.73856 9.58335
44.2913 8.27973 8.57152
48.4238 9.06518 8.80765
34.7858 8.42689 8.52385
48.4251 9.12118 9.07525
48.725 8.85329 9.16166
37.7736 7.72389 8.09225
42.9798 7.43986 7.54986
54.1012 8.83745 8.79298
42.0098 8.82458 8.64374
41.7164 8.4933 8.93552
42.4825 8.55628 8.82573
39.5712 7.94986 8.29387
37.9797 7.88426 8.0643
45.9508 8.18248 8.66984
44.8492 7.72865 8.30716
39.7889 7.05266 7.34321
45.5826 8.01651 8.53299
45.3476 7.594 7.62047
40.2417 7.37891 8.1184
47.2159 8.45908 8.86862
46.6826 7.96143 8.62434
49.0853 8.46701 9.30453
42.4002 8.70249 9.69205
42.3742 8.29035 8.76712
41.5105 8.58507 9.10116
37.1768 8.65897 9.2736
37.7352 7.65765 8.63187
39.6033 9.06848 9.54492
36.866 8.61985 9.7832
37.0594 7.73503 8.43444
37.1771 8.06959 9.39114
42.0965 9.21391 10.0429
37.2583 7.51046 8.6033
46.2371 9.18946 10.0436
41.3007 8.34516 9.47513
41.9011 9.98025 11.3869
45.3432 8.11532 9.2247
37.6748 8.56762 9.44932
36.5541 8.148 9.66262
41.9264 9.15821 10.2735
33.453 8.26666 9.13627
41.7064 9.30531 10.7597
38.9609 8.38559 9.89041
44.7556 7.74833 8.80632
33.0542 8.14801 9.49567
39.7364 8.46048 10.0762
35.2935 8.26335 9.56149
42.2617 7.9997 9.66105
34.6386 7.884 9.10697
44.9857 8.3076 10.2093
39.4069 7.91977 10.0803
46.0758 9.51922 10.6927
35.7012 8.26392 9.72199
36.0303 8.97614 10.8674
35.9503 8.89366 10.5338
34.8892 7.40564 9.02347
36.9412 7.17481 8.97248
35.0642 8.83378 10.3768
34.3139 8.39654 10.7285
44.988 7.76882 9.13296
36.3615 8.11528 9.93333
43.4325 7.87629 9.63332
36.365 8.9395 11.0452
33.9249 8.63499 11.0668
36.3974 8.77343 10.2757
31.4216 8.98566 11.6137
34.8634 8.01452 10.2423
35.772 7.40507 9.01496
41.0247 9.60437 12.0155
33.497 9.01623 11.089
43.677 9.79385 11.8997
34.3066 8.37408 11.0845
31.4505 8.51798 11.0698
36.1868 8.46457 10.5184
31.0654 7.8579 10.2771
29.5923 8.46137 11.807
40.2155 8.95483 10.5603
39.6042 8.35491 11.1677
30.3592 8.83973 11.59
40.0874 9.10517 11.9742
40.2156 10.2612 12.4105
31.7081 7.02785 10.2462
29.328 7.73901 10.058
30.6475 8.49217 11.2885
32.914 9.11326 11.5844
38.3193 9.2049 12.9658
32.7212 8.3906 11.2742
37.1407 10.267 13.4179
31.2888 8.47294 10.648
35.9176 8.67163 11.7506
31.0302 8.98895 11.8087
33.9904 9.18634 12.4972
33.4946 9.32938 13.2967
31.4631 8.55498 11.3209
32.1501 10.5924 14.4522
22.0043 9.05923 13.46
28.9853 8.92502 12.0027
47.5156 7.92362 10.6101
28.005 10.5831 15.3242
24.4665 9.7405 13.3894
33.7431 8.8569 12.3715
31.2334 9.07165 13.0499
34.235 9.44739 13.3215
32.007 9.22609 12.9243
37.6114 10.0249 13.3818
29.2485 8.90879 12.2173
33.8996 10.4855 15.6481
29.3344 9.31069 12.1176
29.2639 7.98403 11.196
28.622 8.32116 12.3573
23.593 7.74739 11.8034
28.8156 9.40867 13.4013
29.4446 9.25162 13.3159
27.8452 8.24788 11.8089
28.714 8.07845 12.4651
32.3921 9.10218 13.436
28.5511 8.83187 12.6382
25.0816 9.40731 13.342
24.3129 8.93253 12.556
35.8959 8.25888 12.5444
31.4924 8.68523 12.7794
26.6814 7.86132 12.7221
27.9161 8.54424 12.4098
31.1858 9.13776 12.6809
23.6375 8.56639 13.4785
31.4711 8.71623 12.6946
30.8009 10.737 15.9026
27.2872 8.6181 13.3321
21.1854 9.10346 13.1725
30.4506 9.52351 13.926
26.8454 8.78391 13.5742
29.726 8.80184 13.2344
29.2633 10.1489 15.2153
31.6133 8.62816 13.042
24.7068 7.4944 11.7557
29.2002 7.76906 11.7211
25.5692 8.60376 13.9603
23.7499 8.29499 12.1904
25.5962 9.08828 13.9706
25.8704 9.44811 14.9262
29.4255 7.91187 12.4926
23.6262 8.70627 13.873
26.0735 9.84075 15.0322
30.138 8.67951 13.8431
26.7004 8.62605 13.2766
26.4881 8.8892 14.19
21.4546 8.55353 13.2504
24.111 8.85161 14.4924
26.8736 8.71913 13.8161
32.495 8.81104 14.2849
23.0144 9.41713 14.2383
24.5084 9.01507 14.1742
27.1985 9.63336 15.8929
28.7537 9.96496 15.5068
23.3553 8.72045 15.27
29.6374 8.27496 14.4671
28.9538 9.97174 16.3273
28.3637 9.28064 14.9241
28.1422 9.02505 13.9466
32.1485 10.2147 16.2988
28.7124 9.20918 15.7041
28.0238 8.75857 14.6367
24.0603 7.68425 13.0517
27.7389 9.28443 14.9795
24.4523 8.85627 15.4401
30.4804 8.5577 13.9071
25.3793 8.66589 14.5697
30.9593 9.04609 14.6864
25.5404 9.21254 15.0024
28.9099 8.89888 14.8087
27.2656 8.54217 15.704
22.3615 8.54599 14.3431
27.8245 8.50327 13.9095
28.3852 8.01534 13.2767
25.4251 7.63846 13.3671
22.7569 8.87451 14.9608
25.9884 8.07577 14.6738
26.4545 9.24158 15.016
27.3183 8.24275 14.2706
22.9764 8.52694 15.2672
25.0063 8.63581 14.139
27.5376 9.52927 15.9921
26.2472 9.12091 16.4502
27.0762 9.07074 14.8453
21.0986 8.49844 15.8022
28.7219 9.90235 17.6266
25.8436 10.0106 16.7434
22.4434 8.55504 14.2501
23.4744 8.98185 16.5724
27.9704 8.15243 14.4644
23.2198 8.4985 15.9268
22.8876 9.17724 15.5329
28.0034 9.46819 18.0995
26.3963 9.59971 16.8649
22.0056 9.20139 16.946
23.8914 7.92631 13.6486
26.8728 9.86328 18.9357
22.0073 8.87817 15.6993
27.5989 9.76034 17.286
26.9153 8.6667 15.729
23.6854 9.14225 15.9638
24.7832 8.47536 15.2123
25.0011 9.16882 16.6273
23.6161 8.85251 17.5882
21.0855 8.44924 14.3089
23.9578 9.26434 17.1453
22.0586 10.0013 19.3104
24.6379 9.4865 16.5983
21.72 9.3997 17.0154
30.6606 9.30799 18.6966
28.737 9.60067 17.7472
24.9207 8.8639 17.1273
27.6874 10.2221 17.5902
23.4121 8.29681 16.4052
20.7894 8.58291 16.2625
24.6088 9.01888 16.6043
22.4543 9.75875 18.6578
24.6954 9.96823 17.8897
20.3204 8.50897 16.054
22.5315 8.52518 15.6989
23.233 9.64834 18.9133
28.1458 8.47785 15.9265
20.7025 8.90361 17.7005
25.9063 8.68272 16.9852
24.1302 10.4041 18.7545
25.3693 8.82354 17.9782
22.7814 9.53432 18.6346
26.089 9.26031 18.1967
25.0757 9.6107 18.5437
23.7407 9.19874 18.9309
23.2625 10.254 19.3843
23.4382 8.89095 16.8213
20.0787 8.03282 15.5449
21.3408 9.02175 18.0951
20.9655 9.00225 17.2973
16.6806 8.87202 17.9496
19.5983 10.0113 20.3633
22.6369 9.13466 18.0858
25.7307 8.19725 16.8376
22.3883 9.07697 17.0223
17.4292 9.56713 19.7648
25.8555 9.52644 18.1918
21.6024 8.79529 19.3049
24.9102 8.84809 17.1353
20.2484 9.26875 20.004
19.5887 10.6291 20.8569
21.4364 9.57602 18.2796
21.8414 9.67365 18.5184
22.101 9.24721 18.786
23.1247 8.9104 20.4629
23.2708 9.08711 16.1698
26.5666 9.15077 20.1016
23.1015 9.18955 17.9023
23.9414 9.49468 18.0485
20.2088 8.51621 19.7826
27.6778 10.1493 20.154
22.2842 10.0418 20.4449
21.594 10.1641 20.3646
20.7834 7.79131 16.8402
19.9926 8.82606 19.3351
22.3306 9.41805 19.6146
21.7911 11.3312 22.7085
29.0838 8.97529 19.7829
24.5731 10.9763 23.921
19.7362 9.71805 18.4909
22.5283 10.6668 20.9432
30.33 8.72914 19.7883
19.3716 8.28706 17.2661
21.8465 10.2397 20.8598
19.6999 10.0503 21.6578
18.8324 10.9358 23.3412
21.3039 9.68243 20.2275
21.6239 9.32772 19.3305
18.6733 10.0917 22.0786
18.7599 8.92441 19.1318
20.0587 9.02619 17.4117
22.6093 9.72517 20.9521
18.8384 9.03253 19.6738
21.7332 8.98498 19.2419
22.9093 9.98554 23.3704
17.9763 9.94374 20.1895
18.5419 8.39586 18.343
21.7254 10.328 23.2227
22.2978 9.38134 20.1144
18.4348 9.05465 20.0764
17.8024 8.9477 19.0059
20.3729 9.07265 19.799
19.3394 8.63347 19.9
20.0139 8.95243 19.3481
22.1236 9.68857 20.5528
18.2081 9.85885 22.2526
23.3003 9.2152 21.4296
22.9331 9.39096 19.5849
18.8888 9.68104 22.4337
21.1218 9.18926 21.0387
26.5998 9.33256 21.2684
21.9749 9.36401 19.7318
20.2983 8.68703 18.2971
18.6589 9.04042 22.4675
20.1106 10.4228 22.5066
20.275 8.99228 19.8844
22.3878 8.57014 20.867
20.0181 9.46689 18.8279
18.9199 9.19659 21.6989
23.4674 10.3209 22.5854
23.4818 9.14994 20.7086
20.6798 10.0411 21.6948
22.3123 9.49799 21.8075
21.9759 8.61301 20.5657
27.3327 9.16928 21.6731
19.6383 10.4276 24.4365
20.9385 8.74321 19.2758
18.9358 8.63378 21.6057
19.4776 10.4032 24.017
20.4917 9.45802 22.1316
20.0205 9.43675 20.7525
16.6228 8.94303 20.1305
19.8469 8.63861 20.372
17.283 8.70856 22.1789
19.9038 9.80694 21.7426
17.2567 8.81144 20.2799
19.3649 9.85672 23.0954
18.6239 10.3113 22.1531
19.4227 10.2981 26.8149
21.7797 8.5439 18.8589
15.2651 9.07122 22.4335
19.0543 11.1725 24.957
22.3964 10.868 22.7942
16.6431 10.636 26.1774
15.0319 8.59478 21.6368
19.1523 9.75965 24.8406
24.9344 10.3422 24.8686
18.1185 9.65901 22.5324
20.6219 9.34215 21.7538
19.2398 8.63165 22.7233
24.4353 10.3891 25.2384
19.105 10.7127 26.2115
22.2627 10.4709 23.2354
21.6021 10.0333 23.2134
20.183 9.29256 23.7134
17.3578 9.82938 23.683
20.7091 9.43656 23.5153
17.0128 9.74314 24.0347
19.3748 8.9118 21.5036
24.3768 10.4646 23.2896
20.03 9.34438 23.0003
17.644 8.39088 23.3394
21.9741 10.6607 25.8735
18.6755 9.78374 24.1051
24.4792 9.87729 25.8052
20.7687 9.78155 23.7175
