# pn-170911/RbIIR-57-AMC2-1280-1959.psd
# Power spectrum* (dif=0,1,2) (really just |FT|^2)
# NOTE: only the first half! (symmetric)
# weeks: 1280-1959
# 475 clock-days, 25 excluded
# PSD: 1441
803.535 0.0786272 0.0588227
25697.2 0.464038 0.102871
157054 3.36521 0.103594
15294.2 0.528558 0.0968856
55218.4 4.38417 0.113837
5090.13 0.458066 0.112207
5115.97 0.684282 0.102894
2750.75 0.481406 0.101466
3885.96 0.919551 0.0930281
1485.18 0.447752 0.0976633
1608.87 0.580725 0.100988
1210.03 0.537356 0.0990042
1148.32 0.613068 0.0927824
883.841 0.540302 0.103353
836.824 0.610506 0.0979064
687.027 0.559714 0.101682
732.505 0.751857 0.0951738
624.905 0.688203 0.0898651
550.238 0.711219 0.093724
507.025 0.749273 0.0906152
540.75 0.810572 0.0967518
453.362 0.798087 0.101187
478.05 0.938704 0.11068
402.193 0.876122 0.10208
417.988 0.98164 0.104708
382.562 0.982715 0.095076
377.38 1.01223 0.102255
353.124 1.03191 0.0995114
369.942 1.20175 0.10748
322.14 1.148 0.10286
340.452 1.28208 0.109839
325.104 1.28811 0.116197
309.205 1.29421 0.10966
301.116 1.4112 0.104412
315.068 1.5753 0.113893
315.09 1.70953 0.113601
300.318 1.72291 0.115735
291.745 1.70922 0.103698
302.218 1.8313 0.113447
267.358 1.75574 0.119332
263.16 1.90182 0.116688
270.868 1.96771 0.113085
271.344 2.08965 0.115757
276.768 2.10994 0.12193
261.099 2.17425 0.109525
243.711 2.1997 0.116917
246.373 2.23795 0.125654
253.485 2.39695 0.129817
291.731 2.89314 0.134716
243.172 2.60491 0.125246
235.089 2.64729 0.132656
252.705 2.91191 0.133778
225.249 2.72067 0.142583
216.748 2.70749 0.138265
245.298 3.23182 0.140661
224.364 3.14886 0.138063
230.947 3.15122 0.147988
226.813 3.32637 0.149709
245.855 3.73 0.160867
238.652 3.83147 0.154555
221.728 3.51365 0.160696
214.049 3.70233 0.170443
264.358 4.72109 0.18891
222.397 3.9566 0.17584
195.755 3.62368 0.169706
224.581 4.22111 0.176169
195.999 3.9847 0.183814
223.776 4.57522 0.207032
204.84 4.33731 0.193607
225.783 4.80565 0.210819
204.909 4.5878 0.208532
211.801 4.96555 0.212738
226.402 5.5245 0.239466
205.04 4.9896 0.227781
213.171 5.29163 0.23072
186.84 4.85306 0.229717
188.02 4.83654 0.233127
200.853 5.45128 0.253336
205.847 5.72534 0.269711
184.691 5.23451 0.265357
195.473 5.75114 0.277931
193.683 5.77518 0.274094
189.757 5.86747 0.299448
192.798 6.13892 0.301021
205.564 6.52438 0.312234
172.021 5.73083 0.296393
184.275 6.23416 0.331973
178.98 6.25672 0.316502
179.518 6.54055 0.34772
174.497 6.35728 0.356504
168.937 6.12653 0.325858
173.896 6.67755 0.344796
173.483 6.85109 0.37628
159.076 6.19562 0.36641
171.042 6.82636 0.383097
158.984 6.70786 0.368209
249.598 10.751 0.525956
155.833 6.75626 0.383222
165.712 7.209 0.417606
164.757 7.42427 0.458049
164.815 7.7635 0.454855
172.315 8.26081 0.492174
187.926 8.98895 0.572614
164.569 8.16162 0.497071
153.139 7.57413 0.493993
149.061 7.46441 0.477081
158.917 8.22904 0.52631
151.887 7.96602 0.534657
152.664 8.36273 0.537024
152.048 8.33679 0.564672
161.106 9.01935 0.591144
146.201 8.31779 0.57776
132.561 7.83461 0.534388
146.76 8.69063 0.622453
174.419 10.5092 0.753907
162.222 10.0246 0.726739
140.167 8.71015 0.6443
143.204 8.97132 0.667156
136.968 8.72003 0.66257
138.167 9.12505 0.6754
145.539 9.78423 0.769188
148.042 10.2039 0.773483
133.061 9.10387 0.730355
143.727 10.0896 0.78997
130.356 9.31017 0.765486
130.95 9.67881 0.805362
158.24 11.5638 0.925509
132.552 9.96215 0.834103
134.759 10.2551 0.874568
138.442 10.6153 0.903159
128.318 10.2848 0.939778
154.616 12.4129 1.0781
150.323 12.0979 1.05371
131.493 10.6183 0.963453
127.711 10.7773 0.997753
135.418 11.4805 1.11119
143.46 12.1963 1.17169
131.67 11.5714 1.09749
130.018 11.2016 1.07581
126.553 11.4699 1.13734
124.517 11.4459 1.15124
121.302 11.1371 1.11618
123.103 11.442 1.18079
126.784 12.1589 1.25812
136.159 13.2933 1.32111
139.469 13.4238 1.37486
114.513 11.4267 1.23026
124.069 12.3506 1.34055
114.741 11.8452 1.31249
114.4 11.7538 1.31011
124.989 13.1509 1.49795
122.384 12.5993 1.43932
127.158 13.5444 1.5556
113.022 12.2496 1.38883
120.033 13.1707 1.59963
120.475 13.6416 1.61918
136.096 15.3688 1.81888
120.369 13.8102 1.61828
118.18 13.6484 1.67017
108.792 12.7492 1.62569
115.465 13.7714 1.68778
127.657 15.3435 1.96038
109.738 13.1456 1.67139
110.919 13.7259 1.73465
110.149 13.9057 1.85805
109.064 13.6206 1.8192
115.058 14.5935 1.93383
106.022 13.9148 1.94356
121.183 15.9172 2.1641
115.032 15.0629 2.0578
110.186 14.8177 2.04847
111.456 15.436 2.16447
102.96 14.2123 2.03596
111.004 15.4614 2.26896
128.586 18.1769 2.6027
116.643 16.7722 2.4157
105.219 15.176 2.25264
104.263 15.006 2.27982
99.5909 14.6795 2.28754
105.881 15.6596 2.37879
108.534 16.3598 2.51872
113.531 17.3532 2.708
109.658 16.5328 2.5982
99.5626 15.3385 2.44901
103.7 16.5541 2.68139
114.226 17.9769 2.92672
110.767 17.577 2.82056
106.853 16.9021 2.76392
98.5808 16.6318 2.86743
100.061 16.5787 2.86012
95.8552 16.0752 2.70952
108.146 18.3821 3.09818
113.417 19.6575 3.39948
91.2786 15.3168 2.64581
89.9235 15.8793 2.91743
101.572 17.8628 3.16666
93.3744 16.3803 3.00423
94.1749 16.5462 3.03742
102.811 18.4509 3.46283
86.8103 16.2167 3.09866
94.8787 17.4705 3.31229
97.1598 18.1251 3.48436
102.025 19.2015 3.67452
90.4013 17.5976 3.52435
114.822 22.2298 4.3169
97.8768 18.872 3.71913
92.2581 18.1786 3.67351
88.46 17.0915 3.42213
89.5702 17.6743 3.59041
91.7062 18.5343 3.91999
96.6349 19.7146 4.09969
89.4404 18.279 3.85206
87.4449 18.1727 3.89909
86.7526 18.1334 3.84741
84.7443 17.8322 3.93837
85.7001 18.9139 4.10136
88.8189 19.5729 4.36368
103.242 21.6469 4.59337
82.5798 18.1987 4.13175
85.2539 18.6657 4.1255
87.9689 19.3895 4.3885
84.9544 19.2065 4.37228
92.2494 21.1595 4.93916
92.5708 20.7741 4.80671
74.429 17.1407 4.08816
86.5964 20.0258 4.61459
82.6736 19.2854 4.58568
80.431 19.4559 4.78978
97.1497 23.0054 5.46091
80.5959 18.9894 4.60023
86.4278 20.976 5.14823
80.1464 19.9926 4.94563
78.2036 19.3475 4.82552
92.3926 23.5162 6.08279
91.3159 22.9265 5.89086
75.864 19.3403 5.07962
85.4832 21.8032 5.62437
81.63 21.1251 5.47933
81.8227 21.0929 5.59593
76.149 20.2369 5.6186
80.8037 21.0279 5.59326
85.5902 22.4873 6.04248
85.0943 22.979 6.21079
78.0576 21.2964 5.89922
80.9099 22.0711 6.14886
80.1061 21.2967 5.78178
84.9224 23.4177 6.57475
72.1009 20.5253 6.02203
85.9493 24.038 6.83172
76.2776 21.1746 6.04931
72.6766 21.0966 6.02554
76.3582 22.7066 6.85359
77.0812 22.3561 6.64966
68.3506 20.2257 6.21993
78.9066 22.6302 6.52357
66.1837 20.2806 6.23134
74.1852 21.9601 6.56651
86.3599 26.9537 8.40415
75.2879 22.4515 6.72878
71.1458 22.2221 6.9079
68.3663 21.9549 6.94974
72.891 22.1067 6.86785
71.7475 22.4441 7.09602
73.2375 23.7764 7.72244
76.6464 24.5111 7.95067
74.0984 23.2172 7.33506
68.384 22.434 7.36577
66.4758 21.9199 7.33095
68.3265 22.3357 7.53043
71.3472 23.8683 7.96298
69.598 23.4404 8.05981
64.8077 21.3338 7.11823
69.1175 22.8936 7.72994
71.927 24.8011 8.47141
65.0835 22.5162 7.85642
66.8615 22.5242 7.86465
71.5549 25.7272 9.18939
65.9496 22.3812 7.79719
66.0586 23.0819 8.29238
65.298 22.594 7.89508
69.1975 25.13 9.17316
67.206 23.9323 8.94516
71.3928 25.4939 9.25151
68.3541 24.786 9.12975
64.5166 23.9219 8.8982
59.3823 21.7816 8.13833
65.2868 24.2893 9.31599
65.6985 24.9177 9.59102
79.7014 29.8766 10.9539
63.1984 23.7693 9.04972
60.2342 23.1548 9.01837
59.1068 23.0883 9.01174
61.4584 23.7704 9.39527
62.9814 24.9287 9.82571
60.6257 23.8977 9.36505
60.5851 23.9444 9.46656
59.6292 23.9338 9.69002
60.3037 24.9448 10.4454
68.0153 26.8661 10.7109
61.2604 25.4009 10.6383
66.3125 26.6646 10.803
54.8451 22.4961 9.49971
59.1068 24.6393 10.3893
58.5747 24.1545 10.1093
58.2347 24.5879 10.352
57.9791 24.6612 10.9164
59.8169 25.2513 10.8239
56.6372 23.6866 10.3246
61.8213 26.3068 11.2359
60.8714 26.2199 11.5285
55.7529 24.1095 10.8356
57.129 24.5976 10.7431
61.5893 27.4371 12.3091
56.8063 25.0906 11.2978
56.8954 25.2909 11.1882
53.585 24.2923 11.2641
55.1662 24.8596 11.2865
56.378 26.2022 12.0876
59.3575 27.4127 12.737
60.4128 27.8516 12.8274
54.3695 24.9493 11.873
52.9916 24.6314 11.6429
59.0252 27.2367 12.8163
57.025 26.1304 12.5043
55.0296 26.7043 12.9433
50.8266 23.9525 11.3254
55.7541 27.1012 13.1875
53.3706 25.68 12.7034
57.8506 27.9239 13.8738
57.3119 28.1087 13.9711
50.7068 24.6937 12.332
51.3647 25.564 12.9661
55.9668 27.3682 13.5107
55.9948 27.8652 13.8523
51.4753 25.6951 13.1493
54.1726 26.9197 13.7083
57.6392 28.2852 13.961
45.655 24.3184 13.1037
52.5371 26.8542 13.993
51.6864 26.2532 13.5618
47.107 24.6251 13.139
55.073 28.4795 14.6147
49.1684 25.4909 13.3006
51.416 27.5466 14.6137
53.6012 28.4194 15.1956
49.8879 26.7479 14.5848
43.9905 24.0042 13.3681
49.5482 26.2765 14.2664
50.7168 26.7426 14.3256
48.4863 26.4599 14.2723
48.0072 26.7008 15.0051
48.1973 27.1363 15.3882
50.4347 28.1419 15.8201
51.1016 28.4747 15.8778
47.7752 26.2563 14.6775
42.285 23.8579 13.6833
48.7869 27.7534 15.8862
46.1856 26.6902 15.4751
48.8841 28.1434 16.2766
46.7847 26.7386 15.5294
43.7895 26.0186 15.1857
43.1184 25.7162 15.5088
44.8909 26.14 15.386
46.1137 27.0094 15.817
46.1649 27.812 16.8963
49.7812 29.3811 17.8281
46.7641 27.1743 16.2783
43.3634 26.5315 16.3961
44.0397 26.0202 15.6123
44.287 26.8695 16.4427
46.2416 28.9315 18.324
44.7656 27.8788 17.5939
47.6501 28.7965 17.7561
46.0672 28.1003 17.7993
44.6338 27.2163 16.7048
43.9114 27.3892 17.2652
43.8307 27.8193 17.7633
45.4563 28.3566 18.0974
44.1148 27.9104 17.6598
41.7418 26.9382 17.4393
40.0463 26.1016 17.2828
44.4021 28.3496 18.159
43.2334 28.309 18.7898
42.683 28.3625 19.2722
49.8112 31.7449 20.5538
47.0739 31.1624 20.7442
44.611 28.3489 18.5272
43.5847 28.6245 18.9364
40.626 26.6155 17.6479
41.395 27.5495 18.3752
41.1506 28.3772 19.5871
39.2522 26.0495 17.6289
39.4261 27.5896 19.134
38.0715 25.7058 17.8579
39.8593 27.4907 18.9532
41.2781 29.2255 20.907
41.8262 29.0408 20.2089
39.4975 28.0482 20.0956
39.4195 27.2293 19.0489
36.636 25.6753 18.6508
40.9913 29.5203 21.1723
39.5438 27.8086 19.9719
37.2765 26.9575 19.8086
39.6835 27.7383 19.3592
38.5999 27.7827 20.2181
36.111 26.7915 20.1593
38.7565 27.6363 20.226
38.9958 28.3349 20.811
38.1176 27.7334 21.1061
40.2147 29.3195 21.4935
38.3135 29.4668 22.8366
41.1672 29.3839 21.2653
38.1789 28.8655 21.918
38.6287 28.4343 21.2439
36.3143 27.1736 21.0935
39.2789 30.0579 22.931
35.5991 27.029 21.1889
39.6164 29.761 22.3901
37.1472 29.4776 23.4417
37.0904 28.5021 22.7867
37.2052 28.3105 22.2958
38.8629 29.6781 22.7962
39.4949 30.9099 23.9466
36.5234 28.4226 22.6007
37.3656 29.0334 22.9704
35.9423 29.1642 23.9122
38.7877 29.4757 22.3203
35.0522 29.5807 24.7033
34.9203 27.6909 22.7683
36.6273 29.5576 24.069
36.0295 28.2632 23.1113
37.523 29.9202 24.1193
39.9445 33.4565 27.745
34.6606 27.6379 23.0907
36.5442 29.3177 24.2914
36.1295 29.5779 24.5956
37.1954 30.3684 25.0767
34.5441 28.373 23.4197
35.5836 30.3089 25.7243
33.2284 27.8797 23.9618
29.7319 24.1231 20.3429
29.4367 25.8625 23.0348
33.5244 27.8898 23.3752
32.3793 27.1268 23.011
31.4774 26.8842 23.1302
32.6205 28.9809 26.0111
32.9177 27.7186 23.8607
34.639 30.019 25.6474
32.0229 27.7985 24.6185
31.6438 28.1299 24.7162
32.4542 28.8106 25.2842
28.7762 26.0768 23.6501
29.39 25.9794 23.5794
31.2329 27.4486 24.7142
30.8789 27.8213 25.5526
30.3867 26.9743 24.7996
33.0554 29.642 26.774
33.2136 29.9512 27.5513
35.3486 32.2774 30.0146
31.5786 28.6384 26.0954
31.709 29.4891 27.8381
33.5084 30.1763 27.5685
30.7045 27.9926 26.1088
31.0071 27.9259 25.9609
32.2955 29.9852 27.9624
30.2861 28.7447 27.4836
30.8786 28.8926 27.5405
31.5029 29.3163 27.6925
29.6546 27.9223 26.9482
31.4745 29.4124 27.629
31.1915 29.354 28.1549
31.2221 29.4656 27.9659
30.1286 30.0231 29.6278
30.5309 29.7415 29.7856
31.155 28.8387 27.4189
28.061 27.1381 26.8068
33.1401 31.7586 30.1955
28.3059 27.8039 27.514
29.4779 29.4742 29.9448
30.1414 29.5502 30.7664
35.5417 34.1041 32.4313
30.2677 30.4958 30.9954
30.2102 30.3331 30.6969
30.1695 29.1251 29.1971
30.0338 30.424 31.4467
34.1073 32.892 31.2716
27.7464 29.4249 31.3792
30.8949 31.5739 32.0655
28.3667 27.8286 28.5633
29.1212 29.024 29.0568
25.1703 26.1533 27.948
30.0436 31.0352 31.6771
25.7533 26.9464 28.4328
26.9414 29.0134 31.617
28.5652 29.179 30.2378
28.3134 30.0884 31.8119
26.6759 28.4909 30.7383
26.7889 26.956 28.3742
25.4359 25.9746 27.9156
25.3275 26.5364 28.5416
26.0191 27.5244 29.1083
26.0205 28.0552 30.5107
26.2717 28.0789 30.3612
25.7038 27.7826 30.3647
27.4428 29.61 31.9239
27.5551 29.0658 31.1085
25.5814 28.27 31.1158
25.1504 27.1791 30.1917
26.7488 29.5403 33.1065
25.1303 27.8934 31.2805
25.8248 28.5 32.4353
27.8488 30.9415 34.7625
26.1364 28.4211 31.6727
26.6472 29.3734 33.0153
23.708 25.7782 28.9556
24.4871 27.5161 31.4289
24.5696 27.4239 31.1603
24.7794 28.08 32.1589
24.2657 26.9547 30.4069
23.0618 26.9323 32.113
26.648 29.9841 34.0261
25.9841 29.408 33.2675
24.3636 28.2303 32.9783
26.6076 31.4142 36.2798
23.4342 26.6567 31.3604
24.0063 28.2222 33.281
24.4875 29.2844 34.8267
23.0295 26.3958 31.4479
24.1692 27.6164 32.1761
23.9395 28.1469 33.5873
23.2719 27.5009 32.8933
23.5352 26.9674 31.7332
22.8019 27.4012 33.0491
22.2639 26.7117 33.4154
23.9166 27.879 33.679
23.514 27.3853 32.2706
22.5725 27.1398 32.7471
24.164 29.6701 36.5695
24.1532 29.3709 36.1021
24.6299 29.5483 36.7602
25.735 30.4984 36.7976
23.3878 27.9474 34.267
22.7837 27.5099 33.5576
21.6945 26.2649 32.0464
22.9225 29.1754 37.3435
23.2434 28.032 33.9777
21.0819 26.8856 34.975
23.2364 28.8224 35.9016
22.4878 28.2685 35.7224
22.8078 28.8653 37.7206
24.0283 30.1956 37.9685
20.6025 26.0708 34.3868
22.0759 28.176 37.3814
24.0608 28.9372 35.927
22.4932 28.8629 36.688
20.9961 26.4844 34.8227
22.8306 29.4646 38.3859
22.4246 28.7341 37.3644
22.3299 28.0037 36.3067
21.9374 27.895 36.7581
21.5074 27.6231 35.5218
21.41 28.1631 37.3028
22.1752 28.291 36.0243
20.2257 27.1673 36.7704
19.3755 25.4375 34.1635
19.3826 25.7634 35.8678
22.6923 28.8799 38.2871
21.5672 27.2165 35.48
20.7381 27.45 36.5425
21.6727 29.3125 39.9267
21.7429 29.5027 40.6741
22.9281 30.0873 39.7832
19.5012 26.0872 35.7841
19.8398 26.7802 37.1288
21.0259 28.5308 39.6476
20.7883 27.8686 40.0674
24.8676 32.8333 42.8576
21.3594 29.6317 41.5153
20.3119 26.9824 37.2849
20.1766 26.7993 36.3641
18.139 25.4691 35.9594
19.4856 27.0724 37.3921
19.0515 27.0571 38.9393
18.0652 24.187 34.8345
20.0156 27.7239 38.9738
19.0885 26.384 37.249
19.3075 27.5549 40.0405
18.9753 26.6118 38.596
19.6063 27.3615 39.4625
20.6958 28.4638 39.5305
18.7032 26.03 36.723
18.2522 26.6768 39.2634
18.6726 26.436 38.5564
19.0601 27.3903 39.9152
19.5266 27.9062 40.7874
18.9553 26.9983 39.6207
19.295 27.6445 40.1968
18.7516 27.3788 39.8112
19.1761 27.9037 41.2316
18.3656 27.2301 40.2215
18.1131 27.0506 41.1807
19.9868 29.3613 43.6169
19.2806 27.8069 42.1865
19.3362 27.2746 39.0546
16.8441 25.2585 39.5953
19.9541 29.2878 42.8107
19.3938 29.1172 42.8865
17.8606 26.3568 40.3204
17.3772 25.4814 38.7041
17.4746 26.2543 39.8032
17.3817 26.6577 41.2811
17.9815 27.8398 42.9211
17.292 26.2355 42.4509
18.5079 26.415 39.8516
18.2776 26.9964 40.0873
16.8512 25.778 40.0009
17.0413 26.2285 40.9954
18.6605 27.9288 42.2398
16.3466 25.4812 40.0434
16.4518 24.5514 39.1297
17.9286 27.4809 42.2561
16.2057 24.3726 38.6827
16.7645 25.3294 39.7617
16.3691 24.3742 38.7814
18.8867 29.2013 43.5386
15.6173 24.7239 40.3024
17.1123 26.3756 41.929
17.4519 28.0281 45.0046
17.1422 26.1449 41.4454
16.3351 25.13 39.2639
15.8329 25.5385 42.2402
16.8087 26.7067 42.4156
15.2168 23.8258 40.0662
16.5801 26.4159 43.0167
16.8059 26.4286 42.0119
15.0635 24.4029 41.3626
16.9035 26.4309 42.2088
16.8986 26.8713 41.9263
15.6982 25.7465 42.7568
16.1412 27.2566 46.7972
17.0789 27.4739 45.2827
15.6837 24.0572 39.4503
16.0991 26.143 40.865
14.7299 25.2565 43.6362
16.2074 26.4679 43.5033
15.4342 25.7629 43.7077
14.4754 24.2365 42.9649
16.6368 26.7903 43.869
15.2693 26.3978 46.1221
15.2525 24.7528 43.7111
15.7364 24.6349 41.4361
15.262 24.8597 41.5488
15.887 26.1775 43.1262
14.9258 24.2663 40.3659
13.7939 23.9806 42.6728
15.659 25.7355 44.0253
14.8501 25.2542 44.5692
16.2418 27.3251 47.1673
16.8362 28.084 45.901
14.615 25.7758 47.4039
15.3742 24.6669 42.0467
14.9218 25.1789 44.1055
15.8126 26.7431 45.8583
14.9309 24.8591 40.9862
14.0635 25.2664 44.9545
14.1444 25.2632 45.7299
14.7021 25.4688 45.1156
14.7616 25.2089 44.1587
14.5726 25.0025 44.2481
14.4919 25.4726 44.9296
14.5623 26.0495 46.6634
13.2698 22.7523 43.7146
17.1339 29.3997 46.7335
12.5185 23.2741 43.6857
13.3893 22.8444 41.6827
14.0717 25.0397 45.5973
13.7792 24.5487 46.2108
14.7842 25.4161 45.948
14.2749 24.6099 43.6106
13.86 24.6976 44.5643
13.8748 24.4454 44.2397
14.2096 25.2533 45.3728
13.9101 25.2187 44.5005
13.4136 24.4459 44.5065
13.2533 24.8433 46.6061
12.8214 22.5035 43.8914
14.4742 25.9445 46.2818
13.1041 23.6767 43.4338
14.1079 26.1513 47.2322
13.1465 24.9123 47.4324
13.3042 23.8181 44.4885
12.695 23.5275 45.3551
13.1437 23.7379 44.6308
13.6634 26.1131 49.9634
13.642 24.9631 48.4816
14.6351 26.3054 47.9611
13.857 25.5827 46.6035
12.532 23.8764 45.8153
13.038 24.2556 46.4948
12.4884 23.0311 45.7993
13.4998 25.2032 47.0231
12.9365 23.4577 44.9354
13.7502 26.309 48.3575
12.2277 23.2406 45.8651
12.5918 23.6549 46.1724
12.9204 23.9113 44.8367
11.8874 22.9685 45.5703
12.2848 24.2151 49.0677
13.2746 23.8399 45.3387
12.4935 23.532 45.1186
12.2128 23.6065 46.3895
12.6264 24.7068 50.605
13.2209 23.1355 44.1456
12.4391 23.9019 47.1138
13.3884 25.6429 49.008
12.035 23.0056 45.8511
12.2102 23.5068 46.6997
12.3832 23.8636 45.6054
11.8168 23.1005 45.8331
12.5678 24.9482 51.09
13.0447 24.791 48.6576
13.1435 26.3189 52.3769
12.1059 22.884 45.4316
11.5853 22.8829 45.7717
11.6524 23.2399 46.5846
12.4903 25.4854 50.9653
11.7434 23.4589 48.2439
12.1161 24.4679 51.4015
12.6362 24.8148 50.2416
11.6954 22.8793 45.3493
10.6353 22.1961 47.403
11.6144 22.689 45.89
11.603 23.7096 50.3122
12.1719 23.6796 48.0702
11.7681 23.166 47.235
11.5312 23.5045 49.1188
11.5162 23.0517 47.2026
11.2964 23.3949 49.1949
10.3557 19.442 41.9355
11.1469 22.0296 44.821
12.1888 25.4337 51.2383
10.9099 22.7994 49.8933
11.4547 22.3537 47.0977
11.5818 23.2778 48.1137
11.5095 22.9212 46.6457
10.8649 22.7426 50.0309
12.3741 24.9377 50.0391
10.4707 21.433 46.2884
10.3887 21.1804 45.4742
10.8192 23.9079 54.9286
12.2203 23.4597 47.2239
11.6829 25.4878 53.4124
10.3449 20.8647 46.1594
10.5652 21.5005 46.064
11.2304 23.5332 48.3604
10.0515 21.1051 46.3316
10.7867 23.152 50.1423
11.1404 24.4079 52.9581
11.1742 23.192 48.988
10.4416 21.7809 48.3638
11.2774 23.3877 49.1435
10.4634 23.3749 52.4015
11.4445 24.159 52.0143
10.7864 23.1265 50.0091
11.2031 24.4137 53.5995
11.4666 25.272 54.9843
10.8576 23.177 52.254
10.5472 23.0305 54.7999
12.3366 26.502 55.4329
10.7432 22.19 49.5343
10.5464 21.0918 44.9973
10.1905 22.7859 50.3025
11.0895 24.8712 54.8681
10.8644 23.0971 51.1964
10.8173 23.1979 50.4698
10.4523 22.3959 49.1251
9.8665 21.9658 49.8664
10.9321 24.9021 55.7444
9.95945 20.8806 46.165
9.34267 20.9904 50.1328
10.6922 22.9974 49.5123
9.61072 21.0818 50.1727
10.3937 23.8078 55.5751
10.7666 22.9983 51.3266
10.3188 22.7862 50.3502
9.98914 22.4754 51.3906
10.4897 23.3602 52.815
10.4582 23.7627 53.719
10.372 22.8854 50.2167
9.11902 21.8832 53.7257
10.1355 21.7442 48.9675
10.1138 22.8545 50.9096
9.45217 22.1238 53.836
10.2238 21.6236 48.4435
10.0938 23.6835 53.0789
9.26239 21.0173 49.6356
9.32698 21.1784 50.31
10.1259 23.4142 53.5597
9.21846 20.4843 48.8731
9.44554 21.7511 53.3998
10.217 22.7624 51.3764
9.25384 21.4751 51.6378
9.84267 22.5695 53.4904
9.33553 21.3121 50.8885
9.35056 20.4624 46.9597
9.07446 21.4608 49.9918
8.89507 20.804 51.5364
9.2432 20.5681 51.0057
9.62863 21.9383 53.1035
9.83451 21.0685 48.3061
8.99466 20.7315 49.8709
9.77963 22.2927 52.3799
9.58898 22.6439 54.6437
9.50702 21.9825 53.9035
9.73242 21.7381 49.8776
9.2094 22.3032 53.1899
9.0845 20.664 49.443
8.34536 18.9659 47.3278
9.34545 22.9201 53.7731
8.86595 21.0067 52.3997
8.45132 18.8907 45.4696
8.70878 21.2399 50.7015
8.43144 20.0549 50.2446
9.41025 22.9066 53.5703
8.32503 18.9186 46.9096
8.56369 20.9482 51.6389
8.53536 20.8219 52.9501
9.0335 20.8827 50.6959
9.01897 20.405 47.8102
8.58032 21.9119 52.8061
