# pn-170911/RbIIR-50-RbIIA-1280-1959.psd
# Power spectrum* (dif=0,1,2) (really just |FT|^2)
# NOTE: only the first half! (symmetric)
# weeks: 1280-1959
# 1925 clock-days, 431 excluded
# PSD: 1441
8734.74 0.305188 0.0434659
699385 15.149 0.0698177
1.96734e+06 34.3024 0.0646021
422551 13.4035 0.0617925
294455 17.3332 0.0663564
124614 8.96358 0.066486
80939.8 9.15753 0.06675
56977 8.13164 0.0698926
45936.7 8.11956 0.0671658
34412.6 8.08718 0.0627913
27167.7 7.60315 0.0655663
22450.1 7.44381 0.0664053
19425.3 7.80673 0.0674303
15806.4 7.50339 0.0732498
14186 7.81268 0.0702393
11819 7.35334 0.0702404
11009.2 7.79137 0.0724897
9548.43 7.6046 0.0735351
8655.94 7.75386 0.0755857
7332.01 7.29804 0.0777926
6729.22 7.396 0.0805264
6268.21 7.57487 0.0774962
5610.44 7.70199 0.0849198
5061.1 7.39422 0.083982
4918.7 7.70481 0.0850526
4332.82 7.54623 0.0898592
4060.22 7.40491 0.0906267
3663.83 7.38419 0.0873939
3486.18 7.67812 0.0950034
3246.18 7.70995 0.093784
3192.51 7.91658 0.0995352
2908.26 7.50444 0.0989851
2681.97 7.58212 0.102715
2570.42 7.83973 0.102399
2363.97 7.35579 0.103889
2330.13 7.75516 0.105453
2129.46 7.7096 0.11195
2062.36 7.98878 0.114841
1937.18 7.87945 0.11187
1888.51 8.30485 0.122844
1808.36 8.08362 0.122975
1731.05 8.22942 0.126348
1647.91 8.3088 0.1291
1623.29 8.56518 0.139636
1483.37 8.13656 0.134729
1455.73 8.54729 0.14266
1416.82 8.76158 0.152082
1392.4 8.86426 0.150349
1353.2 8.9966 0.15764
1267.97 8.95228 0.168528
1209.64 8.73101 0.170382
1179.13 8.78195 0.164892
1130.86 8.8874 0.180684
1071.18 8.6847 0.17572
1086.71 9.2643 0.195091
1044.34 9.22646 0.195315
998.336 9.17636 0.205771
972.434 9.36032 0.204816
914.558 9.25126 0.209474
930.359 9.74448 0.228992
896.127 9.66856 0.227048
875.975 9.73314 0.234403
848.487 9.89388 0.240873
790.583 9.41585 0.243488
808.317 10.0387 0.259586
759.423 9.78366 0.26066
777.22 10.3128 0.277766
738.398 10.1634 0.287538
710.924 9.77065 0.283285
704.421 10.1723 0.300008
697.559 10.6159 0.313395
656.813 10.2001 0.300976
666.478 10.8803 0.337488
647.013 10.7718 0.334743
655.986 10.6957 0.345837
649.552 11.3086 0.364862
616.464 11.1385 0.374691
583.262 10.818 0.367181
577.507 11.122 0.393569
559.727 10.9979 0.391174
560.331 11.3671 0.412916
548.493 11.2154 0.408586
554.29 11.8353 0.445417
539.01 11.7037 0.448498
494.509 11.2995 0.439006
501.234 11.5002 0.459249
491.827 11.8859 0.48595
471.836 11.4174 0.474339
461.76 11.602 0.485709
464.115 11.5139 0.500784
459.795 12.1708 0.531872
468.422 12.3812 0.54626
439.443 12.0864 0.551262
441.027 12.3662 0.580006
420.131 12.1802 0.581109
425.445 12.6068 0.607396
434.416 13.3088 0.636725
408.424 12.7866 0.639372
393.63 12.138 0.614257
405.27 13.2104 0.681649
391.017 12.7978 0.663141
402.013 13.5035 0.714583
373.029 12.8443 0.686939
390.889 13.5727 0.735496
369.971 13.5494 0.754205
370.065 13.8784 0.78572
383.002 14.4922 0.824327
364.016 14.1959 0.831416
348.142 13.5832 0.816319
334.376 13.9371 0.844251
336.689 13.6589 0.843054
326.423 13.6348 0.854474
321.397 13.4662 0.844579
331.923 14.6522 0.95005
335.758 14.7985 0.968602
321.152 14.5611 0.975288
310.293 14.7266 1.00569
318.487 15.2521 1.04808
312.229 15.0844 1.04934
318.993 15.2107 1.09515
301.526 14.9538 1.07025
313.933 15.52 1.15777
292.273 15.2245 1.14162
298.781 15.4377 1.16628
285.873 15.1796 1.17043
286.265 15.4381 1.19549
285.575 15.7745 1.24661
277.512 15.0114 1.21674
272.31 15.5594 1.24378
284.55 16.4255 1.36281
280.902 16.439 1.38184
266.936 16.0154 1.35471
265.055 16.5466 1.4174
262.766 16.2355 1.41341
265.362 16.655 1.46796
260.015 16.5575 1.47757
255.191 16.7353 1.53569
258.675 17.1919 1.59511
257.027 16.9649 1.57563
252.659 17.432 1.6394
258.925 18.1 1.7247
239.389 17.3142 1.68259
235.23 17.4738 1.72273
242.027 17.4751 1.74197
237.397 17.7862 1.80597
223.709 16.8817 1.72264
233.243 17.7787 1.84764
239.262 18.6508 1.94823
226.762 17.6797 1.87436
221.282 17.7281 1.9026
223.129 18.0552 1.98149
216.837 17.6601 1.95574
220.756 18.7624 2.10689
220.928 18.8728 2.14588
215.5 18.307 2.10578
219.093 19.1739 2.21911
213.928 19.0433 2.24601
214.403 19.5802 2.3159
210.881 19.0063 2.3109
205.178 18.7504 2.30057
213.41 19.9641 2.44737
208.113 19.6261 2.43527
198.684 19.0026 2.42552
204.075 19.585 2.52553
205.406 20.3545 2.64353
198.521 19.6172 2.55221
197.804 19.8811 2.60697
192.827 20.0731 2.6686
195.45 20.566 2.80046
199.666 20.6852 2.84148
190.622 20.6775 2.84671
194.118 20.8736 2.88791
184.559 20.3734 2.90433
190.074 21.0394 3.02325
182.441 20.3778 2.93256
184.285 20.6564 3.02327
184.69 21.3743 3.13835
178.081 20.815 3.14234
185.428 21.801 3.30871
181.455 21.7654 3.31032
178.265 21.6716 3.34121
180.833 21.517 3.3892
176.581 21.4783 3.40396
175.779 21.8939 3.48591
164.301 20.9764 3.38964
173.753 22.5763 3.65747
172.074 21.7199 3.57253
173.748 22.7763 3.77755
169.235 22.0342 3.71134
172.377 22.7603 3.85275
158.422 21.5843 3.6652
163.31 22.2439 3.88109
166.682 22.4594 3.95819
161.383 22.1692 3.93217
159.562 22.0825 3.93662
163.064 23.854 4.29738
158.351 22.9966 4.18333
157.896 23.4067 4.33056
155.488 23.0017 4.29249
157.467 23.0406 4.31339
154.177 23.3899 4.44872
160.204 23.9829 4.57652
155.063 24.0128 4.58231
147.242 22.8281 4.44326
150.769 24.3064 4.80467
147.479 23.0925 4.60689
152.479 24.3769 4.8858
149.497 24.202 4.86958
151.166 25.0015 5.10139
143.212 23.7342 4.91104
135.723 23.1454 4.823
141.916 24.1216 5.07978
137.383 23.2192 4.94954
144.589 24.7537 5.24885
142.622 25.026 5.45668
146.336 26.4444 5.75491
138.659 24.1171 5.33764
141.766 25.2441 5.59751
138.222 25.0026 5.5675
134.298 23.7822 5.35164
138.48 25.3222 5.75745
134.039 24.8277 5.72832
134.899 24.8008 5.71903
132.7 24.7867 5.78297
133.784 25.2734 5.95967
134.085 26.4111 6.3204
130.679 25.9393 6.21486
130.514 25.7052 6.203
130.284 25.9541 6.3283
133.607 26.7323 6.55878
125.138 25.0372 6.2066
129.222 26.5882 6.63817
127.909 26.6079 6.72258
121.693 25.1749 6.42286
123.847 26.1108 6.69285
125.665 26.6323 6.85886
121.004 25.7635 6.78807
119.241 25.7038 6.75686
120.695 25.729 6.82672
123.189 26.457 7.06844
121.924 27.4364 7.34581
120.755 26.394 7.22085
121.557 27.5815 7.61366
121.452 27.1138 7.48304
122.59 27.752 7.71849
118.601 27.3462 7.69749
118.165 27.6765 7.86063
120.767 27.9924 8.00104
115.158 27.4223 7.8698
113.989 26.5637 7.69652
111.647 26.3481 7.74487
115.284 28.0092 8.27654
115.756 27.8234 8.14163
116.839 28.9008 8.69707
117.473 29.0219 8.72552
111.29 27.5015 8.28304
108.1 27.2514 8.45165
110.854 28.158 8.5895
109.013 28.0401 8.71804
111.156 28.8474 9.09381
112.131 28.751 8.99196
105.153 27.5387 8.71857
105.317 27.9464 8.90397
107.825 28.5987 9.33975
106.082 28.8994 9.3216
108.333 28.7403 9.30351
104.89 28.2375 9.22482
103.639 28.1227 9.22375
103.91 28.8488 9.60179
103.204 28.9378 9.87229
104.879 29.4221 9.88328
103.996 29.0248 10.0286
100.314 28.8785 9.92305
99.8679 28.8412 9.91971
102.012 29.5426 10.1971
104.073 30.6023 10.745
100.909 30.5473 10.7733
102.824 30.3855 10.9065
99.7109 28.9129 10.3462
99.4961 29.8277 10.6667
96.3949 29.6488 10.7591
99.735 30.3331 11.1476
100.653 30.4658 11.1418
95.985 30.2335 11.1848
94.3532 29.0109 10.8033
98.2242 30.3256 11.3314
95.3373 30.4337 11.4965
94.096 30.3671 11.6263
95.7999 30.81 11.9189
95.9795 31.2959 12.0907
94.5323 31.263 12.0162
91.9008 30.7057 12.2514
90.9561 30.4708 11.9389
95.0757 31.2299 12.2991
89.8705 30.6436 12.2692
91.5346 30.6885 12.2267
93.1448 31.4979 12.615
91.0618 31.1061 12.6818
92.4994 32.3173 13.2739
89.1861 30.8953 12.7879
89.5724 30.6315 12.6348
87.1127 31.0238 13.0548
85.7873 30.4869 12.8655
90.1951 32.4632 13.7948
87.0006 31.3825 13.3489
86.3167 30.711 12.8618
87.0226 31.8809 13.9084
89.5105 33.1345 14.3812
87.0344 31.8323 14.0178
83.0688 30.4329 13.4406
84.5921 30.8319 13.6074
82.9604 30.4274 13.4552
87.6239 32.7872 14.6001
83.8503 32.5624 14.8386
85.6816 32.8136 14.927
84.3286 31.9359 14.4233
82.306 32.0448 14.6807
80.5207 32.3658 15.0152
82.6979 32.1615 14.6827
79.7397 31.9518 15.0557
85.4291 33.0005 15.3016
81.689 32.9895 15.562
79.9241 31.8524 15.2428
79.741 32.2298 15.1705
83.0068 33.8132 16.1417
75.2245 31.2047 15.2384
78.5572 31.5362 15.4493
79.5344 33.1606 16.2522
78.501 32.7238 16.05
78.6411 32.9697 16.1974
77.227 32.3525 16.2132
76.6666 32.3945 16.1036
76.9698 32.4134 16.2238
76.2186 32.2781 16.4447
74.0191 31.7366 16.2252
72.544 31.7191 16.4262
74.9379 32.8792 16.8481
77.602 33.7198 17.5323
75.6011 33.6303 17.4345
74.2757 33.184 17.3815
72.6498 32.3661 16.9555
74.9579 33.6198 17.9142
73.7141 33.6927 17.8054
74.8167 34.321 18.4321
72.4777 33.289 17.9099
73.057 33.3276 18.1578
73.5753 34.1855 18.5614
71.1138 33.7915 18.4268
71.2393 32.3998 17.9131
69.5056 33.1162 18.2477
70.9047 33.9101 19.1824
72.2722 33.9413 18.7945
70.8322 33.9588 19.0093
69.5944 33.6373 19.2412
70.8901 35.2775 20.1626
68.5597 34.4796 20.5561
78.653 38.0943 20.9961
69.8613 35.2146 20.99
81.7957 40.6574 22.7701
68.5379 34.3485 20.3782
77.9977 39.7491 22.909
68.1805 34.8323 20.6946
73.0915 36.6915 21.2623
66.0037 33.5085 20.1429
67.6421 34.8616 20.8875
65.235 34.198 20.8481
68.0604 35.4814 21.3326
64.8575 33.6164 20.5324
64.784 33.9234 20.7139
63.1288 32.6554 19.9029
66.1596 34.2455 21.2253
63.8413 33.7184 21.306
64.6824 34.4578 21.3834
64.4436 34.7791 21.8222
62.4243 34.0119 21.5743
64.1077 35.2958 22.4005
65.4019 35.3037 22.2474
62.28 33.7838 21.8292
62.6542 34.55 21.9755
61.8084 33.6115 21.8013
61.0255 33.8392 22.0011
62.0871 34.7619 22.6147
61.5432 34.8878 23.1412
62.3725 34.1817 22.012
58.9062 34.2466 22.9189
61.4575 34.9573 23.0093
60.7815 34.5011 23.4616
62.1412 36.027 24.0303
59.6268 35.2135 23.991
60.7128 34.9921 23.6797
59.9163 35.1328 23.8638
60.0403 35.1474 24.1384
57.5241 32.6355 22.331
58.6419 34.8344 24.097
58.8708 35.3932 24.9406
57.7435 35.0089 24.2784
57.4955 34.5757 24.1791
57.8498 34.195 23.9017
57.7614 35.1671 24.9917
56.2602 34.5825 24.817
59.0535 35.0777 24.9787
56.7292 35.2965 25.3031
54.9407 33.8018 24.2691
55.6931 34.8467 25.2838
57.9141 36.703 26.5539
55.1735 34.667 25.3139
58.129 36.4904 26.9753
54.299 35.2099 26.2091
54.577 34.9301 25.9305
55.6758 36.1758 26.8552
54.6044 34.9719 26.2339
55.6029 35.8763 27.0801
55.3658 35.7654 27.1447
54.6555 34.7517 26.3909
53.4335 34.5628 26.3248
54.701 35.946 27.3998
54.8538 36.4726 28.0443
52.3786 34.7224 27.2188
54.0212 36.0483 28.1749
52.8656 35.0931 27.3414
53.2877 35.6965 27.7118
52.434 35.2488 27.8203
53.7767 35.9417 28.4374
54.3891 35.7616 28.2085
52.0725 35.1311 27.8633
51.9484 35.6292 28.3681
51.2931 35.7602 28.9973
51.7696 35.961 29.0337
51.4612 35.938 29.1355
51.6425 36.3614 29.7751
51.7963 36.3869 29.5136
52.0039 36.8951 30.2935
49.5752 35.1623 29.2408
49.7001 35.4395 29.6857
48.8111 34.7125 28.3052
48.7522 35.2038 29.6884
49.183 34.9309 29.2597
49.3169 35.3325 29.8197
50.5234 35.7105 30.0164
49.4887 36.6107 31.3045
49.4426 35.689 30.7141
49.7516 35.1127 29.7156
49.8963 37.6386 32.0483
47.2883 34.9487 30.1828
47.7281 36.126 31.2697
44.8827 33.4365 29.635
48.1293 36.2177 31.2845
46.9284 34.9457 31.192
46.4524 35.4982 31.2222
45.9652 34.7685 30.7872
47.1514 35.6206 31.56
45.3221 34.8782 31.2685
47.8356 36.6562 32.3926
47.5507 36.8326 33.0261
46.5893 36.1432 32.7292
46.468 35.7917 32.9895
45.4989 35.8429 32.3108
43.922 34.3205 31.2609
46.5127 36.9729 33.6943
44.2815 35.5493 32.6913
44.2486 35.3892 32.7764
42.8394 34.8012 32.7709
43.3957 34.3841 32.0335
44.1215 34.1525 31.6488
44.1885 36.7787 34.8089
44.8094 35.7252 33.27
43.1866 35.7032 34.3203
43.2145 35.6307 34.1702
42.3296 34.1536 32.3645
42.7461 35.6245 34.3056
44.2998 36.3545 35.0542
43.2977 35.6415 34.1488
42.1243 35.1645 34.5893
43.419 35.0706 33.8256
42.7318 36.2295 35.5694
41.6757 33.8365 33.3838
42.3457 35.8388 35.5181
43.0598 35.4655 34.6075
42.2039 36.6439 37.0679
43.9596 36.997 36.4896
41.8429 36.4536 36.4288
41.6189 36.1312 36.4279
40.0757 34.0614 34.5951
42.4694 36.8722 37.0005
41.4878 35.9292 36.898
43.3274 36.8288 36.9439
40.6756 34.9008 35.6013
41.9628 36.3197 37.0986
40.3528 36.3158 37.5496
40.3103 36.4234 37.6075
41.0508 36.2412 37.5029
39.8042 35.5966 37.0388
39.4473 35.1365 37.2261
40.6494 36.0998 38.0224
38.7243 34.3354 36.3156
39.4027 35.9799 37.7362
39.8005 37.553 40.0885
40.0981 37.1637 39.9031
40.5619 36.2558 38.4401
39.0194 35.7383 38.2519
36.9978 35.0046 38.3759
40.1711 37.505 40.5864
39.9603 36.9329 40.124
37.5036 34.4832 37.8161
37.931 34.7307 37.0908
37.9675 35.9315 39.1388
36.8591 34.7883 38.7511
35.5704 33.0995 36.4109
36.08 34.5666 38.8325
36.752 35.282 39.1423
36.7408 35.2746 39.1557
36.1648 34.3529 38.7622
37.3208 36.1679 40.778
36.9008 35.8216 40.2579
35.4709 34.4522 38.7595
36.8699 35.8783 40.8037
36.5889 35.4703 39.9986
35.4112 34.6417 39.6541
34.6475 34.6828 40.2364
36.4092 36.1636 41.6269
34.9249 33.9233 39.7866
36.6099 36.2228 41.4688
36.0697 34.9286 40.0649
35.1053 35.103 40.4908
35.3608 35.2774 41.7291
35.0089 35.0216 40.4007
34.2196 35.612 42.4909
34.5092 35.2422 42.0169
34.3898 35.2287 42.0207
33.7762 33.6862 39.2201
33.1 33.6725 40.0119
32.7467 33.3506 40.3825
33.1718 34.641 42.0557
33.6818 34.3224 42.0043
34.2307 34.4265 42.0781
35.1817 35.604 42.2066
33.9407 34.8155 42.227
33.4751 35.7655 43.3131
33.756 35.4816 44.1284
33.85 34.9151 43.1852
34.1269 35.879 43.8879
34.3684 36.1065 44.1622
33.6347 36.2604 44.9621
32.1042 35.0034 44.062
32.479 35.401 44.8359
33.1605 35.3878 44.2058
32.7074 34.8531 44.1147
33.4899 35.6124 44.5478
33.2952 37.2133 47.1523
30.7929 33.0693 42.6521
32.5308 35.4977 44.2992
32.4826 36.1627 45.6356
30.6644 34.0079 43.9379
31.0662 34.9396 45.5875
30.6754 33.852 44.2703
31.5147 34.3229 44.0669
30.5254 33.7379 44.4209
32.7164 35.5352 45.8168
31.4687 35.1738 45.8268
31.5672 35.3773 46.211
30.8517 34.569 45.5462
30.1098 33.6908 44.0141
30.8804 34.1908 45.3451
29.845 33.9033 45.3034
31.1723 35.0012 46.5851
30.6005 33.8996 45.1966
30.6261 35.1153 47.4114
30.761 35.0584 46.4148
28.7305 33.2123 45.0754
28.9721 33.7348 46.0999
29.3799 33.821 45.7471
30.0162 34.7615 47.1461
29.8899 34.6944 47.2164
30.18 35.1128 48.2102
29.5685 35.0506 48.4957
30.0067 34.926 47.9368
28.5204 33.9273 47.4422
28.8676 33.356 45.7844
29.0065 34.3327 47.3882
28.771 34.306 48.8694
29.9614 34.7813 48.1455
28.5314 33.98 48.1604
29.4701 34.3977 47.6886
28.5233 34.3806 48.521
28.9964 35.2448 50.1857
28.8739 35.0061 49.8691
29.1542 35.1042 49.4453
28.8588 35.7524 50.9982
27.6857 33.8328 48.2866
28.1217 34.0843 48.4107
26.6512 32.5453 47.4289
27.9626 34.07 48.8719
27.177 34.1141 49.2079
27.443 34.2855 49.2205
26.7003 32.8653 48.1597
27.445 34.1838 49.9976
27.3461 34.1612 49.6714
27.3362 34.1666 50.2958
28.2103 36.2072 53.1475
25.9252 33.4264 49.8069
27.2486 34.254 50.613
26.9312 33.6056 49.1958
26.1814 34.0348 51.629
26.3872 33.1248 49.9938
26.6737 33.8338 50.578
26.7162 33.5505 49.6416
25.7793 33.2137 50.7274
26.3284 33.9919 51.9169
27.1723 34.9136 52.0514
25.945 34.0592 52.2037
25.7039 32.7017 49.8226
26.4315 34.5228 51.3263
25.2023 33.0676 51.8549
26.2039 33.3191 50.6834
26.1922 34.6948 54.1341
26.6037 34.0161 51.2378
24.7373 33.7923 53.4868
25.5114 33.4521 52.0994
26.2947 34.2765 53.2271
25.4384 34.2293 53.4238
24.7501 32.6865 51.7685
24.9425 32.5975 51.9735
25.9524 34.2475 52.6457
24.289 32.7602 52.1307
25.816 34.4238 54.17
24.3094 33.2687 52.8001
24.9491 33.5311 52.5723
24.7265 33.1812 53.6447
24.8426 32.9992 51.7517
24.0796 32.8218 53.6964
24.124 33.1866 54.5709
24.1045 32.885 53.676
24.3654 32.9979 53.0411
24.5752 34.0195 54.0312
23.5075 32.3801 52.9853
23.1345 31.1177 50.2979
22.8658 31.3826 52.2696
23.4032 31.9197 51.1759
23.4018 32.9367 54.6332
22.737 31.2719 51.5347
23.1833 32.3335 53.2812
23.4312 33.3116 55.4138
23.3329 31.9641 52.712
22.3888 31.7168 53.8239
23.3364 32.7988 54.3619
22.6444 32.5051 54.4805
23.2859 32.4761 54.5043
23.1287 33.5559 56.9369
23.5142 32.4387 53.8796
22.6735 32.5649 55.6416
23.1475 32.5968 55.2276
23.3472 33.2757 55.9447
22.2325 31.6996 53.7827
22.4926 33.2645 57.3672
22.115 31.3184 54.4473
22.7161 32.0472 53.671
22.1479 32.5316 54.7806
22.0159 31.9488 55.4452
21.8443 33.174 58.3043
22.5012 31.7462 54.8429
21.9869 33.2196 59.1217
22.7193 33.3315 56.9299
21.3246 32.0685 56.6697
22.4274 32.7232 57.7438
21.6401 31.3522 54.9186
21.6279 32.3075 57.6879
22.6134 33.2055 57.5443
21.389 31.9895 57.2914
22.2316 32.3787 57.5211
21.8305 32.3331 56.963
21.0646 32.1687 57.7833
20.806 30.7765 56.498
25.5834 41.4076 72.5346
22.199 31.7411 56.7232
21.6709 32.1442 57.1033
20.5954 31.5204 57.1648
20.9866 32.459 58.6083
21.1414 32.1108 57.1336
20.0804 29.9821 55.3119
21.0455 32.0176 58.7527
20.7166 31.0319 55.4741
20.7993 31.8375 58.4663
20.5078 31.0928 55.8516
20.0147 32.2175 59.2613
19.9907 30.764 56.089
19.3867 31.2609 58.5511
20.1629 31.0535 57.5274
20.5393 31.3651 57.6486
20.233 31.5956 60.0346
20.421 31.2708 58.4421
20.2948 31.9216 58.5036
20.2411 31.6676 59.5136
20.2124 31.053 58.3982
19.4056 31.2832 59.8977
19.8466 31.7403 59.8176
19.9971 32.1727 60.4178
19.7918 30.6996 57.8117
19.2304 30.5694 59.6451
20.0883 31.0524 59.258
20.6252 32.7381 60.2712
19.3538 30.9669 59.7122
18.7637 30.2124 57.8888
18.8688 30.5328 59.7719
19.4478 31.1707 60.0921
19.6581 31.8788 61.6718
19.7834 31.7547 61.3743
19.4769 29.9759 57.8217
19.1577 31.6951 62.0513
19.8189 32.081 60.5561
18.8276 30.5473 58.8549
18.101 30.3627 61.7397
19.7699 32.1913 62.6083
18.488 30.9426 61.8293
19.162 31.7024 62.5702
18.9674 30.1688 58.6112
18.6557 31.0045 60.8167
18.7901 31.0715 61.0433
18.6772 31.7036 63.9469
19.4402 31.0774 60.9876
18.2821 31.1587 62.032
18.2723 30.608 61.8118
18.4288 31.5806 63.9084
18.66 30.845 61.3136
18.4136 32.1813 63.9936
18.2408 29.8055 60.543
17.9382 29.9484 59.9218
17.6314 30.523 63.0491
18.2091 30.3193 61.6756
18.6109 31.1992 61.5954
17.0979 29.0425 59.9811
17.6708 30.822 63.3459
18.3457 30.4767 62.1699
18.1771 31.2315 61.4784
17.0134 29.8158 62.5067
17.0833 30.6634 64.1721
17.9285 29.0425 59.5462
17.109 30.1118 63.0443
17.5341 31.1487 65.3388
18.1779 30.6939 63.1684
16.8736 28.623 59.6397
17.0476 30.0518 62.9609
17.6313 31.4202 65.8163
17.4936 29.8162 61.7715
17.3046 30.4753 64.1086
17.2138 29.9501 62.3519
17.0984 30.1397 64.2801
17.2198 30.2299 63.4194
16.9814 29.9099 64.6292
17.6198 30.2175 63.5828
17.0004 29.5994 62.8546
16.7758 28.4972 60.621
16.8695 30.2449 64.2511
16.9322 30.063 64.5271
16.722 30.2338 63.7901
16.2048 28.8726 63.7951
17.2713 29.9785 62.5232
16.2084 28.6491 62.0175
16.3298 29.2936 62.6086
16.3701 29.7704 65.2374
16.4813 28.5371 62.0629
16.1035 28.7941 62.6655
16.0724 28.9037 64.0585
17.4708 31.1032 65.8601
15.7654 28.2838 61.9499
15.9427 29.6652 66.5411
16.1081 28.0751 61.5146
16.143 29.2333 64.0602
16.1135 28.821 63.0289
16.0231 29.4046 64.062
16.2555 30.106 65.3447
15.8974 29.5564 66.7217
16.0785 29.0982 64.2129
15.8255 28.9118 64.2865
15.9673 29.7911 67.4092
15.9593 29.7761 66.0675
15.8149 28.6887 65.538
15.5057 28.0305 62.7816
15.1518 28.4688 63.9936
15.2655 29.1591 65.619
14.8994 27.7505 63.0683
15.1128 28.1011 64.0307
15.1665 28.0362 63.9021
15.409 28.3453 64.6175
15.7682 28.5347 64.1449
15.5183 29.2653 65.9705
14.9469 27.8894 63.553
15.5448 29.5959 67.2777
14.9754 27.961 64.4893
15.1685 28.5732 65.985
15.7274 29.4895 66.2321
15.4407 28.945 65.5071
14.7181 28.6898 66.889
15.0968 28.7639 66.1028
14.97 28.8618 66.8835
14.9029 28.8659 68.1236
15.214 29.5198 69.7539
15.1773 28.6633 67.1073
15.1022 28.7233 66.5592
15.601 30.4599 68.9733
15.1062 28.0806 66.6021
14.9026 28.8536 67.0594
14.6909 27.316 64.0876
14.6345 29.5404 69.9325
14.6591 28.0966 66.3004
14.5998 28.5066 65.6076
14.4681 28.2416 66.6687
14.4987 28.6489 68.0063
14.2071 27.6099 68.1391
14.9498 28.7841 66.5522
14.4476 28.4595 67.1678
13.54 26.9349 66.4823
14.2676 27.4999 65.7498
14.3483 28.3983 67.4382
14.1467 27.951 67.1285
14.2649 28.5989 70.2285
14.5591 27.9617 67.3656
14.0932 27.8683 66.4338
14.0786 28.4711 68.2776
14.2358 27.581 67.7232
14.7183 29.1979 69.6929
13.4463 27.5692 70
14.8045 28.7001 68.2297
13.81 26.8435 66.5129
14.044 28.187 67.8373
13.3741 26.4699 65.3759
13.8798 28.0142 68.312
14.2027 29.3226 71.5152
13.8026 26.5425 66.3864
13.866 27.2915 66.8852
13.8122 27.476 66.8532
13.5621 27.9614 70.6734
