# pn-170911/RbIIR-59-RbII-1280-1959.psd
# Power spectrum* (dif=0,1,2) (really just |FT|^2)
# NOTE: only the first half! (symmetric)
# weeks: 1280-1959
# 336 clock-days, 2 excluded
# PSD: 1441
77893.7 1.16246 0.0296683
2.1471e+06 53.0659 0.0516704
3.13962e+06 55.3738 0.0471396
803912 15.9756 0.0408935
532197 17.4032 0.048554
328040 9.16911 0.0439136
225470 9.30865 0.0461133
156375 8.27372 0.0474644
127653 8.03725 0.0487803
102517 7.72472 0.0513786
72870.3 6.37401 0.0495875
73872.6 7.43215 0.0467878
50388.8 6.7756 0.0504963
50598.7 6.32483 0.0512312
41086.2 6.37653 0.0562603
40261.6 6.57155 0.0504394
30880.9 6.33212 0.0551967
30207.6 6.05671 0.0553315
28068.7 5.48113 0.0559584
23876.7 5.58887 0.0569413
16370.7 5.91033 0.0584829
25096.9 6.71539 0.0600787
19906.9 6.00325 0.0644931
14918.4 5.69097 0.0631722
13200.6 5.50112 0.0606248
12562.3 5.98344 0.0622556
10275 6.26603 0.0781841
11110.9 5.67318 0.0665364
10699.9 6.42742 0.0691194
9164.47 6.73285 0.0743284
7650 6.07132 0.0763258
8587.58 6.44212 0.0769797
8235.25 7.16037 0.0805953
6736.25 6.42263 0.0810824
7674.16 6.43294 0.0839627
6756.72 6.46864 0.0823119
6258.07 6.71511 0.0920688
5948.46 6.55956 0.0886965
5526.37 7.78542 0.0983874
5626.74 7.13076 0.105834
4849.35 7.09828 0.100745
4260.44 7.26989 0.0951058
4691.69 7.93757 0.107947
4174.94 7.18524 0.128881
3875.73 8.08702 0.12419
3771.17 7.60837 0.122054
3907.49 7.38798 0.117261
4031.56 7.99413 0.133564
3344.59 9.57483 0.156927
3414.46 7.42706 0.133111
3473.13 7.16487 0.141776
3500.54 7.32582 0.135794
3008.42 8.31917 0.152838
2885.63 8.27729 0.17973
3016.39 10.1761 0.180425
3056.46 8.23526 0.156778
2882.4 8.86831 0.186434
2977.35 8.02453 0.175614
2950.52 9.32032 0.203458
2620.88 9.37657 0.210659
2658.27 8.83663 0.192666
2732.42 10.0001 0.214667
2537.98 9.24099 0.230561
2726.68 10.0328 0.234897
2694.78 11.137 0.273209
2415.63 9.88124 0.256292
2305.85 10.84 0.309392
2488.49 11.3582 0.300832
2059.21 9.16112 0.267276
2039.89 9.27913 0.257009
1999.2 11.7264 0.355329
1902.79 12.3104 0.3828
1843.5 11.3123 0.351488
1669.81 10.9925 0.340288
1768.42 10.4874 0.332206
1769.07 11.3322 0.370278
1830.76 11.3365 0.365111
1615.96 11.2053 0.368105
1553.43 11.0195 0.375571
1662.45 13.6702 0.485021
1453.49 13.0305 0.497308
1394.99 13.1512 0.453488
1417.6 12.3099 0.469899
1324.93 11.0142 0.44154
1400.37 13.8311 0.520326
1455.95 12.2136 0.461771
1171.51 14.6895 0.584574
1240.38 13.4854 0.556554
1232.74 13.986 0.541959
1171.81 13.5301 0.595377
1025.23 12.7009 0.552764
1242.26 12.3769 0.568563
1167.77 15.077 0.674058
1094.66 12.0817 0.529886
1192.1 12.8841 0.64763
1271.28 16.1172 0.792411
1195.11 21.2237 0.950601
1136.29 14.5886 0.693091
1063.69 13.1624 0.664805
896.529 14.6537 0.751608
934.288 12.4041 0.629765
1226.55 15.5652 0.834486
1089.11 18.5835 0.997487
1042.85 14.8898 0.776935
1029.49 16.1132 0.909169
952.836 13.206 0.727397
864.208 17.0987 0.936373
994.118 13.991 0.776861
919.898 16.3767 0.954545
856.586 16.4863 0.97555
793.42 15.4531 0.987726
940.367 16.6249 1.00598
936.166 16.1747 1.01649
745.222 20.3474 1.32051
888.483 19.5233 1.32385
888.901 15.3546 1.02682
646.838 16.2964 1.05335
696.434 17.0235 1.16247
778.286 17.6382 1.20289
749.671 15.199 1.09623
791.786 18.333 1.32769
729.862 21.9428 1.54638
671.68 14.9889 1.11175
868.739 17.8411 1.32576
757.608 16.0928 1.21049
745.06 17.702 1.34813
661.25 14.8632 1.14843
632.526 21.5579 1.68303
664.955 19.3546 1.4753
558.439 16.6012 1.37903
667.222 19.0665 1.58566
621.293 16.1383 1.39122
562.625 15.5503 1.38726
664.454 19.9244 1.70582
579.315 16.6897 1.45708
653.523 19.2068 1.69995
661.623 17.0973 1.56717
569.37 19.526 1.79435
578.608 22.4186 2.04655
547.373 15.2146 1.44158
587.215 19.2664 1.81257
576.378 17.0865 1.66786
507.381 17.0719 1.6863
603.647 25.3693 2.53588
625.104 21.0591 2.11377
548.487 18.0558 1.8584
472.86 17.597 1.8586
528.308 16.5292 1.75885
476.529 15.6866 1.66393
501.215 17.8365 1.97526
580.537 28.491 3.12631
467.845 18.7025 2.03128
530.1 19.6958 2.20763
539.179 19.5483 2.15126
485.033 17.035 1.97914
492.57 19.413 2.21772
426.741 19.4971 2.32435
549.999 23.0694 2.69303
449.499 20.5353 2.47675
421.628 21.2151 2.56565
434.239 19.6772 2.4228
400.52 20.7076 2.55566
441.895 21.8342 2.7434
435.601 21.7462 2.88859
449.25 17.3857 2.2203
488.37 21.3232 2.75151
419.507 23.4093 3.01861
366.045 21.8895 2.89382
484.909 18.6963 2.52137
372.117 19.8892 2.63541
399.156 20.4782 2.77247
306.926 18.4319 2.61611
353.437 24.509 3.30903
396.69 18.4576 2.62837
369.973 19.5203 2.86015
369.339 25.4432 3.67785
358.215 19.3014 2.84306
400.331 21.7307 3.25404
352.207 20.2594 3.10038
360.703 22.535 3.48938
377.977 19.7553 3.01221
405.781 21.3453 3.54763
328.871 23.7774 3.63582
366.636 20.4864 3.39081
379.593 21.149 3.31481
398.59 22.3822 3.66293
373.133 21.4657 3.51431
394.775 19.645 3.2783
344.001 20.6239 3.42576
282.663 19.4206 3.30209
336.496 21.0899 3.68931
403.919 26.176 4.57245
366.418 29.4478 4.9935
348.657 18.897 3.26604
316.001 19.7515 3.535
295.776 19.134 3.37547
296.979 19.1382 3.53792
368.989 23.177 4.17036
282.461 23.1292 4.34842
274.426 22.0936 4.23121
326.263 23.1987 4.34404
289.405 20.4422 3.85488
267.077 21.8921 4.22401
309.372 19.3436 3.89461
311.969 24.6867 4.88594
256.324 20.2387 3.99575
335.162 24.4014 5.00042
308.836 22.809 4.4924
261.034 20.8463 4.36357
302.461 24.8676 5.0176
255.439 19.7774 4.04828
296.319 21.5625 4.45001
283.391 21.2469 4.58236
284.543 26.0751 5.40425
279.023 21.7424 4.63387
253.997 21.1936 4.64476
271.058 21.621 4.88691
283.72 24.9485 5.43726
261.963 20.682 4.56717
272.848 21.1857 4.74921
268.472 23.007 5.2442
272.889 20.3939 4.67902
278.606 21.3035 5.09158
280.922 24.4888 5.7824
262.677 20.0619 4.64835
248.746 20.7443 5.01881
257.93 22.5812 5.33239
233.211 22.2218 5.48054
240.429 19.7663 4.95557
249.81 26.2087 6.54474
252.384 22.1904 5.31964
205.597 17.7801 4.67858
246.592 20.1575 5.06951
228.483 21.4135 5.42849
228.322 22.0016 5.59391
213.066 21.2194 5.83776
212.882 21.3725 5.47904
232.498 20.4137 5.32934
236.617 22.4114 5.75664
235.373 25.7383 7.00106
191.305 21.8825 5.9341
221.892 21.7145 5.83143
212.719 22.2887 6.1061
184.623 20.152 5.54379
178.378 20.6125 5.64483
184.835 20.839 6.00602
223.926 25.3614 7.02928
183.639 20.8029 5.95838
186.424 21.4007 6.07288
218.338 22.7169 6.57928
185.767 20.7994 6.24216
200.117 23.4986 6.79681
185.298 22.7796 6.99028
193.105 25.0929 7.36758
214.923 24.4541 7.29375
153.562 17.0837 5.31588
196.464 21.4237 6.58423
181.789 21.0847 6.62736
195.068 23.4007 7.02807
181.685 23.0544 7.29225
186.658 20.2753 6.63299
178.854 24.4274 7.58309
162.895 21.9579 7.07561
170.715 21.9319 7.10423
167.25 22.1245 7.24429
182.911 21.579 6.96732
209.191 21.4486 6.84212
187.523 20.6 6.9048
157.149 23.9481 7.82674
177.046 20.1978 6.83238
185.082 18.6654 6.56951
182.527 24.7729 8.36711
163.369 20.6785 7.25342
173.323 21.3327 7.24182
154.756 20.5813 7.08049
172.737 19.5341 6.81747
147.613 20.0031 7.02362
171.29 21.0592 7.4569
157.646 25.0159 8.73203
162.409 21.6222 8.08148
142.961 21.6931 7.88586
153.521 20.4304 7.51804
158.31 20.6637 7.46802
144.75 20.2305 7.36578
119.843 18.6483 7.00165
111.949 18.7014 7.26001
110.81 20.7054 7.98819
169.077 21.6273 8.46265
147.742 30.9265 11.4545
104.898 21.5753 8.22517
132.907 22.4436 8.69871
118.349 20.2473 7.87163
129.465 22.2476 8.90601
142.245 22.5281 9.1396
139.843 21.2458 8.5585
137.737 21.3082 8.50745
140.292 22.6348 9.50779
130.01 21.5874 8.56375
132.671 22.0949 9.08822
137.85 18.5187 7.72529
122.841 20.8928 8.68495
148.167 20.6466 8.45616
125.291 19.6347 8.27027
137.426 20.6638 8.65304
129.889 22.5939 9.57718
139.107 20.9123 8.71134
125.665 19.2506 8.45648
112.577 19.3097 8.46027
115.192 23.2327 10.1842
153.026 21.7571 9.48606
144.015 22.046 9.77179
128.368 20.8626 9.3275
114.184 19.0599 8.33685
113.059 20.8295 9.53831
107.874 19.9537 9.26135
122.221 24.0302 10.8838
127.329 21.1476 9.50156
112.051 19.2226 8.89091
104.633 20.2294 9.62951
134.594 21.3931 9.77201
118.118 21.9435 10.1244
111.352 19.7585 9.55832
137.713 22.374 10.5043
125.332 22.5363 11.2512
117.86 20.2306 9.61886
123.278 24.0872 11.554
107.339 19.8341 9.73255
108.733 20.2245 9.69659
107.491 20.1211 10.2564
91.527 20.1553 10.0507
109.443 20.9779 10.3802
100.405 21.4704 10.6474
98.558 19.9847 10.0246
94.6887 20.0494 10.2585
98.4686 21.3003 10.8851
108.848 20.8643 10.9759
89.7552 20.4981 10.4345
93.4922 20.9872 10.8108
111.453 21.7903 11.3825
106.836 19.3134 9.7308
94.4569 20.1743 10.8045
93.5702 18.915 10.0568
95.2868 21.1022 11.4093
106.35 21.2572 11.2801
99.1246 17.9385 9.97189
104.949 20.0198 10.5998
108.497 20.4937 11.3301
91.8594 19.9532 10.8716
101.384 19.4484 10.9058
106.929 20.8112 11.4049
107.937 21.756 12.3116
100.006 19.9193 11.111
97.3828 18.6124 10.4313
100.544 19.6922 11.5215
110.647 20.668 11.4419
116.971 22.1051 12.8362
103.272 20.7271 12.081
102.904 18.0225 10.439
101.672 19.3692 11.0666
106.291 18.9562 10.9099
97.3722 21.2442 12.2852
86.26 20.0019 12.149
97.4454 20.1225 11.9487
106.113 21.4972 12.5875
96.1268 19.9733 11.9636
81.1137 19.9314 12.0716
88.7376 19.2318 11.6868
96.3001 20.2772 12.1349
91.7091 20.9034 12.8706
87.1904 19.4168 12.25
90.573 21.1053 12.9663
79.9178 21.8016 14.1539
90.1294 18.8434 11.546
92.4493 21.5123 13.2705
75.2897 20.7694 13.283
94.4858 22.5992 14.059
94.9612 22.7809 14.4605
83.4827 19.5854 12.4169
79.4248 19.7266 12.6741
86.266 20.7761 12.9188
89.4894 22.0512 14.3261
78.9775 20.2569 13.2979
80.2643 18.3027 12.2354
82.7374 19.1516 13.2175
92.4969 27.5991 17.0862
88.7634 18.5895 12.4022
84.7629 18.7157 12.5539
75.7384 18.7206 12.6764
86.2965 20.4189 14.0477
93.4683 18.5601 12.553
86.0875 21.5058 14.394
92.0586 21.0119 14.4973
82.5259 20.3207 13.8208
93.9619 22.1279 15.102
74.1808 22.391 16.3147
82.6445 18.5291 13.5342
63.3954 18.1822 13.0493
79.1175 20.0365 13.9002
73.6014 19.8329 14.4181
82.831 18.2808 12.9558
80.4499 18.6334 13.5034
68.3509 19.7437 14.445
83.2216 22.147 15.6479
81.2323 19.8562 14.1389
65.6133 20.4965 15.1083
69.086 19.2554 14.731
80.1197 21.0377 15.2658
71.8876 20.3559 15.1585
77.5926 20.1606 15.2179
69.4293 19.9128 15.5651
80.7322 22.5101 16.1502
86.8822 21.457 15.7313
74.0614 20.0772 14.4802
77.6021 19.0095 14.7556
69.0922 18.6582 13.7945
63.1465 18.9435 15.4054
76.009 19.7528 15.4021
74.4128 21.0605 15.9633
71.0947 21.3491 16.3671
64.3906 20.407 15.8513
65.1373 18.9232 14.631
64.8968 20.4547 16.5556
64.8454 20.1433 16.3801
67.7084 20.2439 15.4728
70.4122 20.4091 15.9975
59.2245 18.7806 15.0427
60.4422 19.4083 16.0456
65.9447 19.3597 15.8847
66.4952 18.3249 14.9498
72.299 19.752 15.6646
60.955 19.235 15.7299
66.9692 18.3984 14.9362
70.9856 19.0525 16.3364
69.2406 21.3039 16.8669
70.5006 21.0538 17.4507
70.8527 18.7121 15.6486
63.4901 19.3385 16.5704
63.7643 19.0664 15.5642
66.8625 18.9152 15.8721
67.5578 20.6063 17.776
70.7498 19.3295 16.1221
73.7304 18.4017 15.9987
68.4625 19.7376 17.3573
72.6631 19.599 16.9121
66.5413 21.1175 18.5704
67.7133 20.6523 17.9691
56.6292 19.4046 17.272
61.8015 20.5369 18.1629
62.5001 19.927 17.3034
53.4276 20.7693 18.0135
60.2108 19.7111 17.7478
56.9154 18.806 16.8923
77.7277 23.4207 21.1766
65.7575 19.2003 17.6421
52.4678 19.9388 17.5717
57.275 20.5042 19.1336
76.0574 19.0247 17.9537
55.8429 19.4195 17.2673
64.8525 20.7113 18.6509
48.2789 19.3301 17.5795
53.9801 20.3866 18.9897
69.9285 19.0854 17.8941
57.6453 19.5727 18.2873
53.7006 19.4203 18.2584
51.1046 20.8193 19.452
55.6664 18.5969 18.1057
54.18 19.6642 18.2136
54.847 19.5618 18.9028
61.8169 21.9047 19.6341
61.3445 18.6453 18.3372
48.4796 18.0778 17.71
58.0066 21.8128 21.6799
57.725 20.5905 19.3995
60.2061 21.5746 20.4834
56.6688 17.9987 18.0787
56.1952 19.9912 19.3471
51.2911 18.8214 18.9585
51.8536 20.7116 20.0426
54.1051 21.182 22.2988
62.4094 18.6445 19.9928
60.2367 28.2717 26.0425
53.5433 19.6032 20.0255
59.3043 19.7928 19.7893
52.2847 18.6786 19.536
55.0423 20.2493 20.9068
64.3889 19.356 19.2828
55.4053 21.4751 20.7093
48.1315 19.8916 21.3621
53.2875 20.6962 20.5455
48.9561 18.9889 20.2885
50.8627 21.2873 21.9949
57.4958 21.137 21.6317
50.5666 18.9751 20.7933
48.9755 18.6201 19.5174
53.5323 19.1873 19.9412
53.8511 18.2146 18.9068
47.1354 17.9868 20.1611
57.5749 20.2782 20.6615
50.6795 17.9635 19.0774
56.5223 19.6674 20.783
50.8294 19.2657 21.2771
48.7893 19.5949 21.0726
49.3549 18.6921 20.4087
52.1698 22.7308 24.0384
46.2784 19.6207 22.6511
49.1324 19.7796 21.3937
45.2232 18.1887 20.1672
42.328 19.6554 21.0544
46.9392 19.1121 21.8944
54.5359 19.6201 21.0818
47.3231 18.0741 20.6397
52.5168 19.227 21.7895
51.6642 19.7121 21.507
47.9799 19.9499 23.2585
55.8595 19.8499 22.6209
46.1515 19.0648 22.2227
53.0638 20.5252 22.3631
48.4339 21.144 24.5845
46.0033 18.9823 21.8122
48.1404 20.2849 23.1934
42.8523 18.7247 21.647
52.161 18.9799 22.4907
45.1289 20.48 23.6426
45.7161 19.3061 23.5774
47.6356 18.6311 21.602
52.727 20.2657 24.0455
45.58 19.9509 23.0429
52.2004 19.5104 22.4836
46.9049 19.0101 23.4629
52.1396 20.1732 23.0595
46.5402 20.3382 24.2344
42.9882 18.6086 22.1978
44.7794 17.5157 20.5273
42.3998 16.93 21.275
44.7525 19.4303 23.0284
43.9077 19.9586 24.2686
46.3412 19.6268 24.0619
51.0216 16.8896 21.42
43.0767 17.7833 22.2409
50.5546 16.9005 20.1829
42.6174 19.0974 24.4343
42.9549 19.7792 24.2657
45.6867 19.3475 23.2812
42.336 19.0486 24.5331
43.9386 18.8505 23.5581
46.2156 18.9334 23.7128
48.8389 19.8472 24.7649
41.736 19.6103 25.7663
48.8555 20.4989 24.8358
42.9083 19.8959 25.5705
38.8812 19.7269 25.1951
45.6746 17.1486 22.7226
37.9575 18.893 23.4034
37.7047 19.0694 24.6648
48.3168 18.6568 24.0423
43.5618 17.6178 23.1837
34.4636 18.6767 25.0332
53.0089 20.8678 27.3082
46.2186 20.7333 27.3329
43.1217 19.0106 24.2599
37.1067 18.1192 23.8673
43.8031 18.4214 23.4195
41.1165 19.1289 25.4424
46.4866 20.4828 26.7259
44.5115 18.9284 25.2772
41.471 19.2311 26.1017
41.705 20.3028 26.304
43.9029 18.0421 24.7814
37.5675 17.8318 24.0657
43.1184 21.9573 29.7681
39.402 21.2464 29.726
41.2991 19.8733 26.337
37.0535 19.484 27.8289
32.9777 19.4763 26.3948
31.1609 17.7788 25.471
54.9814 19.091 27.453
37.3437 26.6086 34.4456
36.3448 19.7541 26.2801
40.2549 20.5924 28.8421
37.3179 18.4065 25.3233
38.6499 18.423 26.7085
36.945 17.3181 24.5659
38.3562 19.1136 27.2676
37.4358 19.1012 27.231
38.7109 20.1836 28.5107
31.7689 18.4292 26.2879
37.5297 17.7037 25.3233
36.2516 18.4782 27.1194
30.2696 18.8824 27.07
36.5986 19.3347 29.1286
35.1445 17.409 24.4408
32.4293 17.086 24.156
33.2879 16.6118 25.3441
37.639 17.9105 25.3362
32.9273 18.6561 26.9329
31.1001 18.7803 27.7453
35.2598 19.7572 29.6882
41.0384 19.1609 27.3729
36.0549 18.2569 28.6769
39.7846 18.7982 26.2397
34.4183 19.3934 29.4355
39.4011 20.5445 29.9632
35.0181 18.6045 28.5284
35.1658 17.5038 26.0711
37.1456 19.51 29.0677
33.2404 17.7511 26.2433
29.6481 20.3438 29.1921
36.1107 17.7935 26.5762
30.9515 17.9922 28.4371
34.4716 19.4944 30.1677
35.3338 19.849 30.2942
36.3365 16.3078 25.4584
35.5286 18.453 27.2124
33.4825 17.7181 28.2818
31.7933 21.1792 33.42
33.0356 17.6407 26.4073
33.6569 19.946 30.3057
32.2252 19.8987 31.7155
37.2811 19.731 30.3595
30.2773 18.134 29.7761
31.2009 18.1362 28.2641
34.4611 18.0162 26.4367
31.0261 18.2938 29.1107
32.7429 18.564 28.9399
29.6858 18.6704 29.2223
30.4165 18.3898 26.8392
31.6027 17.8431 29.5593
37.49 17.4322 29.1615
31.9475 18.4334 28.0664
30.5627 17.1937 28.0909
33.1071 18.2391 29.6467
33.8209 17.7281 27.9129
29.2136 16.1631 27.1505
33.5506 18.0529 29.5513
36.2269 18.7232 29.1588
32.2009 17.4353 29.6614
35.142 19.8696 31.1612
33.0359 16.5699 28.0377
34.175 18.6689 28.8849
33.3845 17.3484 29.3729
32.4291 17.5842 29.3501
32.6524 18.4803 30.8563
31.9463 17.8331 30.5361
33.5552 19.2952 32.2309
35.0784 17.0933 27.2043
32.7963 14.8772 24.3119
30.3098 18.0827 31.553
32.7152 17.0367 29.0237
34.235 17.5019 29.429
27.9486 18.7662 33.0293
34.6778 19.6222 32.365
35.0631 18.5087 29.9953
28.8963 15.81 27.917
28.3668 17.4234 29.8797
31.2724 16.9627 30.597
31.9685 19.3731 32.5086
32.6121 18.1124 32.2696
30.1739 17.1976 29.6
29.5048 16.4889 27.9266
29.4983 17.351 30.6462
31.1578 16.7343 28.1559
31.8944 18.5651 32.4245
26.4967 17.0186 30.5816
34.5716 18.7276 34.4992
31.438 19.2603 32.3681
28.6728 17.7902 31.1101
28.8864 17.6536 31.2041
31.9466 17.1457 29.0596
27.7026 18.5373 33.0496
25.993 17.841 33.6573
32.0989 18.6582 33.3217
33.3277 19.556 37.3305
32.9173 25.4258 40.0257
29.3464 18.8265 32.553
32.454 18.3603 35.0141
28.0539 16.7702 28.8878
28.1383 15.9725 31.3283
31.6573 17.6089 32.0117
27.6382 16.3953 29.0669
29.026 15.85 30.1106
29.998 17.4932 30.6789
29.0604 16.9821 31.5483
26.8499 16.5524 28.9694
26.4497 16.7777 30.656
27.5951 18.4183 33.4101
29.0009 17.4555 33.2146
30.7132 17.1739 31.9214
33.4097 16.4391 30.5825
33.1965 16.3773 31.9926
28.7754 18.0417 32.5519
31.3322 17.265 30.8909
27.9927 15.8274 30.7027
26.2249 16.3792 31.0666
28.4327 16.4103 30.5881
27.0403 18.8328 35.6239
27.2951 16.487 30.0209
26.144 14.8627 29.4412
26.1468 17.9935 31.0525
27.661 16.0845 30.073
28.4269 16.0852 32.5286
25.2673 13.9209 26.5664
29.5787 18.7259 36.053
27.6485 16.556 32.0616
28.0517 15.7219 30.2179
24.7182 16.8653 33.0097
29.8435 18.2697 35.3432
30.5674 17.0551 32.7963
27.4588 16.6847 32.8458
25.6294 16.5562 30.654
24.9658 15.8728 32.1169
24.9494 16.2912 31.0665
27.3606 15.0863 29.8649
27.0325 16.6539 32.3671
23.1648 16.8014 32.9069
25.7511 17.1519 34.1511
27.9416 17.5079 34.2889
28.4131 16.8423 33.8402
28.3091 17.0002 33.5076
21.3571 16.1727 32.8576
28.3514 16.4831 32.7987
27.0828 18.121 35.6999
26.2899 16.3925 33.2752
29.6459 18.186 34.1353
20.6527 18.1967 34.9387
24.9812 16.8425 35.0911
24.7088 18.3219 36.975
27.1809 19.1282 40.0395
26.9984 17.413 33.6018
25.1801 17.3594 35.3583
31.4476 17.3489 35.3583
27.9045 16.6392 34.3602
29.5872 17.8426 35.1786
25.3664 17.6733 36.2969
32.3672 18.2561 35.3215
25.7771 18.4322 39.1145
25.3153 17.1738 36.6835
26.814 18.9248 39.6141
23.9812 16.3026 35.9737
28.3544 17.8917 34.6089
25.3279 18.6804 39.0802
30.0333 18.1733 34.9316
25.7834 18.4391 40.8132
22.645 17.2485 33.3896
23.8281 19.1798 41.2645
30.1344 17.2192 36.0563
24.2113 16.6294 36.6551
25.3913 19.2108 37.7682
23.5649 19.0892 41.324
24.3678 17.0374 35.6087
24.0189 18.5821 40.1096
23.1445 17.8785 36.7553
21.6131 18.4677 41.8557
21.3337 18.2165 40.8978
26.4951 20.3233 41.1444
26.1999 16.9686 36.0567
23.2832 16.2504 35.0011
25.4716 16.0255 34.4392
26.7807 19.7851 41.1037
21.6056 18.4171 40.5474
21.3687 18.15 37.8684
24.21 18.5931 40.3052
27.0614 17.8581 38.0864
21.6484 17.1971 36.9476
22.9485 16.676 36.1061
25.3195 18.2305 37.584
23.1695 16.8051 37.2698
24.3987 17.2306 36.7292
25.3579 18.8331 47.081
24.441 22.7218 46.1666
26.7033 19.5024 42.2044
24.27 17.1592 42.6473
23.8797 18.0499 39.5204
25.5171 18.9191 41.1761
28.5362 17.6579 41.9698
25.7099 17.084 38.563
24.2203 19.5468 43.6248
25.5215 18.4083 40.1832
26.182 19.0857 45.029
23.9118 17.3713 34.2467
27.5658 17.6118 43.0123
25.4592 18.0339 39.7472
23.8913 17.5954 37.0018
28.2412 16.2593 38.803
27.9795 19.3013 42.0715
24.3 16.7015 37.675
28.0248 18.6505 40.3306
23.9644 15.069 38.6953
29.7112 16.2051 35.5568
20.4403 15.6036 38.351
22.7879 18.3295 39.3189
24.3938 17.8951 41.9556
22.3022 17.5493 38.9175
23.0116 17.8676 41.2032
23.6139 15.2543 35.2293
22.3312 17.4235 37.5733
21.2195 15.13 37.5639
20.7986 15.7966 37.8561
20.9173 17.1761 39.7198
22.6779 14.6552 34.8538
21.1477 15.0924 37.97
21.7546 16.7817 36.8295
21.874 17.0429 40.3592
24.9403 15.1958 34.5989
20.54 16.1093 38.1505
22.1328 16.7046 40.0034
23.8421 17.2491 39.5688
22.0974 15.611 39.7952
19.0231 16.6132 37.2099
20.8938 16.6655 42.7175
27.0187 17.3964 38.2812
20.9229 15.9561 39.9595
24.3782 16.9726 38.4612
22.285 17.422 42.4157
24.3049 15.6497 36.3198
21.031 16.855 42.198
22.5929 16.3535 37.9502
24.4213 16.6158 39.907
22.6873 14.7138 34.7964
20.1828 16.6458 41.417
22.9818 14.8718 37.3676
20.2044 16.0751 37.896
21.6062 15.3523 37.2845
25.1558 16.3263 36.0683
20.3666 14.2644 38.3752
21.2835 15.3454 37.0921
23.8963 17.0889 41.949
20.5317 16.738 40.8697
25.8034 16.5388 41.8084
22.4077 15.0897 38.4833
21.4912 17.5687 42.3005
19.6191 16.6232 40.1152
