# pn-170911/RbIIA-34-KOKB-1280-1959.psd
# Power spectrum* (dif=0,1,2) (really just |FT|^2)
# NOTE: only the first half! (symmetric)
# weeks: 1280-1959
# 6 clock-days, 1 excluded
# PSD: 1441
6090.35 0.307619 0.00890289
170002 2.62986 0.00109981
1.3059e+06 26.8999 0.00181659
43331.4 1.79072 0.00113583
180636 13.7916 0.00151533
83008 9.94475 0.00121589
34518.6 2.81011 0.00153512
27033 6.04801 0.00338636
23091.7 4.58857 0.00282713
12563 4.74025 0.0031305
27937.8 10.1572 0.00596007
8860.59 4.39417 0.00314656
6554.8 4.26951 0.00347647
14351.1 10.7692 0.0107509
12169.9 9.04177 0.0113585
3691.32 3.98512 0.00373265
2192.24 2.31659 0.00263687
4590.99 4.59761 0.00583989
3342.23 2.11595 0.00311405
5983.4 6.1405 0.0127477
1496.19 3.12873 0.00619026
4405.96 5.47919 0.0128462
2661.32 4.71254 0.0115794
2221.34 3.75741 0.00994466
949.584 4.80129 0.0137601
1618.14 4.24454 0.0109806
2534.11 5.68294 0.0224566
3190.83 8.78202 0.0257883
1494.71 6.12599 0.0272835
1253.34 5.38676 0.0237359
1659.17 5.71043 0.0240687
831.069 2.78542 0.0124718
1417.38 7.39243 0.036686
1297.13 6.21506 0.0299712
1596.35 9.09235 0.0465487
846.641 2.77922 0.0215834
914.43 3.4695 0.0222732
475.241 2.79502 0.0169617
609.141 3.87188 0.0264184
436.485 3.39284 0.0256097
746.119 5.31871 0.0327171
862.553 6.79624 0.0590323
851.974 5.79417 0.0459033
844.263 6.97695 0.0604905
343.417 2.75139 0.0264805
505.537 4.70829 0.0511875
377.177 4.20068 0.0463989
416.28 1.96929 0.0291857
390.917 3.73449 0.0395725
730.559 10.8518 0.123065
367.079 4.88349 0.0656188
586.4 4.05896 0.0570569
384.683 4.56685 0.0543488
282.271 3.26802 0.0407882
468.378 3.97874 0.0485554
441.184 3.42305 0.0447104
606.866 6.49109 0.101706
533.265 6.29437 0.108693
401.83 3.08072 0.0430066
302.584 3.53451 0.0538658
390.878 4.97038 0.0847236
537.718 11.6147 0.199774
481.734 7.91968 0.151263
492.182 5.32201 0.100382
430.785 8.78064 0.17958
400.909 5.50418 0.111454
166.335 2.98435 0.0552513
220.075 3.63851 0.0800042
162.824 5.05765 0.110478
185.432 3.8341 0.0921319
207.499 2.92295 0.0746486
540.734 10.7229 0.28077
597.509 11.359 0.276175
219.968 4.58093 0.124117
264.407 6.98905 0.202813
199.01 3.63391 0.0821817
191.494 4.42368 0.126383
196.742 5.69904 0.150252
131.547 2.23087 0.0719696
329.695 7.37016 0.203403
265.348 6.69748 0.178509
226.182 3.73736 0.119104
219.361 5.71442 0.163368
277.884 9.56287 0.314767
351.57 8.24881 0.280931
171.289 6.65305 0.227193
147.938 3.71003 0.133018
236.857 5.35079 0.217271
109.477 3.10623 0.109358
161.717 6.59892 0.248609
94.5666 3.47415 0.132648
352.202 9.65172 0.366437
220.533 10.6906 0.422389
166.746 6.02342 0.237177
91.9357 2.8979 0.112561
199.772 6.83946 0.305573
230.864 9.51975 0.395282
210.639 5.94465 0.261416
190.26 8.21338 0.387351
99.5148 4.418 0.201047
76.9418 2.53088 0.115066
129.634 3.27119 0.154171
172.22 5.39805 0.281515
183.867 7.21777 0.364566
105.947 4.91689 0.242759
132.703 4.60635 0.240446
101.379 3.14656 0.151245
136.492 5.55765 0.296984
94.1943 2.34217 0.13493
91.9514 4.28564 0.248007
82.8139 2.81779 0.154958
42.9414 2.95131 0.158128
89.1766 4.17349 0.263282
78.0992 3.53898 0.214777
96.6865 5.47332 0.350092
176.674 8.58324 0.545193
125.576 5.76525 0.378867
78.8472 4.80168 0.306789
101.061 5.00156 0.320036
75.9903 3.90225 0.306875
93.287 4.90364 0.319195
95.2635 4.6559 0.283909
109.961 7.26561 0.492966
145.526 5.86066 0.426147
123.944 7.04481 0.505124
83.8596 4.04109 0.29998
64.1387 5.20374 0.379369
58.4879 3.72285 0.262811
97.6154 7.95526 0.627586
65.0487 4.60264 0.385845
71.1818 4.16525 0.342744
111.352 6.68553 0.589008
26.8503 2.20814 0.186264
54.3159 2.98579 0.245876
116.882 6.21032 0.547335
54.0854 2.68219 0.208748
34.0252 1.78696 0.150497
64.3691 7.29645 0.680441
55.268 3.09379 0.269511
94.8721 7.08638 0.621216
74.3824 6.31868 0.591357
40.022 2.82859 0.273809
34.8298 3.17563 0.333956
60.5049 4.75799 0.425499
70.3703 6.29828 0.596921
53.0409 3.62841 0.327004
40.8301 2.27061 0.236297
86.3565 5.30007 0.520598
72.1256 7.25959 0.716858
56.6084 3.84078 0.41579
54.7551 7.03685 0.795246
32.8781 2.90518 0.297943
41.5265 3.62458 0.435408
74.5583 5.75753 0.677856
28.6793 3.37883 0.343944
69.4597 7.91623 0.952571
104.343 9.18742 0.985144
103.906 8.01805 0.970003
16.494 1.94141 0.234551
62.2425 4.14437 0.481359
21.2952 3.74673 0.469847
101.251 6.94591 0.790749
51.3234 4.81306 0.593367
92.4649 8.07828 1.04503
33.6758 4.50431 0.560901
72.753 5.87051 0.650706
108.73 11.1111 1.48903
37.3327 6.5686 0.767379
65.0981 10.1018 1.27717
28.5777 4.27808 0.667227
41.2139 4.52248 0.577303
40.1214 2.94139 0.3951
63.1572 6.31894 1.004
51.4135 8.65485 1.1984
12.5825 3.44601 0.462512
25.9087 1.70658 0.201154
40.1262 4.51749 0.702134
33.6967 5.33371 0.7871
48.0382 8.0557 1.23122
58.4174 7.02541 1.0388
38.2429 3.67719 0.657911
44.1896 3.32362 0.453484
70.1953 7.57957 1.1659
40.2047 3.9218 0.642905
32.7652 4.06972 0.663175
57.8463 8.29289 1.36156
20.5625 3.66701 0.557575
68.6618 8.12971 1.365
62.8588 8.9348 1.39931
28.3905 5.20099 0.961285
17.2849 3.35256 0.517452
40.6695 5.45184 0.958125
30.871 4.65296 0.757959
40.4467 5.62416 0.986512
29.8261 6.43587 1.13645
30.4301 3.06276 0.519445
47.5147 7.50618 1.36295
49.4176 8.8324 1.53631
42.7016 5.51516 1.12511
25.9241 4.54659 0.955917
74.8779 10.199 1.81135
24.2284 3.19154 0.694002
37.927 6.75045 1.24075
31.3665 4.88498 1.14578
47.1588 7.88284 1.45816
48.2846 9.86222 1.99775
23.4401 4.74421 0.778795
15.2268 3.13248 0.591429
28.2323 6.36796 1.30062
20.6037 2.45685 0.547796
31.7622 3.24957 0.688935
34.7658 6.54603 1.34278
40.4295 5.34814 1.20444
15.0005 3.56279 0.794216
33.7085 5.00191 0.989581
32.8554 6.16739 1.2534
44.6955 6.38458 1.57722
28.355 5.45695 1.39605
24.6876 6.32221 1.26542
16.6225 3.09372 0.860178
20.9723 3.68895 0.684815
24.4233 4.89077 1.18682
41.7875 10.3163 2.13177
9.7221 4.16448 0.914739
24.4443 4.86084 1.10541
28.2521 6.91973 1.76608
17.695 3.89039 0.815976
24.9811 5.40789 1.39765
33.6761 6.89578 1.54429
18.8396 3.87378 0.965191
29.2234 7.01756 1.74488
33.7543 6.45535 1.54143
4.10918 1.34488 0.396025
21.2697 4.02927 1.11851
16.9858 5.13742 1.39148
37.1018 6.12889 1.37804
22.9772 4.61676 1.09473
20.6046 3.80552 0.976766
10.4956 2.79914 0.94331
40.3407 8.10547 2.05695
19.1449 3.89169 1.2609
45.1526 11.0918 2.96514
31.3177 9.10431 2.48664
34.2133 4.63028 1.15017
26.4588 7.97814 2.21102
36.3362 8.69416 2.35254
19.8852 3.55771 1.08562
38.8891 8.21365 2.49857
27.9788 8.9146 2.41144
11.9698 3.51476 1.10971
10.9601 4.0958 1.54765
38.2822 6.37367 1.39737
38.726 9.32552 2.93932
25.8229 3.51243 0.695096
37.4118 7.94509 2.31934
17.7166 3.49421 1.26708
16.4049 3.62972 0.957729
17.669 7.02856 2.12554
23.7702 4.21216 1.45693
18.5414 4.20262 1.26949
15.2617 6.29771 2.26837
39.9806 7.97755 2.17066
18.537 7.29757 2.30242
23.5861 6.13108 1.94544
30.9466 6.59341 2.12127
21.0398 5.84008 1.90098
28.1177 6.02396 2.19994
35.9189 12.0889 3.68878
27.824 8.1533 2.73701
14.3811 4.74124 1.56939
29.2516 8.28673 2.49256
8.84983 3.02488 0.998338
17.7571 4.457 1.36384
17.5429 6.55682 2.42933
5.98648 1.30904 0.471141
8.25774 2.12303 0.837463
17.4189 4.24045 1.46322
10.848 3.09158 1.21643
27.5382 5.96542 1.81225
16.3176 7.18473 2.95819
11.0396 1.56678 0.450646
23.1134 7.26591 3.06828
19.9939 6.52788 2.00509
13.9329 4.5084 1.35186
26.4034 9.51063 3.50779
12.6414 6.1984 2.30017
17.1561 5.69315 2.0092
20.6659 5.7163 2.34692
14.8163 6.10887 2.2384
11.1027 4.7295 2.07643
13.4548 5.54811 2.277
24.3104 8.48053 3.70278
13.949 2.89939 0.881681
10.0949 4.149 1.80219
15.0047 5.81878 2.36495
8.99561 2.12758 0.736391
10.595 4.73662 2.04836
12.3584 3.36587 1.26528
16.4856 6.87886 2.7477
12.7081 4.2986 2.05522
16.3162 6.76612 2.45922
14.3993 6.53782 2.74666
20.612 4.80709 1.72971
12.9159 4.99473 2.57403
34.6898 11.3695 4.03459
16.6278 8.0881 3.78932
14.4518 6.95638 2.65479
20.4841 6.30099 2.5293
15.0556 9.63129 4.70411
22.2775 5.82968 2.09203
23.9763 6.47354 2.63704
8.62053 3.82272 1.77949
13.4965 5.72084 2.71839
18.6333 3.88188 1.49784
13.4559 4.36803 2.19251
23.5149 6.83842 2.91263
7.24095 3.15486 1.39997
15.3148 6.1147 2.82769
8.32149 3.23527 1.9162
15.2348 4.13154 1.92
12.1935 5.44707 2.29601
10.6587 4.45565 1.99695
11.4716 5.54568 2.6328
15.4243 5.52741 2.71118
20.5404 7.82533 3.97703
9.33169 1.6799 1.08262
10.6314 5.8217 2.72769
12.952 4.74169 2.31001
19.5654 12.9668 6.30754
17.3138 6.63462 2.93809
9.80288 2.8963 1.27229
5.8835 3.57026 2.18727
25.4225 9.96037 4.36277
7.7801 2.91797 1.59096
15.1327 8.48846 4.96523
14.9493 4.70335 2.39004
10.5876 3.50507 1.41239
5.21799 3.4734 1.98672
13.2381 4.31576 2.03079
17.0734 6.45364 3.57794
9.85569 3.62159 1.87383
7.16228 3.67583 1.76033
12.1582 7.79477 4.29634
11.4176 3.69754 1.92487
4.51229 2.34103 1.36477
10.257 3.46774 2.01183
20.4003 8.88503 4.8644
14.8596 8.92088 4.17237
5.5606 3.28084 2.01416
8.09009 4.71831 2.9862
9.23108 3.31137 2.32522
14.8875 5.93371 3.50965
15.3471 8.79954 4.32927
12.4907 5.39842 3.10345
4.79286 3.20099 1.80868
15.1837 8.92759 4.71315
15.056 6.39415 3.74051
6.59367 3.3209 1.68561
11.4751 2.77388 1.65103
6.52751 2.9356 1.92553
9.29527 7.36892 4.2479
14.6857 7.37742 5.17946
14.4491 7.16725 3.19971
4.90081 3.63463 2.21572
11.2935 6.07162 3.37628
16.3413 9.76632 6.2419
12.0887 4.59103 2.49077
8.38142 5.55788 4.01895
18.2408 7.65002 4.51578
9.0988 5.31965 3.17704
15.3937 7.77439 4.76799
12.7107 6.4888 4.35599
7.68405 4.00787 2.62336
10.3305 4.81522 3.42225
30.4593 12.8633 7.53578
8.72202 5.54128 3.70954
12.4088 6.03238 4.50253
14.9032 4.87317 2.31405
12.6834 6.60423 4.37384
13.3259 6.85132 3.99796
10.0447 5.79088 4.63844
11.9397 8.88993 5.9326
10.8205 7.89595 5.18363
17.0629 6.20075 3.80807
6.82216 5.18546 2.9757
6.56247 6.56868 4.42446
8.46688 3.04449 2.31491
6.37241 6.42821 4.06605
12.4158 5.95656 4.71311
14.5965 5.67972 3.57997
6.43953 3.31946 2.01015
8.22172 6.92251 4.47213
7.12767 2.35247 1.42811
6.96613 7.23379 4.87224
10.279 5.28959 4.16375
20.1339 12.7949 7.94493
12.1296 10.875 8.74634
7.60931 4.21465 2.88429
7.02114 3.83631 3.04996
13.37 6.55194 4.30403
12.9984 6.59616 4.55467
6.26738 3.7709 2.90266
12.4282 9.52785 7.36837
14.096 5.87343 3.92349
10.3302 7.79995 5.5981
19.2555 11.7883 8.21014
12.9339 9.86951 8.29099
11.5501 5.8614 4.18828
9.44759 5.5682 4.60984
6.33153 2.61129 2.02167
7.20271 2.67437 1.88929
11.1524 4.17481 3.09249
16.4123 8.32804 4.90319
8.07105 3.34558 2.36912
13.8486 6.90918 5.14946
8.09796 6.10626 5.07944
4.67138 2.5051 2.26846
8.97505 5.89146 4.45504
4.99942 3.36212 2.28773
14.7382 8.98434 6.99484
6.29395 4.38222 4.47065
10.3555 7.51809 4.17586
4.82868 4.86073 4.43269
5.80131 3.20747 2.28581
8.51082 5.65555 5.75148
15.8267 11.7282 9.04232
7.8806 4.1176 3.40378
16.0765 11.7308 9.1221
7.77362 5.93654 5.58692
8.1982 5.84064 4.72995
9.08582 4.35783 2.28309
11.8418 9.78292 9.3195
5.69408 4.00566 2.65478
6.06266 3.19218 2.17331
4.09987 4.07728 4.54448
14.2586 6.03482 3.4681
6.98829 3.51511 3.44377
9.29307 5.25586 4.03657
8.53876 4.3283 3.46909
9.21773 7.66844 7.60509
11.8086 6.92623 5.04472
4.93018 4.85806 5.7045
9.73647 6.16614 3.78007
7.88612 7.72497 6.5968
4.31042 3.23806 3.63529
5.85314 3.69437 2.71151
5.26512 6.50642 6.09361
6.41669 4.50382 3.58924
6.17004 4.13337 3.98882
5.57579 4.44572 3.69079
3.39698 5.30574 5.1175
7.19625 7.50337 5.72215
2.6002 3.08951 4.12306
7.40462 4.77167 5.34329
10.6774 8.01837 8.08795
12.7591 6.8503 5.45256
12.7196 6.95455 5.40096
7.48347 4.49369 3.7117
9.97016 8.19449 7.83826
14.036 9.75248 8.00288
4.14138 4.76334 3.9482
8.69058 7.70417 6.9683
7.01045 6.61034 5.8711
3.96301 2.30142 1.84935
7.75836 9.03797 9.56876
9.11027 5.96345 4.56431
7.07962 5.3674 5.5497
5.97574 5.38436 7.16041
9.15448 7.00617 5.39055
7.93395 6.51347 5.88838
5.06473 4.06586 3.74191
10.2311 6.62985 5.36947
6.43187 8.31221 8.78648
5.05371 5.25852 5.48125
7.48828 4.4924 3.58802
6.18614 6.2367 7.13538
7.01294 5.71927 7.79509
6.14939 3.20566 2.27814
6.3113 8.47247 7.8136
9.6656 8.71075 9.45368
9.80846 8.66216 10.8599
11.7829 7.83801 5.82024
9.21316 5.0653 4.00876
4.66785 5.70481 6.01135
12.4427 9.84914 10.2778
7.26206 6.5359 6.36607
5.36814 6.52239 7.9033
4.05982 4.67373 6.01613
6.20227 3.84234 4.48561
11.4479 9.71181 7.80174
6.75332 4.66868 7.04028
18.9167 15.251 13.5612
9.81354 8.22288 9.49976
6.69237 6.72192 6.55577
8.13909 5.3507 4.84893
4.05459 3.58846 5.96512
9.21138 8.57574 7.9259
3.73271 5.98845 7.92288
8.82117 8.62363 10.9635
7.4029 6.09232 4.37724
6.65616 5.07679 5.94801
4.61631 3.50534 3.52492
5.61737 5.66044 6.98278
3.1367 3.19832 3.54757
2.87985 2.44524 1.99313
3.02787 4.00598 4.22596
6.12169 5.07385 6.18579
5.20168 3.18389 3.94531
2.73936 3.02989 4.1604
4.39277 4.8983 6.13722
4.6934 5.02176 6.11104
9.68062 10.4679 10.3909
2.46975 2.17152 2.21166
3.81052 5.95265 6.50035
3.73677 4.8423 5.52015
8.13125 8.50666 8.58572
5.65179 4.23911 6.32798
8.41611 6.95712 6.71771
6.42084 4.6715 6.03657
5.71919 4.38859 4.97838
5.25204 5.02607 4.95737
5.55411 6.58892 7.39473
8.85363 7.50327 10.0182
6.11382 5.99024 6.97699
3.97887 3.93717 4.24127
9.28001 8.56898 9.82931
7.62167 8.62288 10.8432
6.30023 5.7419 7.25515
3.5896 3.437 3.70243
1.49849 2.53612 4.62729
5.19171 7.9893 12.4012
12.6379 7.89412 4.85417
4.92436 5.63616 7.72584
8.87872 8.93574 8.11294
4.75652 3.37735 4.60465
4.16599 5.83413 9.26961
7.30676 4.65021 4.06101
5.15403 4.22305 6.37522
6.38001 4.36618 4.28706
7.04175 6.02049 5.45746
4.04406 5.69449 7.12971
4.48014 4.47059 6.42376
6.84268 6.21673 8.01061
4.82508 5.62264 7.68565
5.61492 4.28557 5.23834
5.22874 3.18215 5.62569
9.74739 9.58279 10.6903
6.15208 3.73315 4.0633
7.55768 5.49978 6.06625
7.23964 9.50885 13.95
8.51366 6.86965 7.52537
8.18437 12.034 15.4207
3.4238 2.37084 3.74711
6.00659 5.47393 7.3668
5.23659 4.05491 5.4006
12.0383 11.74 14.6505
7.13997 8.9653 9.52381
4.68734 3.51908 5.00951
7.28002 6.63127 10.1382
4.57323 3.69521 4.61148
4.06391 2.83667 2.32849
8.2375 9.85153 11.2051
6.56029 5.88983 6.29666
5.61793 7.70631 12.6435
4.69017 7.13127 9.25917
3.58186 4.24762 6.32057
4.42644 4.49147 6.92095
8.90696 7.79845 7.18227
3.06174 3.69548 5.09285
6.81685 6.04349 7.64537
3.80792 2.59917 4.66982
4.28241 6.38009 9.12752
3.58937 4.66314 7.09937
4.08909 5.19588 8.92238
10.8844 8.49733 7.73845
12.9269 15.9661 20.9541
4.07025 8.72586 16.9089
5.5814 5.87606 8.88294
5.3625 5.96433 8.54972
7.50539 14.365 16.5848
3.51919 2.05394 4.18025
4.54284 6.74546 11.6795
8.72705 7.97207 10.9555
9.18502 8.61245 9.03971
6.82428 6.87706 8.66953
3.92694 9.33237 19.5928
12.7255 7.80554 4.90237
11.5514 13.1326 17.8616
2.86491 5.87689 12.3368
10.3454 12.5996 17.4555
4.45069 4.87356 5.49527
2.43566 5.09711 8.16922
8.11585 9.31242 13.4466
1.71362 2.0728 5.91533
5.82783 6.95854 7.06598
1.379 1.79537 3.39722
1.70714 1.81318 3.44457
2.63855 2.9833 5.95488
2.26721 3.57259 5.73203
3.08427 7.46087 11.0405
11.5967 15.4375 19.8558
9.28136 16.9255 27.3886
3.71997 3.15303 9.99247
9.89329 14.4336 14.3702
1.54285 2.73772 6.89644
6.65761 9.42269 12.8715
5.09658 4.114 6.70437
7.4175 15.7745 24.6577
6.07503 7.63753 10.8049
4.55503 5.50224 8.80246
3.83489 7.57624 10.8218
3.96081 6.55254 11.1803
5.49056 6.43034 8.58519
4.64165 7.53964 13.9503
4.0789 3.49273 8.53281
8.51434 9.4753 13.5033
8.49375 16.186 19.3579
2.7068 6.59125 14.4171
8.70786 9.92154 17.4791
6.65846 4.99455 9.03627
9.4563 9.90015 15.4241
6.90119 11.0072 17.7696
8.79708 8.39956 10.6662
9.26435 11.4994 12.6574
3.48786 4.21138 8.28035
4.70993 5.90477 10.646
7.06609 14.8419 23.2967
5.01832 3.78149 5.98751
3.75378 10.3876 17.0426
5.24958 6.4863 18.0886
6.84047 5.36062 3.06086
3.76076 5.71812 7.30978
3.40268 7.91157 16.6424
6.73649 7.38321 9.67577
10.068 16.981 26.5819
6.10935 5.29149 10.1988
4.19627 3.81083 5.64841
5.55449 8.46567 11.0334
4.79594 6.41642 11.5129
2.22221 4.11069 8.53634
4.66487 4.73657 9.89667
1.73297 2.58081 6.01154
4.57634 5.67333 7.84205
5.31524 7.01164 13.0608
7.89244 11.3406 14.845
2.39568 5.26238 9.65743
3.044 3.71673 7.35083
3.54319 4.44886 6.34511
4.05756 8.30078 9.84751
3.77981 9.0176 17.5887
3.36628 5.78395 14.724
9.03765 11.0743 16.1926
4.26993 4.66482 10.7768
8.19617 13.0483 19.1226
6.43695 9.52223 17.8627
4.45961 5.92248 9.53413
5.75673 9.61162 18.3682
5.85641 6.16571 11.6396
6.03581 7.31216 9.63341
7.64138 12.232 24.6079
4.49084 4.45358 13.3069
7.6744 11.7731 18.5297
5.49072 6.16032 8.38549
3.25798 6.27898 8.17463
4.00336 7.16327 14.552
3.9105 4.99013 7.80216
4.45562 5.24591 9.54454
7.85368 11.0012 14.0629
5.85867 11.2264 22.0173
7.3733 9.04142 14.3734
3.13627 5.74655 13.7509
4.20836 7.44892 13.7145
8.49371 9.80953 17.9033
3.1139 4.18475 4.74143
2.49742 2.38459 5.83654
5.99185 9.14222 12.7305
2.63255 6.21969 12.9582
3.00326 5.92903 11.9248
5.25326 7.58419 13.1124
4.99875 6.77545 12.2283
3.80423 6.40744 9.05112
3.23773 6.91193 15.1914
3.0486 4.23527 11.3884
3.59117 4.93799 14.4912
5.25726 8.47915 14.0551
5.13919 8.44427 17.4495
6.09052 8.73144 9.80679
1.66789 4.99805 11.7738
2.87658 3.35722 4.21197
4.62497 12.0844 29.6782
6.34313 10.942 17.9166
5.03916 8.18806 12.925
5.14019 12.1077 20.2804
5.06955 6.38197 9.02443
3.80589 4.50173 6.39767
3.41363 6.343 9.57924
3.61855 9.27163 21.8191
4.92411 7.80205 18.4674
5.13062 5.21265 6.35934
1.83312 4.19531 11.7104
2.06998 6.09774 15.4429
7.43881 13.3619 23.4523
5.57885 9.31433 16.3631
5.85071 13.1827 27.1743
5.58779 6.02275 9.65661
4.1206 6.17877 11.5752
5.03956 7.51491 15.8247
3.71263 6.41757 9.58312
2.79855 6.0606 10.6197
2.98596 4.05223 10.6778
5.47951 11.797 20.5551
3.53309 6.26229 14.9174
5.55928 8.79179 17.0218
3.35109 6.99441 21.7922
4.60645 5.81193 11.5047
5.6397 7.41844 11.3285
3.43334 7.99746 21.5578
6.03706 7.66551 9.47299
3.53688 7.07307 17.0632
6.85168 9.60982 19.3038
5.21378 5.47873 13.3963
7.51941 13.4125 21.5116
4.13841 3.87351 6.10792
2.89349 4.58954 8.70842
4.81395 7.61062 13.0866
3.43506 8.93069 23.8615
4.84924 8.49534 16.3919
3.11247 4.61269 12.3039
4.26035 9.21703 16.2498
3.25994 4.81173 8.51334
2.90149 5.13157 13.6379
5.15537 8.3881 14.8999
3.32913 5.5004 10.9142
5.33348 15.0233 27.577
1.93618 6.65795 22.1262
6.41206 3.69801 6.97751
6.02505 8.88945 18.5757
5.41495 11.623 26.3796
6.53651 8.77641 13.9074
2.88523 4.15142 12.0559
3.73504 11.4587 20.6552
2.8652 3.71648 11.5148
5.44158 6.72298 13.0775
3.75214 8.52584 17.7593
5.30226 6.58068 12.6911
6.355 7.47592 16.4252
3.35852 5.98201 14.4236
5.5163 7.53869 20.459
7.47034 11.6774 14.3216
3.98331 6.59795 12.6649
3.04056 6.94215 14.7969
7.42269 12.1557 20.1277
2.7813 4.7395 9.87089
4.37345 9.67344 17.805
5.35167 15.1689 27.9085
2.74156 6.1439 20.5311
3.7746 7.01397 20.9894
4.28773 4.55303 15.8686
5.71331 8.54763 9.90811
3.86821 11.6125 23.0119
1.46469 3.51694 17.0238
5.40496 9.1705 12.7941
4.45496 11.8793 21.5943
1.40725 2.80109 12.6099
2.50442 4.08416 9.25988
5.30286 8.70768 18.486
5.14834 13.3591 28.7847
4.37153 9.20964 17.3133
5.03504 8.49989 16.289
1.84354 2.56561 10.0726
3.41341 1.68729 3.67544
6.56301 13.1029 28.6891
2.96264 7.40085 18.0042
2.05469 1.78324 3.08073
1.90292 6.53092 20.9752
4.59403 7.4331 19.2183
4.85188 10.0055 17.365
5.12487 7.6129 13.8536
3.2592 5.86834 6.47744
2.24649 11.2738 29.1445
6.32727 10.1897 21.3621
3.94019 7.95988 21.0419
3.69907 7.51401 13.2259
1.55748 2.98708 12.6876
3.9951 10.0122 20.335
2.68119 4.98188 18.7786
4.8168 8.75973 12.9107
3.69579 11.6001 20.224
3.65224 10.2507 32.3564
6.00095 7.79351 13.4728
5.12407 13.0487 32.0724
5.14679 7.81199 31.1859
6.1048 9.06463 16.5509
5.45179 8.36736 8.26629
4.13553 11.2398 29.4023
8.35983 12.3499 19.2647
2.21817 4.55052 15.1542
5.13485 12.173 26.872
2.65686 2.21337 4.6318
2.31524 5.76405 11.5531
1.91057 3.87386 10.5215
2.19075 5.55134 15.9077
2.58985 4.60349 13.3716
2.63491 5.22554 8.42255
2.90893 5.49893 11.5428
2.32727 7.26739 21.2391
5.15636 13.5155 28.7034
3.82129 9.95543 19.9914
5.75498 14.3832 35.4417
2.48327 9.13474 37.57
6.7746 6.45617 10.0311
2.47278 4.33174 10.6169
2.46308 3.67972 6.85582
3.59424 10.6436 24.5981
3.71884 6.14222 13.9875
3.15255 10.7072 30.8031
4.61683 9.6039 22.979
2.94273 4.0302 16.142
5.41628 6.17172 9.78013
2.2207 4.28621 9.03264
4.03825 8.83317 19.4647
2.11538 3.66906 14.5238
3.45683 6.3151 10.4837
