# pn-170911/RbIIR-av-PTBB-1280-1959.psd
# Power spectrum* (dif=0,1,2) (really just |FT|^2)
# NOTE: only the first half! (symmetric)
# weeks: 1280-1959
# 117 clock-days, 7 excluded
# PSD: 1441
989.75 0.0956258 0.0255256
31674.1 0.551821 0.0294677
153878 3.20676 0.0271519
28866.2 0.99653 0.026721
49707 3.79804 0.0264951
5755.79 0.564313 0.0277756
7436.24 0.956658 0.0273717
4621.35 1.00208 0.0241887
5511.72 1.50977 0.023887
2611.54 0.844533 0.0199706
2674.1 1.08675 0.0233778
1696.51 0.860581 0.0211277
2420.32 1.34042 0.0217082
1521.35 1.07842 0.0202837
2248.61 1.9519 0.0211269
1184.26 1.04681 0.0198423
1938.4 2.40447 0.024077
1295.72 1.81091 0.0261026
1861.88 3.03738 0.0266867
946.371 1.41839 0.0255069
1391.54 2.53289 0.0275213
1008.93 1.79135 0.0327114
1170.82 2.36949 0.0333506
691.917 1.62953 0.0312122
1065.83 2.70275 0.0366304
527.75 1.36609 0.0322893
954.095 2.9117 0.0359914
636.855 2.12887 0.0359914
797.594 3.11802 0.0384399
677.429 2.59003 0.0394992
823.898 3.2602 0.0361567
519.275 2.22114 0.0293315
847.53 4.05778 0.0466233
913.756 4.21218 0.0513771
975.106 4.93887 0.0521467
576.083 2.89134 0.0470279
646.508 3.87155 0.0384838
615.962 3.87127 0.0418639
584.022 3.5408 0.0397948
538.604 3.80271 0.0503594
642.139 5.04963 0.0592022
475.879 3.58127 0.0468476
654.779 5.1023 0.0605134
494.496 4.21158 0.059296
449.462 3.92029 0.0635117
463.527 4.31122 0.0673944
559.274 5.5055 0.0819779
429.564 4.48941 0.070453
479.503 5.21692 0.0842156
609.586 6.92626 0.107104
446.743 5.02319 0.0844736
543.311 6.36139 0.104428
495.916 6.15053 0.110279
491.978 6.38633 0.105794
524.207 7.16973 0.125004
407.493 6.03922 0.117005
430.488 6.39949 0.129046
385.821 5.70953 0.116475
452.002 6.86297 0.127323
450.033 6.87408 0.1395
498.279 8.2144 0.177119
457.889 7.77749 0.173981
475.138 8.18108 0.176763
402.74 7.41177 0.154699
472.878 9.24391 0.193669
424.558 8.59009 0.192244
458.033 9.26879 0.195398
329.499 7.08827 0.177372
417.736 9.19274 0.203681
492.434 10.7767 0.271638
439.207 9.79539 0.236463
428.064 10.3739 0.285888
486.864 11.806 0.302439
302.98 7.60618 0.22193
353.029 9.10258 0.264836
331.907 8.85523 0.259009
336.859 8.76658 0.278013
380.114 10.5364 0.325671
341.889 9.49273 0.299607
372.613 11.0517 0.365629
348.353 10.202 0.373989
289.404 9.0908 0.320349
296.336 9.112 0.324328
377.86 12.1499 0.426758
274.873 8.97588 0.345305
296.999 9.85096 0.36425
338.343 11.482 0.398242
322.58 11.0253 0.433925
335.42 12.6144 0.527167
303.672 11.0905 0.446738
287.001 11.0797 0.444025
310.378 11.3727 0.457585
297.512 11.3763 0.478261
245.927 9.74209 0.408326
246.813 10.1047 0.456609
251.418 10.676 0.46112
347.112 14.8957 0.686888
245.017 10.8703 0.505764
385.962 17.7821 0.859785
260.6 11.5205 0.566272
263.138 12.7128 0.60793
302.833 13.9568 0.69595
256.159 12.6121 0.697271
226.429 10.9968 0.580011
288.542 14.8344 0.796118
217.687 10.8368 0.592018
235.969 12.4612 0.705058
278.741 15.0106 0.84454
255.57 14.0833 0.832062
241.907 14.2612 0.827229
237.021 12.8296 0.758427
212.699 12.3654 0.791914
237.782 14.0354 0.839631
286.968 17.495 1.08168
252.396 15.3953 0.963679
193.421 12.1718 0.808137
209.075 12.5509 0.792979
176.188 11.2594 0.728864
229.653 15.153 0.996203
212.67 14.3752 1.02856
215.972 15.2551 1.03835
213.371 14.2381 1.00321
199.005 14.1219 1.06373
221.684 15.6646 1.14877
201.4 14.3015 1.04533
196.64 14.0103 0.974095
229.419 17.1573 1.33897
172.683 13.3508 1.02731
204.631 15.6006 1.20971
208.247 16.2057 1.3038
147.506 11.6658 0.972116
201.106 16.1268 1.42161
169.494 13.2643 1.11745
169.39 13.6767 1.1743
164.576 13.6849 1.12871
171.567 14.9872 1.35559
163.424 13.3766 1.2084
181.254 16.3006 1.4921
196.602 16.8629 1.46634
171.698 15.3202 1.44268
161.447 15.2819 1.40453
168.887 15.7247 1.49555
157.209 14.4046 1.36958
151.019 14.0069 1.4209
188.009 18.3638 1.8815
150.311 14.1474 1.3889
207.973 21.5518 2.18766
150.792 14.9222 1.49621
158.734 16.205 1.73911
130.188 12.9713 1.34886
148.819 15.9302 1.6759
149.154 15.8763 1.67808
161.836 17.8758 2.00612
161.276 17.353 1.89756
149.275 15.8694 1.77342
110.17 12.3407 1.37476
140.38 16.0198 1.92259
147.756 16.9832 2.02172
146.806 16.9363 2.09396
144.727 16.8843 2.08368
179.876 20.9304 2.56073
158.877 19.9676 2.46012
153.499 17.9979 2.25596
159.313 19.3919 2.36538
125.853 16.8077 2.18498
130.992 16.8111 2.25304
159.036 20.7459 2.73505
144.962 18.4425 2.49304
140.709 18.5282 2.47457
110.988 15.1574 2.08741
141.794 19.025 2.60539
104.497 14.2538 2.01147
128.692 17.4544 2.3758
116.335 16.2898 2.26754
109.379 15.4003 2.30548
135.646 19.717 2.85502
117.141 16.4334 2.33789
127.084 18.6094 2.72139
114.405 16.7287 2.45312
92.9102 14.7145 2.31225
110.557 16.9936 2.57295
121.684 18.6889 3.02615
139.908 20.6307 3.13387
110.758 17.3135 2.72694
104.214 16.6053 2.60667
118.014 18.9231 3.13467
105.688 15.9673 2.50659
131.8 21.2965 3.47471
128.306 21.022 3.47758
103.974 17.5278 3.03809
124.058 20.2624 3.36565
113.341 19.6194 3.49745
182.465 31.1352 5.34907
134.097 22.4463 3.87149
85.4233 15.042 2.69133
118.914 20.0053 3.50772
106.775 18.3741 3.3112
112.785 20.5243 3.76302
105.602 19.1436 3.54399
142.422 25.0173 4.54281
96.0525 18.2405 3.59835
115.12 21.0268 3.95398
108.136 20.9648 4.10687
95.0441 18.233 3.52768
111.137 20.7208 4.14547
98.8558 18.8752 3.78822
102.14 19.4968 3.84186
113.007 21.9165 4.24501
113.956 23.7335 4.94477
103.824 21.0153 4.39317
90.6791 19.1109 4.07115
84.8984 17.7195 3.70997
103.434 22.2315 4.80845
106.082 21.5809 4.39256
94.9954 19.9506 4.335
85.3533 19.0869 4.35259
83.2264 18.0587 3.91227
81.6839 18.1687 4.0111
86.9478 19.2761 4.4945
109.274 23.585 5.23457
101.024 22.831 5.23198
86.0359 19.6386 4.48081
77.3722 17.5479 4.21617
95.9466 22.51 5.12688
68.0857 14.9556 3.41351
81.7734 19.6369 4.64797
86.1091 20.0766 4.7954
89.3588 21.3281 4.95726
105.314 26.3122 6.72938
89.739 20.8227 4.89156
101.285 23.6031 5.56809
85.3592 20.9195 5.08755
100.514 24.3312 5.96294
80.2247 20.4238 5.11854
90.5661 22.4718 5.7321
78.2525 19.6573 5.17747
81.7365 21.6174 5.73529
89.6955 21.9246 5.4372
74.244 19.0722 5.07218
85.7795 22.3022 5.93199
77.4803 20.8904 5.57458
75.6361 19.6115 5.22539
76.3853 21.2905 5.73839
83.7445 23.0452 6.37399
81.0808 22.1661 6.15074
71.2198 19.817 5.52058
68.8732 19.6561 5.57598
72.7809 20.8999 6.07462
90.9368 25.6811 7.14603
71.5109 20.0371 5.77066
71.4986 20.382 5.8562
67.3309 19.6202 5.77336
74.4007 21.8901 6.58747
78.5228 22.6445 6.58934
78.2737 23.7885 7.18749
70.1702 21.2678 6.55726
65.0485 19.436 5.89627
77.7271 23.7725 7.21875
62.313 19.016 5.88906
75.0179 22.843 7.06193
68.8942 22.095 7.0459
73.9732 21.8226 6.9761
72.2757 22.9834 7.55761
64.1819 19.7729 6.23349
66.0997 21.1884 6.79974
52.5176 16.8695 5.69217
78.7276 25.1796 8.3306
70.7644 22.4927 7.23583
59.3355 19.7965 6.817
61.6486 21.2612 7.51659
71.0407 24.0956 8.28998
62.6955 20.0773 6.74728
56.4547 19.0772 6.4206
66.4102 21.9764 7.22912
72.232 24.7596 8.52081
55.2681 19.433 7.05178
75.8104 26.1024 8.83051
60.3218 20.7477 7.24344
64.2236 22.9424 8.19415
68.0272 23.9473 8.63151
64.7065 23.2984 8.4792
63.4727 22.8895 8.28085
59.1927 22.4737 8.59839
59.4769 21.3943 7.52946
62.3746 23.1024 8.42333
57.5737 21.3374 7.96501
56.6288 22.1267 8.53072
62.171 23.2772 8.9727
99.5241 38.447 14.6953
56.4779 21.7192 8.59696
72.8034 27.4094 10.6444
60.9807 23.9756 9.28014
60.6562 23.4426 9.22564
70.2828 28.363 11.6997
95.6971 37.3381 14.7075
81.6899 32.1281 12.3327
61.0376 24.5729 9.88791
71.1721 27.9837 11.2586
51.613 21.1247 8.73381
52.8318 21.9727 9.48262
60.7372 23.8835 9.27771
54.701 24.5922 11.013
54.3144 21.3731 8.92407
55.4804 22.6449 9.67393
49.1017 20.0891 8.53872
68.4945 29.243 12.3857
46.4607 19.1047 8.2073
63.5679 26.675 11.1191
47.635 20.6046 9.22357
57.9276 24.5975 10.5259
61.0927 26.1881 11.4589
51.1488 21.1956 8.93618
51.5663 25.0042 11.8082
63.3504 27.8624 12.0644
46.4735 20.1197 8.75107
52.2816 23.6604 10.8153
45.2795 20.6052 9.52619
52.2695 23.9571 10.9457
48.4365 21.1734 9.17053
49.0268 23.8737 11.2226
47.2115 21.9288 10.273
54.7052 25.2172 11.5355
41.7918 19.6775 9.66631
42.2015 20.4812 10.023
54.4786 24.9752 11.4494
44.4144 21.6635 10.4732
49.3726 23.5289 11.7571
44.553 22.4095 10.9669
55.633 27.446 13.3341
43.3476 20.3756 10.1812
47.2074 22.1901 10.8547
43.0844 21.2634 10.7613
48.4149 23.3562 11.1789
37.7603 19.4866 10.1747
39.5949 21.056 11.1796
54.003 27.2532 13.3742
40.1554 20.5881 10.4944
47.943 24.3029 12.2055
48.6883 26.1424 13.5372
41.2328 21.6155 11.4711
44.7979 23.1197 12.3
41.925 21.9182 11.9959
45.7213 23.6366 12.4576
53.2079 28.3784 15.1926
40.7913 21.676 12.049
43.631 23.0173 12.1258
35.0896 19.362 10.7898
42.2753 23.8101 13.5432
43.8951 21.5058 11.0323
46.7245 25.9613 14.3146
43.9048 23.5752 13.0389
43.3598 24.0473 13.4286
51.6098 27.4421 14.6845
46.1354 26.5099 15.4984
44.6259 25.5156 14.3053
35.5675 20.793 12.1646
38.2737 22.3588 13.0562
46.9686 27.3541 15.9019
42.2629 23.4758 13.1902
36.9834 21.8818 13.4193
38.8681 22.4866 13.5094
42.1877 25.2224 15.2471
39.7345 22.6944 13.3974
44.7863 26.3607 15.6526
43.599 25.6446 15.0673
35.1557 22.8709 14.5351
38.7034 21.9806 13.1762
40.1026 24.0543 14.3613
46.4535 28.4187 17.4373
42.5883 25.0418 14.5483
40.674 26.0235 16.7049
48.7512 30.4045 19.14
53.8345 32.9312 19.3095
34.4703 21.526 13.8436
40.0867 26.3661 17.1686
38.3657 23.0436 14.5173
38.1559 23.1395 13.7254
33.3456 21.5255 13.9674
32.36 20.7723 13.4943
39.6564 24.4555 14.6618
34.5509 22.8102 14.984
32.3529 21.4371 14.3563
41.0503 26.7592 17.5925
41.9102 28.1489 19.2423
52.4278 33.7731 21.1614
37.4574 25.5558 17.6434
38.4032 25.6304 17.5043
32.9893 21.1122 13.887
36.6072 23.95 16.1934
37.5256 24.4994 16.0611
27.9154 17.915 12.2775
31.5274 21.6347 14.7969
33.9939 22.5744 15.5843
41.0998 29.1404 20.6826
34.9872 23.0291 15.8572
36.0851 25.7849 18.5899
38.171 26.7261 19.3359
42.5961 27.4732 17.5047
34.8777 25.1909 18.1519
30.397 21.4371 15.6732
41.7599 29.3923 20.8141
34.5179 23.8493 17.0325
32.6288 22.8695 16.6734
38.0349 26.2684 17.9818
31.0599 23.502 17.3294
30.8491 23.1531 17.4562
26.5631 20.5636 16.3375
34.6076 24.2263 17.5438
33.341 23.8052 17.1934
30.9051 22.6251 16.6532
32.5441 23.9749 17.104
28.1909 22.7875 18.0395
31.9146 25.0848 20.3983
33.9514 23.2034 16.082
31.1336 25.8028 20.5417
37.0241 26.7906 19.9931
25.0158 19.5617 15.4805
27.7181 22.0345 17.2766
32.0273 23.7386 18.0565
29.8338 24.49 20.2703
28.8347 21.4927 16.6963
29.7574 22.1364 16.7373
30.4241 24.752 19.896
25.9954 19.8013 15.4061
25.3223 21.1605 17.3704
27.2371 22.0152 18.4007
34.154 27.3264 21.8677
30.556 23.7461 19.2469
31.1313 23.0027 17.3258
26.9809 23.2225 20.6539
28.9732 21.5245 16.9523
34.5716 29.4971 23.725
26.8353 22.0469 18.2194
27.2985 22.5089 18.9453
29.0142 23.0862 18.0819
27.535 23.3903 19.726
29.2472 23.1321 18.5016
28.4241 24.727 20.8141
27.3482 24.0998 20.8942
27.348 24.2357 21.722
28.149 22.4532 18.5949
26.3671 22.0686 18.7835
24.7984 23.3253 22.2313
32.6433 25.8533 20.8017
31.2578 28.2241 25.1113
28.3461 23.6848 21.4444
27.7664 23.311 20.3345
27.5667 24.3987 21.7533
28.8672 24.7362 21.4407
31.9094 28.6056 25.3919
28.3389 25.6099 22.8592
25.3326 22.5058 21.0027
32.3161 28.185 25.0592
30.0432 26.2602 22.7175
25.3144 22.5476 20.8529
23.7498 21.9011 21.2722
27.9085 23.6342 20.776
24.963 21.4644 18.6356
25.7121 24.3058 22.4179
27.0144 23.5924 21.0371
24.8446 23.1249 20.9469
19.9235 19.1808 18.4982
25.1474 24.7544 24.2084
23.4491 21.2699 20.8564
23.8845 20.7151 18.9513
25.6513 23.7177 21.4068
24.3719 23.1441 21.7471
22.0172 21.8035 22.0007
25.4289 21.7123 18.7523
22.8721 22.4001 21.3396
23.2408 21.918 20.7355
23.6121 24.1411 24.2001
23.7357 22.6453 22.6866
25.9149 25.6729 25.9633
24.2073 21.9135 20.4337
28.8463 29.9486 29.4625
27.6335 25.7612 24.8709
25.2334 25.7862 25.8993
24.2864 21.0736 18.9346
23.0541 24.155 25.6907
35.2278 33.9458 30.3966
20.474 22.1853 24.1448
22.0691 21.8416 21.9436
21.8749 22.1471 22.99
25.1797 25.9803 26.8902
25.5224 25.7319 25.4796
22.2129 22.4391 23.2796
19.898 20.8621 23.7494
27.8901 26.464 24.175
20.6976 21.7072 23.1752
24.1963 25.8198 27.5703
25.0115 23.892 22.6706
16.7702 19.7696 23.2362
25.1131 24.2681 24.1646
26.8534 29.0437 30.7053
22.8947 21.9148 21.9676
20.5918 22.7023 24.744
22.3813 22.7234 23.3478
20.8525 23.2997 26.0449
23.095 23.9233 24.8236
19.6856 21.2764 22.994
19.7328 21.7354 25.0881
24.9189 26.5992 28.0613
20.6279 22.5966 26.3501
22.7949 23.2351 24.7934
22.6243 26.2216 30.961
23.286 22.1135 22.2766
20.0685 22.4408 24.8451
22.8169 25.2617 28.945
24.8841 26.5528 28.5755
19.4362 19.1085 19.657
17.1362 19.5434 21.9968
22.8934 25.5195 27.5185
20.7217 22.8514 25.0806
17.668 20.6031 24.1667
23.609 27.654 31.0581
21.8265 22.6888 23.4544
16.0335 19.1344 21.998
21.7153 25.6144 28.3629
18.8823 23.7114 29.3044
22.524 26.7828 31.1247
18.6882 22.1861 27.6151
20.0234 23.7307 31.2655
27.1379 28.2688 29.3948
20.7207 24.6634 29.3715
19.4531 21.7583 25.7244
23.1822 26.492 28.8317
16.7643 20.087 25.074
22.1793 25.4886 28.398
20.4604 25.524 31.0216
20.0425 24.4361 28.72
17.9017 21.7229 26.2198
17.3185 23.1173 31.2912
20.4853 21.7453 25.1714
19.2939 25.9087 33.0764
20.0788 22.7291 28.2835
19.9561 22.1783 25.6665
19.0757 22.5085 26.4145
16.3209 21.093 28.6657
22.6455 23.179 24.6523
19.8181 25.5174 31.1347
20.216 26.2379 33.8497
21.2819 25.0887 29.0722
15.8948 21.6283 30.5691
20.3554 25.1097 33.0647
23.1245 26.9782 33.1913
21.7475 26.5061 31.5936
19.2336 24.3079 30.8472
18.2556 22.0048 27.0748
18.0766 23.7636 30.6555
18.6726 22.8657 29.5329
20.102 25.0494 29.8141
15.5729 20.2436 27.2627
18.8728 23.3966 28.1027
15.0437 20.7 30.0427
21.9867 27.5846 33.945
18.0753 24.616 33.6975
17.8801 22.0848 27.6066
19.273 25.7563 32.2495
17.202 23.4569 33.1014
16.7898 21.1775 28.4799
16.7478 20.0811 25.8813
16.2644 20.9826 28.2369
16.4725 20.2501 26.0958
17.304 22.5878 29.8601
17.4603 23.6951 32.013
16.9385 20.3701 25.4034
16.4971 22.2447 27.2178
13.8897 19.7774 28.5929
17.8322 24.254 32.1011
14.9526 19.5646 26.8391
19.0596 27.9614 38.6676
16.2129 21.3576 30.8142
17.0757 22.8885 32.4908
22.754 29.2689 34.8673
14.2824 20.0392 30.3839
27.054 39.3191 50.5361
16.7645 21.8404 30.2726
17.8743 25.2857 35.5375
15.7611 19.6948 24.9085
12.6089 19.4753 30.4278
17.1761 23.0304 31.416
16.0747 23.6104 32.3839
13.5564 19.0827 29.177
16.3603 21.6443 30.0348
17.2502 24.9236 34.8627
19.9 31.1625 45.3956
14.1557 18.4079 28.5746
18.6593 26.2565 37.2757
17.7447 26.5448 41.1703
19.2622 24.9603 32.2517
13.872 20.8295 31.8742
14.629 20.5048 30.0533
17.0902 25.4304 37.0153
15.9459 23.4112 33.597
12.5814 17.2302 26.863
14.071 19.8796 29.2149
13.8288 19.5885 29.8976
16.4378 23.558 32.7596
16.0165 23.5958 35.0965
14.539 19.3253 26.766
11.9268 17.0791 26.9347
15.1247 22.6972 32.6131
13.6559 19.637 28.7912
12.6425 19.8572 31.6114
16.1307 23.6009 34.5982
14.0654 21.2064 33.2386
13.8593 20.3693 31.1838
13.2535 19.1798 30.1647
15.0303 22.4816 35.2367
16.541 22.9451 33.3793
15.9219 23.5935 34.0309
16.0099 25.6227 37.5937
14.7672 22.8281 34.9815
15.2594 23.9035 36.3649
12.4745 18.3045 29.4609
13.005 19.4699 30.0186
12.5732 20.4371 33.6991
12.9085 19.2212 31.0451
12.5924 20.5077 35.9024
16.0752 23.3317 35.5512
12.7808 18.6734 29.9338
15.5467 22.4429 31.4884
12.6184 20.9603 34.5221
13.5242 20.151 30.2934
13.9931 23.0806 36.1429
13.8626 21.8169 36.0112
14.2432 22.4497 35.0463
12.3756 19.2572 32.72
14.4875 23.7923 37.2063
11.7185 18.2714 30.5497
11.1217 17.0596 27.6371
10.8765 18.3299 30.6295
11.8615 18.2619 29.9314
11.3695 19.3958 33.7471
14.1497 20.6256 29.0071
11.4133 18.4511 30.2129
12.8063 21.1204 32.3435
11.152 19.638 35.4309
13.7301 20.5113 30.8194
12.2359 21.6464 35.5387
12.5737 20.4843 32.3504
10.85 18.5329 32.0113
12.11 19.7762 35.1574
13.131 19.4314 29.6251
11.1653 19.6977 33.6904
12.2428 19.5153 33.242
13.6624 23.2116 37.1569
11.3377 19.4309 33.2243
11.7255 20.1044 32.1104
10.767 19.0041 31.7556
10.9698 19.6607 36.2729
12.2099 20.0732 33.5921
10.7508 18.3883 32.8208
12.2955 20.1231 33.3964
11.4089 21.0027 37.6794
11.401 19.2321 36.4958
13.7355 21.3332 33.8254
12.3672 20.7818 35.4861
12.4571 19.9476 31.2488
10.0172 19.0541 33.1244
10.4121 18.8317 33.3143
9.67714 18.0702 34.7905
10.9683 17.5543 30.597
10.66 18.0516 32.2661
10.5121 17.9343 31.6995
10.9379 18.2913 32.0492
12.5761 22.9036 39.8549
11.6082 19.7702 32.7841
9.22898 17.6939 34.9001
10.1846 17.0478 29.8136
10.281 20.8819 45.4408
18.066 29.5361 45.4297
10.9819 18.3101 32.2167
9.77739 18.1184 33.5999
10.6804 18.698 32.5486
11.9938 22.6984 38.1034
8.90726 16.2893 31.8401
9.32648 16.646 32.1285
9.94483 17.2886 33.9473
13.6257 23.2025 38.3837
11.0663 20.074 36.4394
10.9095 19.8062 36.9697
10.573 18.531 30.9816
7.7721 16.3904 35.1657
12.0616 21.1188 38.4853
11.2858 20.9944 39.9359
11.7641 18.3623 29.4301
9.03046 18.8428 38.1844
10.3313 18.0356 32.3094
8.70191 17.2073 34.5701
10.6553 20.2338 40.3632
11.0872 18.918 36.9066
12.0979 21.8901 41.3953
12.4706 22.7684 40.6938
11.0334 19.5208 34.3257
9.04354 17.9317 34.4847
10.1388 18.5827 35.492
10.6637 19.8467 35.6224
9.40233 18.9255 37.4612
9.48818 17.5143 34.8304
10.1961 19.3759 37.8505
10.3918 19.3519 36.5434
10.7998 21.2521 40.6084
10.9029 21.3321 40.7716
9.04384 17.776 35.4251
10.3669 21.9071 46.5819
10.6124 16.5562 30.6537
9.52708 18.7744 36.6555
11.095 21.3987 39.5442
9.12072 17.5669 35.5533
9.73796 16.5781 29.6391
8.48996 17.4065 34.8137
8.6596 17.8249 40.1889
11.7872 21.3633 40.4794
10.6457 19.3733 34.5031
9.97502 21.3161 41.7673
9.88258 20.3824 42.1518
10.8064 22.1132 46.1541
9.72021 18.2912 40.3304
11.1059 19.4675 36.4825
10.4075 19.602 36.2733
9.70142 19.6921 36.5341
8.31203 17.9513 39.6633
10.9814 22.0853 45.4959
10.0398 17.5076 32.8714
9.24318 18.4384 34.7732
8.02726 15.8268 30.6558
7.7267 17.5005 40.8049
11.353 21.6126 40.552
8.87137 17.1819 32.5899
7.82324 16.5871 34.8061
7.58551 14.8924 31.8352
7.96783 16.9389 37.392
9.21122 18.9652 41.4663
10.8953 20.0577 37.1196
8.79185 18.0499 37.1681
9.66477 19.8268 38.6492
8.51504 17.8426 36.6143
8.06575 18.2074 38.7785
7.83359 17.6952 44.7612
11.4319 21.7939 44.8353
10.0361 18.1166 33.4638
7.34507 14.4615 30.6034
8.53904 18.2646 36.8492
7.53968 16.3261 37.189
8.50162 16.9317 36.6914
9.96238 21.3731 39.9619
6.61122 15.4955 38.2914
8.64993 15.4657 31.1137
7.94601 17.3051 34.8496
7.16478 15.448 32.9827
7.01946 15.249 34.5222
8.21768 15.7472 31.6336
7.65587 16.2835 31.9917
6.68277 15.7293 35.8818
7.35883 15.5598 33.4616
6.1858 13.4276 32.1501
7.72604 16.4844 38.2351
8.57992 16.2939 31.312
6.55663 14.5764 33.4154
8.32463 18.2511 38.1614
8.77032 20.4724 47.7096
9.86329 18.3405 33.6095
6.66984 15.6679 38.0495
9.11652 20.6247 44.5981
7.85661 15.3283 32.0033
6.73242 16.5821 45.2198
12.2411 25.1531 47.5121
8.52083 18.3529 37.1066
6.87024 15.9671 34.3255
6.14535 15.2273 40.4345
7.8628 15.1277 34.1258
7.607 15.8556 35.5476
8.46024 19.1581 42.7577
7.28301 14.4561 33.7301
10.3609 25.1649 52.8094
7.87635 15.5666 33.1637
6.64067 15.6526 39.4702
8.26958 17.9884 39.011
7.51648 16.0794 35.4958
7.24312 16.9844 39.9391
7.59463 17.4646 42.2979
8.35414 16.7349 35.5455
6.55862 15.1731 33.8633
6.975 17.5802 44.1973
8.85845 19.7597 43.2759
8.38537 19.177 45.0878
7.85604 15.605 33.0533
6.73478 16.4131 39.6072
7.58507 15.9756 35.0039
6.74623 14.5657 31.9238
6.41429 15.8534 40.0781
8.2491 18.5155 38.0497
6.58112 15.278 34.8692
6.62038 15.9386 39.9188
7.19399 15.9431 37.6576
7.09511 15.6899 37.6473
7.58969 19.2583 46.2908
7.73079 14.9623 32.0909
6.7849 17.1696 41.6771
7.61651 16.9523 38.0715
7.10807 17.3782 44.7105
7.61154 15.4891 35.028
7.52726 17.258 35.4799
6.00616 14.3765 33.6827
6.46292 16.8342 41.6521
7.15209 15.6378 35.0244
6.05912 16.3246 41.8381
6.56792 15.2708 38.8859
6.76644 15.3986 40.0222
8.06807 17.0847 36.0026
6.48131 16.2129 41.3752
8.14124 19.9205 48.5996
8.53497 18.1244 38.0049
6.15913 14.6877 37.1623
6.59896 15.2298 40.1445
6.75767 13.666 32.3323
7.92239 20.292 40.8952
5.43653 13.1993 34.1753
6.83505 17.4726 41.073
6.04707 14.891 38.9451
5.94266 12.3627 30.2768
6.15174 14.6019 37.1358
7.14857 15.7751 33.3001
6.16524 16.4044 39.3102
6.18524 15.5542 39.8124
6.87114 16.736 40.7428
6.69472 14.8643 31.4694
