# pn-170911/RbIIR-55-RbIIR-1280-1959.psd
# Power spectrum* (dif=0,1,2) (really just |FT|^2)
# NOTE: only the first half! (symmetric)
# weeks: 1280-1959
# 3447 clock-days, 82 excluded
# PSD: 1441
322.069 0.103071 0.0424492
30576.2 0.534447 0.0397712
151282 3.23555 0.0407104
25548.7 0.9955 0.0395996
48879.6 3.71498 0.0387774
9424.13 0.965991 0.0398688
7585.72 1.12286 0.0404366
4811.56 0.960451 0.0393095
4347.09 1.18408 0.0398936
3006.61 1.00599 0.0390727
2537.23 1.03329 0.0407857
2103.64 1.05235 0.0410223
1844.69 1.08744 0.0410524
1555.05 1.07953 0.0404835
1384.93 1.13884 0.0411595
1227.13 1.1436 0.0399104
1131.81 1.20006 0.0409101
1024.85 1.25022 0.0414188
953.255 1.30872 0.0423302
860.11 1.3355 0.0416509
814.111 1.40458 0.0445102
813.1 1.51108 0.0428938
743.242 1.56721 0.0441402
729.44 1.65414 0.0440378
674.501 1.70151 0.0453402
654.56 1.75236 0.0455588
646.334 1.93453 0.0466082
634.329 2.02941 0.0462376
599.467 2.05293 0.0475877
579.023 2.1206 0.0488052
579.654 2.32428 0.0503472
562.522 2.35882 0.0502363
557.141 2.55176 0.0531447
550.417 2.67509 0.0537692
546.331 2.86487 0.0564903
542.851 2.97518 0.0600675
531.519 3.07892 0.0610285
518.434 3.18788 0.0610057
532.752 3.48212 0.0645314
540.748 3.70268 0.0698809
511.575 3.73288 0.0684444
507.906 3.88851 0.072109
509.56 4.07833 0.0747162
512.64 4.3603 0.0774234
507.228 4.49083 0.0800316
493.009 4.59617 0.0852934
505.48 4.89339 0.0906439
483.315 4.93312 0.0950933
501.434 5.35341 0.0996585
483.046 5.32344 0.100378
492.759 5.67138 0.109015
487.821 5.83596 0.111707
484.908 5.9947 0.114429
482.229 6.27493 0.126209
478.542 6.4326 0.128596
464.688 6.50177 0.133223
465.949 6.77011 0.14106
453.635 6.77575 0.14599
466.162 7.29419 0.159959
471.247 7.57044 0.167062
452.274 7.57566 0.169531
440.726 7.64628 0.178461
455.246 8.12111 0.192602
446.005 8.29069 0.19567
436.06 8.34703 0.205091
440.697 8.72159 0.217974
433.957 8.76883 0.222219
422.661 8.91696 0.229905
419.79 9.01688 0.240249
430.243 9.50531 0.256543
407.529 9.31723 0.259321
407.583 9.50304 0.268162
408.439 9.87371 0.285502
411.65 10.2725 0.305591
399.359 10.2392 0.311016
394.855 10.3732 0.317684
399.452 10.8035 0.339483
396.335 10.9048 0.346405
402.288 11.4219 0.37183
372.208 10.8626 0.363411
379.047 11.31 0.383847
364.148 11.1508 0.385303
388.464 12.1925 0.433984
367.239 11.8001 0.43141
370.202 12.1419 0.446004
362.68 12.2107 0.469451
362.638 12.5617 0.480475
363.977 12.8555 0.500051
359.293 13.0152 0.52241
354.836 13.1337 0.531954
348.088 13.1456 0.548128
350.315 13.559 0.575235
333.706 13.2737 0.574237
332.383 13.4145 0.586941
335.196 13.8287 0.623787
331.419 14.0101 0.640074
383.453 16.6325 0.759096
334.38 14.6191 0.691703
314.424 14.0888 0.679397
312.212 14.3462 0.710947
316.79 14.7982 0.75079
310.609 14.88 0.764705
316.527 15.409 0.79404
309.582 15.3123 0.816417
304.57 15.4693 0.830209
301.46 15.5471 0.850862
294.126 15.4559 0.861226
295.859 15.7555 0.883681
295.594 16.1172 0.935253
304.992 16.9782 0.997893
288.109 16.1595 0.964031
285.382 16.3964 0.996395
284.233 16.7269 1.02732
287.315 17.2922 1.07514
291.833 17.7514 1.13475
278.872 17.3119 1.12217
276.27 17.3802 1.1434
280.72 18.0217 1.21276
274.296 17.9134 1.22521
270.766 18.0388 1.24332
271.056 18.1487 1.27329
268.995 18.563 1.32101
268.686 18.6574 1.34739
267.964 19.0697 1.40953
267.026 19.3052 1.44053
254.593 18.6077 1.4181
259.581 19.2627 1.49296
248.084 18.6524 1.45267
256.202 19.572 1.54857
255.734 19.9403 1.60674
246.687 19.496 1.59378
247.75 19.9875 1.6672
257.638 21.082 1.76649
244.274 20.1514 1.7169
238.55 19.9778 1.73376
245.707 20.9815 1.84362
237.454 20.5523 1.83241
238.737 20.9152 1.89193
237.359 21.1422 1.931
228.79 20.6233 1.92202
228.499 20.9894 1.98846
227.907 21.131 2.01338
227.757 21.4496 2.0836
231.006 22.1226 2.18546
229.799 22.2105 2.20825
232.919 22.743 2.28025
218.814 21.7826 2.22289
223.817 22.6057 2.34715
221.859 22.8232 2.41432
216.511 22.4276 2.39618
216.517 22.7245 2.4383
214.976 22.9074 2.51553
210.508 22.6758 2.49494
213.596 23.4472 2.63181
207.048 22.9988 2.61527
220.994 24.7625 2.85397
210.852 23.9558 2.77089
202.366 23.3224 2.73998
204.377 23.7137 2.83711
207.414 24.4991 2.94734
202.957 24.4543 3.01302
200.953 24.4347 3.04206
195.115 23.7366 2.93722
202.437 25.2039 3.1851
200.841 25.3385 3.24686
202.341 25.866 3.35747
196.74 25.2329 3.31998
200.306 25.9565 3.41247
192.203 25.4018 3.42129
193.381 25.7634 3.48455
188.745 25.3773 3.47108
193.434 26.3225 3.65128
194.184 26.7757 3.75874
189.902 26.5417 3.76546
185.495 26.2897 3.79926
187.51 26.8692 3.91936
184.853 26.6765 3.91616
187.115 27.3414 4.07466
185.376 27.3626 4.09853
180.151 26.8835 4.09231
181.449 27.1599 4.14881
184.273 28.0511 4.33124
177.719 27.4632 4.32157
183.815 28.7344 4.56833
177.29 27.838 4.46401
182.158 29.1609 4.73634
175.649 28.2957 4.63613
176.559 28.7021 4.74784
173.743 28.6161 4.79351
173.336 28.8336 4.87041
173.465 28.9531 4.90214
167.408 28.6703 4.98764
204.179 34.9048 6.01437
171.161 29.5409 5.17943
165.406 29.1091 5.20585
166.645 29.489 5.28777
164.244 29.3129 5.31525
162.686 29.4005 5.36514
162.441 29.6588 5.49503
160.719 29.6319 5.55775
163.431 30.3407 5.72456
162.75 30.5931 5.82276
166.837 31.7108 6.12185
157.74 30.1557 5.86254
161.629 31.2566 6.09991
158.242 31.0104 6.12451
160.968 31.857 6.3932
156.901 31.0158 6.21127
155.235 31.2554 6.36978
157.466 31.958 6.5769
158.722 32.5101 6.76853
158.678 32.4976 6.73851
149.436 31.2891 6.61479
154.593 32.6229 6.96086
150.826 31.9645 6.88243
152.417 32.7114 7.09591
148.656 32.1037 6.99377
147.067 32.2829 7.12619
147.141 32.5358 7.26623
149.116 33.1386 7.44221
145.937 32.744 7.44667
142.655 32.3776 7.42972
147.909 33.566 7.7384
141.721 32.6067 7.62151
144.441 33.5811 7.87624
141.601 33.2093 7.86877
144.37 34.4163 8.30605
145.248 34.5891 8.34142
144.495 34.6226 8.4171
141.72 34.4154 8.39777
135.51 33.0594 8.20217
136.943 33.8546 8.47713
138.589 34.6073 8.7265
142.144 35.8922 9.13822
135.579 34.2667 8.77738
135.2 34.5844 8.91909
138.883 35.7781 9.34493
137.573 35.4621 9.25507
129.599 34.0881 9.06839
136.578 36.2149 9.66287
133.122 35.4987 9.60115
135.328 36.2597 9.78427
127.02 34.212 9.34581
128.899 35.1567 9.67479
130.584 35.8459 9.95738
130.836 36.1546 10.0903
129.281 36.0957 10.1758
131.316 36.9354 10.4944
127.605 36.2763 10.4378
130.865 37.2939 10.707
124.071 35.8479 10.42
127.18 37.1538 10.959
128.423 37.3968 11.0124
127.124 37.5452 11.1842
125.501 37.2556 11.1866
126.977 38.003 11.5177
125.89 37.9141 11.5314
124.011 37.9504 11.7168
122.51 37.4525 11.5383
120.891 37.4853 11.7188
121.949 37.8784 11.8578
118.25 37.1679 11.7661
120.128 38.2656 12.2866
118.328 37.2904 11.9402
123.694 39.5613 12.7543
119.425 38.3784 12.4789
117.301 38.3418 12.6258
116.002 38.1787 12.6097
115.899 38.4523 12.8987
118.167 38.8634 13.0015
113.347 37.6844 12.6817
115.504 38.9657 13.2502
111.971 38.0655 13.0693
116.785 39.8825 13.7027
110.917 38.3399 13.3376
111.965 39.0964 13.762
110.566 38.8665 13.7605
111.276 38.5733 13.569
111.1 39.0654 13.8699
109.481 38.8833 13.9408
107.545 38.6699 13.9857
106.091 38.4729 14.1094
108.275 39.5719 14.5499
108.441 39.7058 14.6592
106.337 39.3578 14.6955
106.345 39.2416 14.6759
106.278 39.6586 14.9357
105.349 39.8535 15.3426
135.543 51.1089 19.1833
105.326 40.3158 15.6422
99.9162 38.5465 15.0519
102.811 39.6935 15.4151
102.877 40.2589 15.8828
103.887 40.9277 16.1782
98.9213 39.1667 15.7197
100.522 40.0142 16.007
101.7 40.7212 16.4683
101.359 40.4768 16.2889
100.502 40.8741 16.7251
97.5709 39.9384 16.5202
96.3902 39.39 16.2609
94.9296 39.473 16.6114
96.9389 40.1859 16.7659
99.543 41.6886 17.5121
95.0404 40.4591 17.3534
96.6191 40.9237 17.5005
95.0884 40.2042 17.2585
95.8993 41.1479 17.7257
96.5987 41.8462 18.2467
95.3269 41.3718 18.1607
97.2354 42.3048 18.5967
96.0866 41.8484 18.3714
97.6623 43.1954 19.1155
92.0699 41.144 18.508
92.3188 41.415 18.6811
89.8697 40.3876 18.4035
92.3566 42.1681 19.3858
90.9438 41.493 19.0972
90.7602 41.6836 19.3605
91.926 42.3403 19.5253
86.5942 40.6654 19.2019
90.1014 42.1828 19.7918
86.2923 41.0793 19.7238
85.5635 40.6502 19.5704
88.3885 41.8112 19.9531
87.3689 41.9646 20.327
86.8085 41.8235 20.3295
88.2069 42.9457 21.0518
89.4603 43.3988 21.2167
86.588 42.4611 20.9319
85.9259 42.4477 21.0875
85.0046 42.1174 21.0177
88.1003 44.0116 22.068
85.1365 42.42 21.3053
83.7154 42.4679 21.7142
81.68 41.604 21.3406
83.651 42.8367 22.1
84.6852 43.4642 22.4494
82.3924 42.4759 22.0746
81.3514 42.5058 22.3776
83.913 43.6822 22.8959
81.4064 42.6399 22.5966
81.8693 43.2216 23.0024
81.7788 43.4437 23.2395
81.4295 43.3279 23.2442
80.1564 43.0748 23.4751
81.5372 43.8549 23.8022
80.8206 43.7699 23.8968
79.1928 43.3136 23.828
76.8424 42.3792 23.6534
77.8602 42.9718 23.9276
75.8005 41.6516 23.2165
80.7407 44.5521 24.7349
76.635 42.9141 24.1819
75.5113 42.8263 24.3812
75.9303 43.4573 25.0042
75.8383 42.969 24.647
75.1446 42.9539 24.8283
75.6684 43.5975 25.2659
73.901 42.7584 24.908
73.9962 43.1664 25.4323
72.2434 41.8034 24.5843
75.4331 44.1947 26.0376
73.9935 43.7599 25.9468
72.8373 43.631 26.319
72.2626 42.6121 25.4817
70.7463 42.7587 26.1077
72.5666 43.5337 26.3513
73.0195 44.3896 27.0696
70.4167 43.2598 26.7549
71.2321 43.0788 26.3304
72.0518 44.5911 27.5884
69.6439 43.3862 27.306
70.4377 44.2249 28.1006
73.0911 45.5466 28.7277
71.1012 44.4353 28.123
69.0774 43.5484 27.6948
69.0855 43.5718 27.7601
69.2958 44.3344 28.4522
67.3838 43.2914 28.1192
67.6148 43.8884 28.7679
67.7138 43.4893 28.3168
66.0375 42.757 28.1381
67.3813 44.4021 29.8764
84.9252 55.0327 35.1057
66.6254 44.3329 29.7675
66.6066 44.207 29.6238
65.4163 43.9402 29.7903
67.0371 44.8257 30.1341
64.9067 43.675 29.5861
64.8813 44.085 30.2695
65.9758 44.902 30.8646
62.5156 42.0079 28.731
63.2627 43.7225 30.3204
64.1997 44.2397 30.8106
65.2269 44.8813 31.0117
62.305 43.5269 30.4928
60.3798 42.5572 30.3159
61.8919 43.6226 31.104
64.4258 45.3402 32.1139
60.7854 42.9015 30.6254
63.5785 45.5446 32.6639
63.0227 44.9451 32.3304
60.9424 43.8317 31.7666
60.8962 44.4231 32.7906
61.5672 44.3842 32.4084
59.9769 43.4727 31.7769
59.6337 43.6657 32.2239
60.5404 44.9838 33.6694
60.2419 44.6443 33.3762
58.5843 42.8734 31.7824
59.0189 44.4233 33.6254
57.7322 42.8036 32.2419
58.1931 43.8468 33.1285
57.4476 43.3312 33.0169
58.9824 44.7678 33.9294
56.6029 43.5126 33.6261
56.2148 43.4101 33.9469
56.3431 42.812 32.9877
56.8756 44.2604 34.5425
57.2483 44.4353 34.834
57.1734 44.7676 35.2724
56.3827 44.2691 35.1116
57.2759 44.9743 35.7846
55.4089 43.7013 34.8596
56.6275 44.5121 35.1306
55.3289 44.0849 35.0795
54.3 43.7013 35.5783
55.6988 44.7958 36.3103
54.4748 44.1262 36.0688
54.7342 44.4898 36.2493
54.2519 44.4404 36.7288
54.8291 44.9658 37.1613
53.3547 43.3746 35.7272
52.191 43.2026 36.225
53.4213 44.2776 36.9441
52.3962 43.606 36.7331
53.9222 44.9495 37.5774
52.6912 44.6316 37.9933
52.6584 43.8329 36.9223
51.9961 44.3697 38.0704
53.1765 45.0354 38.2991
51.3472 43.8209 37.5432
50.566 43.7133 38.0347
51.3518 44.7811 39.3913
52.3743 45.0441 38.9319
50.0745 43.6553 38.3738
49.5506 43.0851 37.9637
50.2891 44.0019 38.7325
50.6719 44.4441 39.2217
49.5286 43.5633 38.6258
48.7628 43.5528 39.1683
49.8254 43.9994 39.3014
49.551 44.2385 39.6486
48.2384 43.2632 39.0912
48.7391 43.7508 39.4717
47.3123 43.2484 40.0611
48.7935 43.8739 39.8846
48.0153 44.114 40.8546
48.8579 44.501 40.7383
47.6486 43.8278 40.8811
47.9319 43.8763 40.7373
48.9406 45.0823 41.8105
47.1516 43.5964 40.532
45.6976 43.43 41.5472
47.157 43.4839 40.6357
47.5039 44.6335 42.0001
48.2051 46.0548 43.8307
46.2905 44.225 42.6448
46.8661 44.5692 43.0955
46.4914 43.948 42.0596
45.9571 44.1095 42.512
45.9046 44.1598 42.5807
44.3938 43.5525 43.0576
46.0523 43.8697 42.3183
44.0339 43.0378 42.4863
44.2068 43.1718 42.615
44.5514 43.8362 43.4777
44.0554 42.957 42.4495
43.8679 43.8477 44.8
54.268 53.6639 51.5837
43.7735 44.1108 44.7157
43.3234 43.0441 43.1984
43.3832 44.2004 45.0859
44.0764 44.9721 46.2155
43.8869 44.2286 45.243
43.007 43.4978 44.6097
42.9744 43.8189 44.889
42.3219 43.1163 44.4131
42.5505 43.7755 45.2724
42.6191 43.9507 45.7334
41.7212 43.0671 44.5467
41.5626 43.8415 46.7304
42.3772 43.6512 45.5373
41.3683 42.9306 45.1823
42.3507 44.61 47.1006
41.5325 43.3782 45.8022
41.1427 43.6797 46.5719
41.291 43.6232 46.4169
40.7591 44.015 47.5355
39.9158 42.2895 45.4794
39.9752 43.0107 46.8958
39.2234 42.0635 46.0133
40.76 43.3846 46.4462
38.8968 42.6721 47.0948
40.7021 44.4606 48.8568
40.1027 43.2486 46.8658
38.5856 42.8013 47.622
38.9264 42.6684 47.4255
39.3214 43.652 48.6787
39.6567 43.5693 48.3883
38.4463 42.8732 48.1253
38.2582 42.8431 48.5927
37.9499 41.6814 46.7065
39.2303 44.2861 49.9859
38.6581 43.3568 48.8727
38.3008 43.8901 50.2386
38.3365 43.146 49.0487
36.9642 42.0375 48.2143
36.9598 42.2074 48.425
36.7321 42.3191 49.0398
37.1828 42.7281 49.5124
36.3556 41.9224 48.9119
37.5285 43.4671 50.1093
36.1828 42.5349 50.4253
37.0139 42.612 49.7549
36.1635 42.4872 50.3456
36.039 42.0554 49.4815
35.2651 41.9743 50.4892
36.7663 43.3544 51.6179
34.7758 40.7792 48.7348
35.6105 42.1388 50.3427
36.2819 43.4107 51.6466
34.7819 41.7054 50.4841
35.2514 42.8334 52.167
35.4443 42.7028 51.8187
35.1917 42.7293 52.2431
33.9774 41.1784 51.0859
35.3167 42.557 51.8698
34.8847 42.6419 52.6531
34.8855 42.3376 51.8356
34.4717 42.6149 52.6976
33.9135 41.7246 52.1253
33.7812 41.9885 52.6462
34.4665 42.3766 52.6177
33.653 41.9542 52.854
33.5506 41.5322 52.0267
33.4786 41.9649 52.9613
33.4876 42.1942 53.3269
33.3552 42.4328 54.3878
33.9193 42.6235 54.0441
32.9838 41.9514 53.8604
32.5382 40.6358 51.5064
32.0561 41.1818 53.1916
33.2856 42.5992 54.4256
31.6517 41.126 53.8052
31.4356 39.9847 51.6327
30.6969 39.7443 52.1801
31.9178 41.5557 54.0992
31.782 41.4484 54.0583
31.5126 41.5208 54.7146
31.0929 40.8398 54.3303
31.8514 41.8417 55.5246
31.5324 41.1999 54.1052
31.1936 42.1681 57.0399
31.3535 41.0177 54.5014
30.2997 40.4555 54.4894
30.5153 40.7709 55.1527
30.9537 40.9641 54.9232
30.2187 40.4625 55.0325
31.1307 41.775 56.2261
30.2378 41.0538 56.2617
30.7107 41.5325 56.6977
30.3039 41.4357 57.1227
30.0168 41.1666 57.3717
30.3105 42.0607 61.5792
39.3937 52.6046 67.3551
30.2523 41.5806 57.4038
29.6094 41.1271 57.3625
29.4834 40.8884 57.3858
30.1135 42.1257 59.4031
30.0192 41.2035 57.0348
28.7927 40.3117 56.6036
28.4597 40.3291 57.5221
28.3272 39.2801 55.6224
28.6358 40.5649 58.5534
29.3863 40.5221 56.8608
28.2437 39.5604 56.1837
28.7885 41.641 60.1349
28.8026 40.8895 58.7328
28.3108 40.4278 58.5577
28.613 40.8892 59.1189
28.2036 39.8594 57.3771
27.8492 39.9894 57.8738
28.3347 40.7492 58.8847
27.7892 40.3783 59.1188
28.0506 40.5055 58.5936
27.5581 40.7073 59.5711
26.8252 39.6569 59.5774
27.8579 40.4817 59.5368
26.9086 39.5029 58.3052
26.5595 39.1172 58.6578
27.5483 41.0272 61.2334
27.1533 40.0623 59.9428
26.4147 38.7069 58.0448
26.8469 40.2443 60.5844
26.5636 39.6783 60.122
27.1828 40.5372 60.3561
26.2506 39.8862 61.108
26.1531 38.9921 59.3151
26.0263 38.7982 58.8303
25.9215 39.0833 59.1765
25.938 39.801 61.0809
25.7397 39.2853 60.5561
26.0656 39.7689 60.6523
25.0759 38.5232 59.4763
24.9269 38.3197 59.303
25.4477 39.6887 61.8576
24.7032 38.2363 60.1947
25.2673 38.9883 60.903
25.3169 39.3196 61.5017
24.6802 38.2511 60.1596
24.7989 39.0296 62.1681
25.3689 39.0828 61.157
25.0544 39.3877 62.295
25.5309 40.6886 64.786
25.3811 39.7756 62.3272
24.2259 38.8853 62.8627
23.7435 37.2729 60.2836
24.5473 38.8426 62.0832
24.3843 38.8566 62.1335
24.2506 38.8365 62.507
24.1737 39.2904 63.9976
24.0447 38.5122 63.2229
24.6925 39.3069 62.5288
23.4985 38.3015 61.9658
22.7228 37.5129 63.1302
23.6323 37.9708 62.3109
23.5577 38.2807 62.5242
22.8292 37.2641 62.4442
23.6463 38.1106 62.3687
23.2702 38.7441 65.0455
23.9723 39.199 64.2891
22.9334 37.3673 62.119
23.4921 39.0081 64.5136
22.9691 38.2382 63.9062
23.1344 39.0811 65.7825
22.8561 37.5326 62.2498
21.8447 36.8014 62.8983
22.5651 38.1122 64.7425
22.4749 37.4305 63.6402
22.7773 38.5102 65.3042
22.3479 38.1044 65.896
22.7493 38.1297 64.7616
22.2888 37.8798 65.2892
22.6419 38.1758 64.8778
22.1642 38.3786 67.4102
22.3449 37.2034 63.3193
22.0508 38.0795 66.0628
22.3704 38.1856 65.185
21.2171 36.9817 64.9905
21.7188 36.995 63.8333
21.878 38.368 66.7904
21.2387 37.0208 66.1499
22.2028 38.348 66.1314
21.0031 36.3895 63.8301
21.3467 37.9736 67.587
21.5566 37.4456 65.4938
20.7201 36.8341 66.8945
21.9357 38.2877 67.3367
21.0549 37.2975 66.2672
20.6222 38.061 74.9412
27.7257 46.8925 75.9277
21.1994 38.192 68.9352
20.9138 37.1899 66.6369
20.3036 36.1365 65.1119
20.1611 36.5368 66.3867
20.419 36.9082 67.1626
20.2883 36.4156 66.4623
20.3737 36.7076 66.7731
19.8454 36.2022 66.8748
20.2999 36.5034 66.5908
20.6949 38.0752 69.3779
20.2525 36.9557 67.9923
19.794 36.2084 67.774
20.4404 36.7068 67.6587
20.3728 37.107 68.0316
20.4741 37.6786 69.0126
19.443 35.7568 66.9345
19.9414 36.699 68.1317
19.5016 35.9001 66.8155
18.9606 35.4123 67.2287
19.6792 36.2661 67.2824
19.2231 36.3669 68.5461
19.1619 36.0567 69.4553
19.5192 35.401 66.2333
19.0382 35.6266 66.7316
18.8913 35.5916 67.453
19.0102 35.9592 67.9745
18.617 35.5052 68.1732
18.6935 35.3589 68.6622
19.59 36.544 68.5601
18.8331 36.2609 69.516
18.6984 35.6077 68.1705
18.2297 34.9943 68.7295
19.1732 36.5743 69.357
17.8447 33.9194 65.8508
17.7929 34.8603 69.1408
18.8104 36.3354 70.2788
18.0711 34.5115 66.8363
18.0347 35.0035 68.4933
18.1934 35.2881 68.7056
17.9956 35.3787 69.2593
18.0623 36.0478 71.7502
17.9729 35.2062 70.2026
17.9233 34.8169 69.0894
17.8906 35.0971 69.6501
17.5269 34.547 70.047
18.3062 35.4245 69.7327
17.681 35.3359 72.0243
18.6303 36.2676 70.7313
17.2781 34.2292 69.1065
17.4947 34.3663 68.9381
17.3442 34.4906 69.3622
17.7198 35.5253 70.1819
16.8112 34.044 69.4671
16.9026 33.6686 69.2606
17.671 35.1745 69.7871
16.9357 34.4247 70.2695
17.396 35.4331 72.1644
17.412 35.6511 72.8837
16.7402 33.5488 69.4526
16.986 34.0516 69.3438
17.0335 34.8848 71.547
16.7799 33.9383 69.7617
16.3809 33.6356 70.8392
17.2026 34.9583 70.2074
16.2653 33.5284 70.2569
16.3987 33.9011 71.058
16.4137 33.5408 70.254
16.7104 34.4802 71.2115
16.0491 33.0092 69.1104
16.1807 33.9998 72.3019
16.8819 34.8753 72.4921
16.2304 33.4579 69.8549
15.9823 33.5297 70.3899
15.6068 33.0283 71.4337
16.4466 33.8413 70.3143
15.6252 32.985 70.3138
15.6494 32.4789 68.9711
15.9735 33.6861 70.2232
15.2632 32.7234 70.7313
15.5937 33.5247 73.0488
16.1361 33.5714 70.8935
15.6545 33.6216 72.6836
15.8214 33.5015 71.1717
15.0668 32.5309 71.0627
15.7782 34.0236 73.0527
15.3559 33.0008 72.3161
15.2387 32.2638 70.5729
15.5898 33.706 72.7825
15.3491 33.0103 71.9869
15.3961 32.7934 70.32
14.7301 32.2351 70.9663
14.9581 32.5877 71.6781
14.9114 32.4071 71.3638
14.8104 32.4806 72.3645
14.9863 34.3182 85.5199
19.8751 40.3138 78.6958
14.8607 32.675 72.303
14.8181 32.6523 72.6154
14.9345 32.472 71.5298
14.7136 32.5044 71.8456
14.5694 32.0326 71.3627
14.9045 33.2086 72.3255
13.9414 31.4721 72.3026
14.6816 32.5387 73.0708
14.3653 31.3529 70.8061
14.6438 33.2141 74.4526
14.6025 32.3714 72.7124
14.313 32.1845 74.4427
14.7888 32.4281 72.134
14.2587 32.0274 72.2383
14.0609 31.6402 71.9967
14.0562 32.0196 73.9018
14.4427 31.8569 70.8642
13.8332 31.4837 71.0863
13.6926 31.4779 72.0814
13.669 31.8121 74.9698
14.1157 31.536 72.205
13.6521 31.3024 72.7687
13.8011 31.0187 71.4961
13.6628 31.2529 71.8713
13.6366 31.3286 72.2793
13.6134 31.2538 72.7944
13.7786 31.859 73.7304
13.5238 31.084 72.8122
13.5291 31.5031 74.7926
13.8876 31.4274 72.0086
13.3064 31.0908 72.6742
13.1917 30.8858 73.9862
13.5747 31.0806 73.2426
13.574 31.1606 72.0678
13.219 30.6841 71.3086
13.1079 31.5877 74.7984
13.2327 31.0354 73.7339
13.1044 30.7662 73.3678
13.25 31.087 73.6438
12.9416 30.2447 71.3938
12.8283 30.6569 73.5995
12.7585 29.895 72.2337
13.0316 30.9583 74.6477
13.4281 31.8126 74.9837
12.9308 30.6799 73.7654
12.9387 30.7638 73.4364
12.8808 31.2232 75.3909
12.6114 30.1138 73.9153
12.9216 30.7927 74.8098
12.7321 30.0571 73.3585
12.9477 31.3248 75.6177
12.6911 29.9912 72.7874
12.3767 29.491 71.8249
12.4953 30.6951 75.1366
12.5012 30.053 74.5325
12.5794 29.7701 72.3087
12.4764 30.0805 73.051
12.4237 30.3395 73.8371
12.4631 30.7548 75.8779
12.6975 31.1888 77.3402
