# pn-170911/RbIIR-50-AMC2-1280-1959.psd
# Power spectrum* (dif=0,1,2) (really just |FT|^2)
# NOTE: only the first half! (symmetric)
# weeks: 1280-1959
# 233 clock-days, 236 excluded
# PSD: 1441
1421.11 0.0889577 0.0803863
20800.2 0.378332 0.198625
171699 3.74053 0.18133
15944.2 0.663603 0.173091
53224.6 4.16231 0.185419
5666.68 0.593199 0.192808
5187.14 0.816949 0.186332
2825.99 0.543814 0.172515
3264.78 0.971668 0.176123
1870.38 0.637104 0.172418
1828 0.784308 0.155575
1369.67 0.736068 0.161607
1361.71 0.800385 0.169836
1078.87 0.844472 0.193767
1002.52 0.839749 0.179915
816.053 0.812032 0.174971
822.4 0.916513 0.180168
774.721 1.01138 0.173532
640.644 0.981896 0.186128
602.355 0.996617 0.163091
576.906 1.10654 0.198114
498.463 0.960733 0.176268
523.83 1.18945 0.19803
495.299 1.16282 0.183906
445.206 1.21119 0.185306
439.782 1.23256 0.187713
407.063 1.3392 0.19589
401.814 1.40564 0.17417
405.722 1.38199 0.203781
414.132 1.51261 0.18983
376.051 1.51125 0.184449
343.111 1.48492 0.168309
378.127 1.61639 0.187512
322.706 1.63973 0.176213
302.911 1.63353 0.183379
330.852 1.7699 0.181339
367.661 2.06565 0.194355
289.73 1.75113 0.178905
295.176 1.90676 0.173009
322.727 2.24434 0.181834
261.547 1.86112 0.195371
276.394 2.20777 0.186097
284.468 2.26306 0.180159
278.274 2.38339 0.195465
259.208 2.30974 0.168943
289.567 2.76376 0.2159
271.713 2.53215 0.214103
259.16 2.59728 0.189553
290.779 3.04184 0.206484
269.458 3.02438 0.219989
250.553 2.81185 0.20711
236.169 2.77077 0.18961
249.705 3.09142 0.228128
246.052 3.14436 0.240165
259.84 3.66615 0.243764
237.489 3.19251 0.221031
238.626 3.43078 0.226083
258.406 3.8431 0.223611
230.219 3.67664 0.226594
250.745 4.08041 0.253416
245.171 4.14082 0.230194
222.559 3.87395 0.230633
229.611 3.94933 0.224706
186.494 3.46212 0.246275
233.685 4.38729 0.25061
205.443 4.12158 0.281087
219.394 4.43848 0.293625
235.691 4.81326 0.291959
218.821 4.59646 0.272034
201.529 4.34038 0.299331
221.924 4.96767 0.28711
226.57 5.29531 0.278708
201.846 4.87668 0.287673
223.733 5.66908 0.319313
226.56 5.70792 0.350138
219.955 5.7086 0.313572
207.645 5.73243 0.310371
183.922 5.23145 0.337394
213.469 5.82323 0.356509
176.076 5.40978 0.335419
217.721 6.50978 0.406444
201.581 6.04867 0.337184
209.348 6.51164 0.365943
174.065 5.53369 0.341709
195.982 6.55972 0.367806
199.917 6.58028 0.400905
183.649 6.19717 0.391395
183.825 6.36057 0.406893
186.48 6.80186 0.401849
174.05 6.57135 0.436331
212.21 7.87895 0.495917
179.974 7.02786 0.428535
173.465 6.73079 0.443967
176.384 7.42494 0.464626
187.55 7.95951 0.470691
179.963 7.55871 0.494737
175.588 7.63129 0.499971
169.279 7.38491 0.533132
163.802 7.35433 0.515509
183.963 8.33252 0.553033
180.853 8.40323 0.56136
210.257 9.88072 0.652334
180.424 8.82417 0.596314
164.622 8.27983 0.570534
179.61 9.02659 0.597737
170.835 8.7535 0.599951
173.175 9.01539 0.597683
175.311 9.33248 0.693791
154.886 8.28354 0.668328
185.078 10.314 0.753868
170.367 9.3939 0.663403
142.143 7.97559 0.598434
148.422 8.7898 0.657036
158.796 9.33606 0.75136
160.72 9.70882 0.727687
152.662 9.5407 0.787295
150.91 9.56032 0.756912
175.814 10.9837 0.847291
157.565 10.171 0.775707
173.082 11.3029 0.981551
180.826 12.1455 0.96706
178.055 12.0146 1.02809
149.003 10.4132 0.922048
165.263 11.9168 0.99484
157.931 11.0371 0.970103
149.649 10.9077 0.973058
170.827 12.5237 0.982643
141.433 10.4546 0.926128
142.332 11.0034 0.943375
147.211 11.5498 1.02368
157.024 12.248 1.14486
162.351 12.9537 1.19972
160.231 12.6075 1.13813
156.797 12.9501 1.18165
165.564 14.1531 1.38363
156.895 13.1192 1.16027
136.223 11.8282 1.19189
135.848 11.8095 1.21371
135.528 11.9555 1.23834
139.135 12.4032 1.27333
148.162 13.5546 1.36967
151.798 14.0066 1.43628
142.418 13.4482 1.42524
139.64 12.8164 1.38191
142.154 13.726 1.40483
123.739 11.8834 1.2311
133.526 13.3069 1.5073
145.437 15.0373 1.62214
122.887 12.5265 1.40291
133.074 13.7985 1.48458
129.645 13.7819 1.66712
135.788 14.1032 1.5555
123.559 13.28 1.57572
114.586 12.6595 1.54965
129.823 14.0562 1.69212
125.277 14.0188 1.70347
139.332 16.0043 1.91653
123.403 13.9313 1.69697
139.059 16.2212 1.99037
118.366 13.8325 1.63298
128.297 15.0756 1.86405
128.394 15.4909 1.96276
100.253 12.3076 1.66523
118.529 15.0325 2.09213
121.243 15.6483 2.09183
119.704 14.9338 1.96962
106.6 13.5751 1.85471
122.564 15.905 2.15076
109.924 14.3652 2.01231
138.991 17.8475 2.44118
109.096 14.9021 2.13079
118.97 15.7683 2.21995
118.011 16.6907 2.40463
128.662 17.678 2.61212
123.434 16.9266 2.3903
112.336 15.8213 2.4624
120.271 17.1952 2.57187
113.281 16.5346 2.57877
107.802 15.8963 2.41843
115.431 16.8362 2.52338
116.962 17.8806 2.74476
127.144 19.0339 3.02889
106.785 16.4896 2.64878
124.314 19.0247 3.05397
107.45 17.029 2.75078
123.234 19.7551 3.1959
105.044 16.7403 2.79476
113.687 18.5191 3.06351
112.624 18.4713 3.05027
106.419 17.5859 3.0547
107.625 17.7672 3.00284
106.478 17.8913 3.052
110.658 19.1376 3.42926
112.166 19.365 3.43642
103.106 17.5384 3.11567
115.224 20.5562 3.75795
110.602 19.7692 3.68244
107.823 19.0516 3.55477
101.17 17.9856 3.37191
111.52 20.8341 3.98884
103.604 18.9927 3.58694
113.291 21.4897 4.09212
105.303 19.7003 3.72787
112.152 21.912 4.36313
121.237 23.6743 4.62863
97.6995 18.986 3.89698
102.052 20.1002 4.01214
101.596 20.3069 4.22858
106.618 22.0145 4.577
90.8262 18.5917 3.78054
83.637 16.9594 3.59928
106.187 21.977 4.64427
101.199 20.9994 4.3566
98.3314 20.0792 4.1453
103.34 21.5092 4.61195
102.129 21.8456 4.66107
109.878 24.1014 5.32628
98.558 21.0691 4.56546
96.2885 20.7391 4.57834
94.3946 21.1362 4.87134
81.4919 18.3011 4.29944
92.2112 20.6006 4.74216
95.3481 21.2214 4.79578
96.0129 22.1338 5.17014
78.3451 18.4629 4.42198
97.7197 22.7438 5.3313
93.8675 21.0327 5.04416
88.2356 21.6211 5.10187
93.7417 22.8158 5.64768
106.596 26.3196 6.16365
83.8054 20.6322 5.13035
92.4305 22.5631 5.82798
86.8903 21.9688 5.47815
81.9378 20.5822 5.21591
85.5931 21.1903 5.33565
93.6404 24.0231 6.38199
86.9531 22.6775 6.06834
84.1758 21.4112 5.52454
82.1974 22.0137 5.81346
82.5426 22.045 5.99316
93.3477 24.676 6.47222
87.7532 23.2689 6.47253
80.1541 21.6899 6.0073
85.7674 23.7283 6.30117
81.1627 22.2452 6.09092
88.5303 24.304 6.86976
86.6806 23.5739 6.65872
103.333 29.3331 8.39114
79.043 22.1106 6.17763
86.3596 24.6768 7.18138
83.1641 24.307 7.30649
88.76 24.8229 7.1225
78.9277 23.0563 6.80471
82.1539 24.711 7.50777
72.7814 21.5111 6.55165
90.0298 26.1931 7.79396
85.778 25.9639 7.88636
77.5632 24.1867 7.31894
81.5878 24.3252 7.50023
80.6272 25.3151 7.93989
82.4606 25.9513 8.35225
80.3788 24.9897 7.58091
76.7697 24.1121 7.66987
75.1498 24.2931 8.04268
77.8217 24.5289 7.73415
84.2543 27.2293 8.63468
71.6829 23.8521 7.69435
72.6302 24.1861 7.69786
74.6086 24.7335 8.27631
79.2168 26.8919 9.20683
85.4421 27.8711 9.15943
77.4888 25.955 8.76683
69.2624 24.3031 8.46695
80.1658 27.3003 9.26108
71.3473 25.0048 8.73851
81.563 28.3901 9.86765
69.6362 23.8105 8.51536
73.1085 26.3088 9.47876
67.0876 23.2191 8.13614
73.0855 25.3168 8.77019
70.7561 25.6087 9.40263
72.5149 26.4864 10.0192
74.9536 26.4949 9.51356
69.981 25.534 9.46468
70.3615 26.4098 9.91267
70.2231 26.1781 10.1271
71.5815 26.4556 10.0814
74.0416 28.1432 10.9
77.0712 28.5304 10.9088
74.1482 28.19 10.81
70.2617 26.7744 10.1969
75.8596 29.7761 12.0281
86.7749 32.4277 12.1482
75.273 29.4764 11.4635
73.7827 29.6357 11.8395
73.0221 28.979 11.5712
65.4804 26.1657 10.1842
68.7519 27.9804 11.3221
74.6882 30.3867 12.4968
72.37 29.3669 11.747
60.7302 24.578 9.87281
69.6209 29.7662 12.724
69.8101 28.8464 12.2204
67.7267 28.541 12.4022
75.7705 31.9366 13.4554
68.6788 28.4279 11.8679
76.4519 32.5882 14.0809
66.0314 28.6331 12.5498
74.5081 32.0882 13.7289
66.1207 28.2585 12.2922
62.507 27.5418 12.4423
66.3648 28.223 12.2247
67.1937 29.3366 12.8561
67.6045 30.371 13.6768
64.1718 28.2471 12.8811
66.9374 30.3256 13.4279
63.5263 29.4611 13.5509
61.1214 27.4118 12.4033
62.6054 27.7981 12.5871
61.2716 28.2788 13.0604
63.4444 29.9103 13.9006
61.027 29.5597 14.3683
70.3241 32.5372 15.5807
68.2125 31.1056 14.1203
67.0549 31.9707 15.0862
62.9891 29.5745 13.9492
56.7405 27.5786 13.6907
59.7838 29.6736 14.4452
60.9909 29.6222 14.5795
62.8127 31.9734 15.8704
65.5958 32.1347 15.5111
60.8202 30.4109 15.4452
62.9482 31.7293 16.1629
63.1637 30.9857 15.5274
54.0019 27.1516 13.9556
58.9181 29.5048 14.7653
58.6254 30.1152 15.0762
60.5685 31.8447 17.0456
62.7547 32.3805 17.0359
61.4661 30.4603 15.1157
54.6091 28.0116 14.3357
55.0092 30.1252 16.6229
60.6612 31.4156 16.5447
65.6696 33.2422 17.1948
59.1878 30.6995 16.6634
56.9376 29.6357 15.8777
58.8346 32.401 17.5517
54.1581 28.0698 15.2734
53.2961 28.9532 15.8871
55.6825 30.6613 17.0295
51.337 28.4221 16.0023
59.5812 31.9831 17.5904
60.6373 32.893 18.1985
48.5038 27.0685 15.5399
59.5551 32.6497 18.2814
53.4224 31.4025 18.4318
56.6069 31.4023 17.879
55.9408 31.6954 18.0308
55.5634 32.5328 18.6638
52.9388 31.058 18.8855
61.2163 35.0361 20.2031
55.6642 32.1944 18.58
50.1023 29.7033 17.9846
49.3421 28.9655 17.2649
54.8293 33.16 20.4952
59.8526 34.4458 20.5632
61.2247 38.3536 23.5542
55.0846 31.1807 18.1078
50.9227 31.494 19.7227
47.448 27.4338 16.2619
51.8429 31.3473 19.1669
51.1864 31.8091 19.9514
54.1419 33.1121 20.2323
48.8834 29.3519 17.9971
53.0773 35.244 23.1901
60.4989 37.8261 23.6054
56.4147 34.9623 21.6814
54.4056 35.9618 23.6481
52.303 32.8852 21.2713
53.8412 33.5208 21.4982
54.4807 33.7467 21.161
55.677 36.7139 24.095
51.9312 33.0161 21.3323
52.852 34.2655 22.6001
57.9524 39.4075 26.78
50.2113 31.5481 20.1659
46.8589 31.1921 21.4165
62.3006 41.5918 27.3344
54.5727 37.1642 25.715
59.3618 38.7384 25.0389
53.8262 36.5464 24.7635
49.0108 33.9213 23.8848
47.2502 31.4684 21.5583
51.2692 35.572 24.5365
52.0033 35.7961 25.086
52.1892 35.7182 24.5851
53.4289 38.113 27.3051
51.4954 34.328 22.9918
48.932 34.9786 25.3055
54.4161 38.6947 28.0918
55.7515 37.7222 25.3306
45.2601 33.9747 25.4514
45.5479 31.741 22.9443
48.4103 36.156 26.7224
48.6676 33.6595 23.6538
46.7315 33.9851 25.3406
47.6716 35.2568 25.4867
43.5541 32.4468 24.8462
50.9177 37.144 27.775
52.513 36.0221 25.0099
40.9496 31.0299 23.9302
44.83 35.6597 28.6384
58.2977 42.783 31.345
48.2591 37.2403 29.0946
49.5108 35.9202 27.3102
47.7294 35.5311 26.7789
48.6157 36.2205 26.4131
42.8748 33.9361 27.1999
44.5644 33.7657 25.6516
44.0455 35.1196 28.3969
48.5718 36.7609 28.157
46.1034 36.4798 29.3489
53.3026 41.404 33.4729
57.6229 43.4703 33.0983
47.2478 37.2663 29.3836
42.1174 32.0163 25.5445
50.0205 40.0965 31.1396
41.2282 31.4072 24.7969
44.2353 34.6222 26.5058
41.0417 33.3694 27.0487
45.285 37.3339 30.2282
37.6727 32.1594 26.5948
39.0309 31.3383 26.0391
36.835 30.7221 26.0816
34.2267 28.01 23.533
39.6359 35.2564 31.963
35.6042 27.2509 22.3325
45.5044 39.186 33.3347
44.9111 35.5068 28.5559
38.7243 33.2234 28.4215
40.2182 34.6213 29.6436
37.8783 31.39 27.5846
46.7265 39.7215 33.4159
41.3421 34.7124 29.39
48.9335 42.882 36.8518
36.4834 30.9324 27.6123
40.3865 34.4008 29.7019
41.4785 34.9881 30.1169
43.583 38.1167 33.2236
32.5684 27.9717 26.0103
40.8499 35.3433 30.3488
36.005 31.9394 28.2419
43.3188 38.5735 33.6401
39.7544 33.9654 29.9184
40.7789 37.2303 33.8639
41.4075 37.1136 33.3855
36.0375 31.4461 28.5407
38.0351 33.2876 28.6803
36.7237 35.2132 32.963
32.4271 29.6996 28.5798
34.3503 30.4121 27.6644
31.0615 29.5987 29.6121
37.1627 32.4072 28.8401
34.3895 31.3408 28.4449
37.0649 34.2975 31.8757
38.8528 35.6201 33.1572
36.1592 33.8392 31.9357
34.2815 32.5177 32.1697
35.2513 33.0414 30.7457
34.0882 32.9472 32.2285
35.4735 34.4781 33.3488
35.1125 33.5393 33.1201
34.4956 31.8554 31.8474
35.9204 33.2561 31.6225
42.0419 41.2798 39.9359
35.978 34.0085 32.6401
32.4065 32.3018 33.0416
37.8716 37.1771 37.1267
38.3477 34.749 33.434
42.5612 43.0436 42.7513
35.6895 34.4044 34.0564
36.8656 37.7058 39.2205
37.8745 35.9429 34.8749
40.132 42.4983 44.2037
42.3042 41.9294 43.8588
38.7009 34.9176 34.0678
39.4636 38.0398 35.7964
30.7214 32.6216 34.987
36.2579 36.6645 37.3572
35.0123 35.3541 35.2407
33.4493 36.1647 37.8566
30.0294 31.5194 34.8835
33.6233 34.7466 37.0057
37.0925 36.4109 35.3872
34.878 39.0688 42.9896
37.4082 37.9973 39.5353
39.6033 41.8477 44.433
39.3602 41.5394 44.5004
36.7055 38.5896 41.0332
39.0664 40.6007 40.8593
31.2939 34.5296 38.713
33.5752 35.8648 37.9045
35.0119 39.8689 44.854
32.3845 34.2851 38.3436
37.8766 39.1897 40.2818
36.4486 41.563 46.6641
36.2911 40.4228 45.755
32.9768 33.9093 36.6042
32.6378 35.1375 37.9737
29.1272 31.3391 34.2686
28.2341 32.8002 38.9086
31.0346 32.3848 35.4123
31.3284 35.8905 39.7166
33.1133 37.0121 42.4003
30.6867 33.6909 37.3373
32.4421 36.3857 40.0154
30.7092 36.021 41.9392
29.204 33.0655 38.384
29.1105 32.9686 38.9669
32.1776 36.6687 43.2739
34.1594 36.3237 39.6889
31.388 36.9272 43.4812
32.1989 35.9005 40.7873
29.0343 33.2257 38.8372
30.5713 34.5351 39.5931
33.6517 38.4006 43.2568
31.4904 37.5892 43.9477
29.1828 35.496 43.8016
29.2003 33.3514 39.7659
29.4173 32.6373 37.0344
28.3135 34.3527 41.3896
25.8599 32.2778 41.2733
30.3918 35.4532 41.8289
30.4437 34.3496 39.8488
30.5578 37.1499 44.6371
26.0816 29.8448 36.8118
29.32 32.9645 38.1331
28.6767 34.4937 39.9954
26.7727 34.2622 42.9459
23.2929 28.4803 38.1408
28.5157 33.0013 38.7383
27.1336 33.0764 40.3222
26.6793 33.6454 44.7851
27.2498 31.5042 37.608
26.6659 33.4324 42.5944
28.7222 35.0981 43.4413
27.2917 32.9677 41.3617
26.6493 32.1186 39.6626
28.8218 37.409 46.292
24.663 31.171 41.8755
29.2371 35.3859 41.7995
25.2851 33.2023 43.1069
23.1311 30.7816 40.9511
23.286 29.5501 39.1944
25.3895 31.3262 40.0653
23.5997 30.448 39.212
26.5265 34.8264 46.4734
26.2416 31.8465 40.3789
27.2185 36.5195 47.1263
24.7414 32.6772 44.0613
27.9186 37.0349 49.23
25.9521 30.8492 39.9942
25.4376 33.2265 43.7858
24.4673 32.8846 45.1514
25.4765 32.4962 42.2494
25.2037 33.7061 44.3663
24.4662 33.3406 45.3942
25.3043 33.2113 45.2754
26.4311 33.4526 42.3309
25.7209 34.0982 45.3167
23.22 31.5985 44.593
23.6365 29.1961 38.3219
27.0879 37.2258 47.7982
22.6814 33.3559 48.9157
26.7139 35.0248 47.9107
27.634 37.8368 51.1626
25.6774 36.9865 53.3483
24.0276 29.5813 39.7341
24.7727 34.5616 46.4181
21.4918 30.4251 45.2466
24.7519 34.1956 48.8847
23.705 31.9168 47.7798
27.836 35.7444 45.3826
24.4814 34.9767 48.9821
24.0516 34.8509 49.1616
24.8676 33.1992 46.9763
24.8728 36.161 51.4697
25.2402 36.6612 53.3
20.8174 27.0134 40.5505
23.8675 32.5038 44.282
20.3321 29.7216 43.382
23.3092 33.4845 49.6059
24.702 33.7429 47.5393
23.9642 33.852 48.3302
21.2583 29.8655 42.3881
21.538 32.3215 48.76
24.1602 33.1483 46.7074
22.5264 32.5874 46.3419
21.7331 33.291 50.2344
21.3124 29.8843 43.7185
23.4477 34.4363 50.5336
21.5383 30.585 43.6724
20.4361 32.1233 51.7006
22.3964 32.0523 48.2675
24.6911 36.2897 52.6372
22.2101 32.9235 49.1397
20.6336 32.2981 50.9676
22.284 31.5581 45.3591
20.2038 32.2625 51.4676
21.32 30.0355 45.0849
21.3454 32.0321 47.6313
22.023 34.0731 51.2396
19.592 28.7919 42.1004
19.3382 31.1704 49.1057
19.9004 29.5614 48.1413
21.6698 30.867 44.1641
19.7729 32.6599 51.8465
19.9218 29.5381 46.6178
19.7176 31.0685 48.9124
21.0151 34.3718 54.5799
19.7398 28.7809 44.3091
19.1213 31.2793 50.4691
22.1099 33.743 52.0741
20.7869 31.4896 49.2058
19.3269 30.8976 50.0007
19.7059 29.881 46.8629
18.7476 28.2894 43.522
17.8659 29.0592 46.6163
20.0576 31.5141 49.4306
17.4679 28.2402 47.8903
20.773 32.4818 52.0744
19.8866 30.8799 48.3356
17.9918 29.1666 49.614
19.8749 29.5605 46.8671
18.0741 26.8048 42.0712
17.1259 28.4779 47.0169
18.4952 30.9411 52.6429
20.2628 31.5225 49.8518
19.5366 31.2396 52.2926
18.0496 26.7677 43.7554
16.2202 25.0583 40.4858
17.6242 29.3146 48.3291
19.4661 33.6819 55.5142
17.0242 28.6015 50.4438
20.0964 31.9943 51.8239
16.852 26.2449 44.803
18.7469 31.695 51.8525
17.0318 28.2287 48.9173
17.6218 28.4286 47.837
17.7522 27.9236 46.3445
18.3332 30.2333 50.6465
18.24 31.5157 54.9467
17.2633 27.5499 46.6354
17.5283 29.57 50.91
16.8495 27.5267 47.4655
18.0658 29.938 49.2292
18.1685 32.6054 55.5277
16.9053 27.3928 47.6042
18.1495 30.6276 52.9859
18.0059 30.3249 50.6205
17.4758 31.8884 57.5485
19.6844 33.199 57.0322
17.3045 30.4237 55.8853
17.1387 28.1552 52.2275
18.7562 30.5431 52.3568
16.4652 26.9813 48.553
16.7452 27.1257 46.555
18.2589 31.6723 54.5891
16.833 30.1603 52.5782
16.7858 29.4281 52.6053
16.4037 28.7224 52.5112
17.0265 28.9899 52.9709
18.1602 32.2077 56.113
15.6015 26.2742 48.6271
16.4782 28.2878 49.6862
16.7537 29.1673 51.4423
15.4893 27.66 48.8064
14.5461 26.601 47.7871
14.5285 24.8233 44.7091
14.5414 26.4673 48.108
16.0882 29.7459 54.0901
16.8629 30.4664 54.6287
16.3794 29.3826 51.7164
15.0199 29.1203 57.6092
15.7443 26.8557 51.3832
17.374 31.6181 60.2656
17.3938 29.5737 51.1227
15.4187 28.9609 52.6472
13.9763 24.8562 52.257
18.4252 31.3279 53.0112
15.7418 29.8876 52.8448
14.4872 28.5428 56.4762
15.7271 26.708 49.1147
15.851 30.8658 58.1904
16.2436 30.2127 56.6447
16.3887 29.0689 53.1575
15.1764 27.5081 53.8161
16.6779 31.1282 57.2517
14.6019 26.9425 54.1498
16.7836 30.8906 55.5926
13.931 25.6049 47.5912
13.1322 23.3638 42.5547
12.169 24.6006 50.2227
14.2959 25.9974 47.8828
13.5859 28.7801 60.4986
15.56 26.0258 48.7902
14.5476 27.6019 53.5946
15.2901 29.5673 58.6636
15.4056 30.3211 60.2071
16.3056 28.7951 50.4554
14.1332 28.6076 55.7723
14.003 26.4689 56.0852
16.053 30.7766 61.5722
14.9695 26.3775 49.4729
13.0561 24.007 47.0823
14.5208 28.5088 54.4165
13.1703 26.3518 53.1593
13.7453 26.6395 53.6269
15.0035 29.1832 57.846
15.875 30.0939 58.385
13.1893 25.5291 52.5101
14.1812 28.3681 59.3138
15.3297 28.1806 51.8035
13.7289 29.2668 58.7497
13.8965 27.0505 57.9158
15.904 30.0456 55.2389
12.6225 27.054 56.0208
13.2437 25.6641 52.6361
14.1076 26.8871 51.0849
12.7861 27.0589 55.0033
13.4869 29.8201 63.4383
12.7549 23.8383 50.3246
14.0559 29.2202 60.1288
13.6032 28.3753 61.3486
14.6682 28.6407 57.5491
13.5907 27.3378 60.3353
14.2577 26.988 56.0379
14.6289 29.8351 61.6841
14.1927 28.0557 56.215
13.0811 25.7938 53.6817
12.9755 24.3474 48.8857
12.5443 27.2501 57.4786
13.0898 25.2944 55.1491
14.4119 28.6863 57.3915
13.9971 28.7266 56.9985
11.8236 25.4246 58.2022
14.8272 29.628 59.0452
11.9041 25.2083 56.0487
13.4994 26.4377 54.3589
12.425 26.8356 55.6511
11.4255 23.2673 51.5229
12.6894 28.1671 59.3015
12.573 25.2945 50.1321
10.9811 26.5709 62.398
13.6348 27.0106 59.5609
13.474 25.0686 50.5654
12.8544 26.414 53.6877
11.7921 27.0449 58.1666
11.7854 26.2296 60.3855
13.2508 25.7094 50.8448
11.4917 26.4456 58.2046
12.1014 26.6774 60.0529
13.3274 28.4876 60.5267
12.1013 26.9049 57.7158
11.6602 26.115 60.299
12.0939 23.1141 51.142
12.0371 25.8452 58.8317
12.6223 26.0492 56.5718
11.7085 24.6523 53.8696
12.0831 26.9202 57.5663
11.4988 24.9549 54.3334
11.9011 27.4102 60.7612
11.4675 23.9277 53.6223
11.6481 26.6428 63.0466
12.4034 25.9668 60.1387
13.1134 28.3083 61.0609
11.126 23.4214 54.4904
12.0184 26.0546 57.688
12.0639 26.6468 60.1121
11.4872 24.1321 53.5216
9.83512 22.035 52.0548
10.7887 22.8929 52.682
10.6051 23.1646 55.3776
11.1203 22.8822 47.9098
10.5472 24.9088 58.4279
11.334 24.2416 54.4385
12.1765 27.325 60.1931
10.4761 22.9796 52.2228
10.139 23.3327 56.1208
11.6197 25.6413 60.3777
12.1657 26.325 56.2816
10.3418 23.4691 54.3643
10.072 23.3186 54.4107
10.2956 23.5794 56.5511
10.2716 21.5263 50.5118
10.2588 24.0087 61.0704
11.8011 23.7893 53.8596
10.9403 22.8164 51.8132
12.5733 28.6429 59.352
10.5097 24.7907 56.6538
10.3669 23.2204 54.413
10.0934 23.0274 53.7002
10.0111 24.898 62.2992
10.969 22.7061 54.6305
10.8956 24.1454 54.3965
10.2786 24.222 55.3063
10.653 24.8937 57.9263
10.25 24.2552 62.5696
11.6759 25.4465 62.0918
11.6577 27.0896 64.1384
10.6718 22.3942 54.6049
10.671 23.7556 52.7056
10.0898 24.2778 57.0348
9.70967 21.8162 53.3096
9.52243 22.5989 56.5706
10.766 23.9947 54.3405
10.4439 24.6705 56.3416
9.73648 24.3702 58.092
10.362 26.387 65.7794
10.1464 23.9832 61.569
10.2523 22.8224 53.9735
9.86442 22.1437 54.4667
9.54241 22.3651 51.8595
8.88415 22.2393 55.5608
9.86143 24.6732 60.3052
9.89696 22.1013 53.1132
8.85808 20.6661 51.669
8.9241 20.4755 51.3114
8.18577 18.8891 50.8911
10.1803 22.9933 53.9977
9.64669 23.1395 53.9801
