# pn-170911/RbIIR-61-USN3-1280-1959.psd
# Power spectrum* (dif=0,1,2) (really just |FT|^2)
# NOTE: only the first half! (symmetric)
# weeks: 1280-1959
# 3410 clock-days, 51 excluded
# PSD: 1441
309.203 0.0458988 0.0184913
13561.7 0.322471 0.00966424
46339.4 0.889748 0.00968765
16275.8 0.626058 0.0097745
16215 1.15978 0.00982103
6013.4 0.611168 0.00973942
4886.67 0.730688 0.00995207
3142.5 0.628434 0.00980699
2492.41 0.65448 0.00996223
1941.08 0.64047 0.00997636
1650.38 0.675249 0.0100021
1346.96 0.674597 0.010183
1167.72 0.684498 0.0101341
984.359 0.679253 0.0103187
890.805 0.727378 0.0102284
736.866 0.689591 0.010678
701.134 0.729596 0.0105939
603.979 0.734083 0.0107865
558.16 0.76121 0.0110098
511.465 0.776877 0.011062
483.508 0.810479 0.0113584
458.568 0.865129 0.0114822
410.265 0.832123 0.0117042
395.172 0.875349 0.0118604
364.231 0.894114 0.0122729
344.713 0.914502 0.0126718
330.718 0.95666 0.0128011
306.377 0.979461 0.0132282
298.609 0.996432 0.0136841
283.825 1.02766 0.0140874
279.741 1.09029 0.0145157
262.684 1.08411 0.0147323
250.951 1.12399 0.0154695
251.727 1.1928 0.0156329
242.639 1.2343 0.0170769
236.94 1.2704 0.0171759
221.561 1.25389 0.0176176
216.481 1.29106 0.0182608
218.08 1.3804 0.0197622
211.498 1.40272 0.0203192
201.528 1.41982 0.0207534
194.84 1.45642 0.0218546
197.334 1.55483 0.0229742
192.516 1.59068 0.0242894
192.82 1.64052 0.0244625
183.744 1.68419 0.0265957
178.769 1.6959 0.0271153
180.227 1.80526 0.029318
179.936 1.83814 0.0298329
174.104 1.90436 0.0322539
171.938 1.93231 0.0325643
172.793 2.03015 0.0348767
171.486 2.10346 0.0368567
169.799 2.17103 0.0397319
173.336 2.29203 0.0423242
166.305 2.2975 0.0432016
159.372 2.25467 0.0433386
158.892 2.32254 0.0459906
161.622 2.47277 0.0503155
160.157 2.5215 0.0518175
152.559 2.50163 0.0524793
151.57 2.55873 0.0551152
153.231 2.67313 0.0593018
153.71 2.78408 0.0629015
152.624 2.86378 0.0665486
150.779 2.94057 0.0704962
147.574 2.93356 0.070804
147.63 3.01894 0.0753856
147.97 3.13908 0.0778799
148.455 3.24155 0.0841332
141.723 3.19123 0.0845918
144.479 3.36019 0.0919202
140.891 3.36015 0.0929233
141.493 3.495 0.09962
137.45 3.4512 0.100352
143.38 3.74345 0.112157
140.304 3.74451 0.113649
141.17 3.8135 0.116863
139.957 3.91244 0.124849
133.061 3.82789 0.122893
135.961 4.04022 0.133923
138.142 4.20458 0.142183
137.248 4.27433 0.146382
133.916 4.25808 0.151241
134.814 4.38939 0.15823
131.94 4.4095 0.161843
129.252 4.45968 0.168484
127.46 4.47329 0.169365
130.357 4.69919 0.183528
133.99 4.89796 0.196421
129.074 4.83527 0.197153
128.482 4.95269 0.204462
126.848 4.98187 0.211585
126.219 5.06935 0.215845
123.461 5.03009 0.220714
127.005 5.32786 0.237502
127.57 5.46703 0.249251
121.432 5.28444 0.246237
123.201 5.4999 0.261674
121.058 5.53234 0.268368
123.73 5.73538 0.281915
119.729 5.63468 0.282585
119.947 5.78229 0.294105
119.921 5.92973 0.310845
121.237 6.11657 0.324004
117.634 5.99814 0.32621
117.542 6.16057 0.340934
117.676 6.26159 0.351473
116.648 6.35226 0.360877
118.559 6.54498 0.380048
113.683 6.38771 0.375778
113.479 6.52211 0.392963
116.078 6.79372 0.414981
114.385 6.84199 0.423646
114.8 6.9184 0.440213
114.443 7.0838 0.457246
111.674 7.0378 0.458402
117.683 7.51478 0.496028
110.186 7.17509 0.482535
110.514 7.30686 0.499813
108.39 7.23145 0.504808
113.902 7.80219 0.552745
109.398 7.54682 0.543274
108.116 7.61882 0.553998
109.362 7.84231 0.582416
110.442 8.06225 0.611749
108.677 8.05543 0.615149
104.875 7.88294 0.611569
107.941 8.24214 0.646411
104.582 8.0905 0.645701
100.356 7.92653 0.650059
103.423 8.26993 0.682151
103.913 8.48797 0.70696
106.062 8.68712 0.736101
102.315 8.59404 0.742537
103.798 8.80308 0.76791
102.073 8.76167 0.776116
100.463 8.78338 0.790472
98.9947 8.79272 0.806223
100.386 8.98193 0.830721
101.306 9.23551 0.866017
100.191 9.28207 0.883735
98.5296 9.26536 0.894279
98.6633 9.44512 0.925604
99.1942 9.52116 0.937814
96.3663 9.43843 0.94726
92.7663 9.22182 0.940256
95.1632 9.5943 0.994526
94.6885 9.71121 1.01895
94.8071 9.78841 1.03299
95.8975 10.0734 1.08091
95.7602 10.1474 1.10376
93.3175 10.0753 1.10735
92.2329 10.1309 1.13953
92.5641 10.2393 1.15428
94.404 10.5704 1.20962
91.7142 10.4065 1.21231
90.8253 10.4328 1.21934
89.1398 10.3512 1.22553
93.8722 11.0689 1.33187
91.3089 10.969 1.34219
86.5251 10.4682 1.29628
87.8 10.761 1.34302
90.4419 11.1505 1.40476
88.9938 11.163 1.43298
88.2146 11.2181 1.44933
86.1825 11.087 1.45619
87.83 11.4571 1.51702
87.3317 11.4616 1.53357
85.9888 11.4776 1.55294
85.7805 11.4803 1.56382
86.535 11.828 1.64863
86.1127 11.8082 1.65014
84.7959 11.8994 1.69235
85.1113 11.9384 1.71415
84.2954 12.057 1.74801
86.599 12.503 1.83817
83.5838 12.2082 1.82063
81.2699 11.9839 1.80414
85.2365 12.6642 1.91326
80.2383 12.0977 1.8599
81.928 12.3638 1.90663
79.8091 12.3201 1.93794
84.0982 13.0488 2.06547
78.6311 12.3449 1.98175
79.5473 12.6455 2.04187
78.4142 12.7038 2.08043
79.6564 12.9101 2.12685
79.2215 13.0424 2.18733
80.2293 13.2867 2.24213
79.3247 13.2211 2.24666
78.9841 13.426 2.31333
76.9757 13.2642 2.32304
77.6041 13.3992 2.34355
77.1945 13.46 2.38585
77.5583 13.6909 2.45041
76.7 13.5868 2.45285
74.9568 13.4981 2.46083
76.4282 14.0536 2.59903
73.6465 13.5376 2.53367
76.1058 14.1794 2.68043
72.4622 13.5668 2.58774
75.6191 14.3184 2.76522
71.1778 13.522 2.61707
72.8751 14.0138 2.74349
71.7732 14.0342 2.77485
73.713 14.5364 2.91836
72.7298 14.4279 2.89952
72.144 14.4375 2.9268
70.985 14.4522 2.96512
70.4099 14.4073 2.98222
69.0668 14.2465 2.97551
69.838 14.5238 3.07209
70.4441 14.815 3.15906
70.1062 14.893 3.20506
70.4398 15.0524 3.25214
66.9109 14.3698 3.12277
66.5504 14.6111 3.24866
67.1468 14.82 3.31214
67.7427 15.0357 3.37352
67.5452 15.0865 3.42512
65.0975 14.7598 3.39225
68.1475 15.4674 3.55439
64.4267 14.8196 3.45862
66.2269 15.3831 3.61935
65.1235 15.1625 3.58449
63.3299 14.9838 3.59296
64.224 15.2548 3.66567
64.0155 15.4607 3.77203
64.3836 15.6497 3.83
64.045 15.6243 3.86243
65.8375 16.2332 4.04613
64.1587 15.9905 4.02582
63.7966 16.0433 4.08796
60.973 15.3781 3.93402
64.0312 16.2967 4.19955
61.9624 15.9314 4.13923
62.2012 16.2297 4.28414
60.6109 15.884 4.20406
63.1666 16.7059 4.44927
62.6334 16.655 4.47588
60.2307 16.159 4.37052
58.9569 16.0195 4.40445
57.943 15.6618 4.298
60.3865 16.4453 4.53378
60.242 16.7435 4.69825
58.5498 16.4484 4.66046
59.0183 16.5568 4.71443
59.0074 16.7334 4.80994
58.2578 16.5513 4.76604
58.413 16.8908 4.93368
58.9621 17.1015 5.03344
57.3567 16.7252 4.95312
58.7677 17.1462 5.07566
55.9206 16.6156 4.98261
58.1074 17.3196 5.22173
56.4295 17.0862 5.22516
58.878 17.8437 5.46992
55.9268 17.0266 5.22008
55.6713 17.4651 5.49033
54.7815 17.0652 5.38756
56.5739 17.7847 5.66485
56.3554 17.5584 5.56115
53.5554 17.0278 5.47424
55.1956 17.6169 5.66722
53.2807 17.2484 5.6435
53.1716 17.3166 5.70379
52.6873 17.3584 5.75946
53.0783 17.519 5.85602
53.6368 17.6597 5.88558
51.2364 17.1883 5.83916
53.095 17.7403 5.98377
52.4834 17.9146 6.18018
52.1335 17.7626 6.11103
52.7006 18.2248 6.36722
51.0862 17.7171 6.21393
49.5469 17.413 6.18401
49.7851 17.2532 6.0746
49.5069 17.5826 6.3272
50.8889 18.0103 6.44328
50.4431 18.1038 6.52693
48.4771 17.4582 6.38487
49.6106 18.1276 6.65995
49.4971 18.0901 6.67609
47.2626 17.5335 6.58639
49.9267 18.5612 6.97018
48.5677 18.1274 6.84243
48.7672 18.3738 6.98792
48.4856 18.2708 6.94891
47.2167 18.0427 6.99746
47.437 18.129 7.01242
47.4531 18.3893 7.15974
46.9277 18.3301 7.21261
47.5488 18.4737 7.23801
46.2309 18.471 7.43405
45.3519 18.0725 7.27274
46.8323 18.6574 7.51773
46.3163 18.5754 7.49747
44.1868 17.9989 7.39189
46.3543 19.0024 7.8222
45.0578 18.5787 7.73889
45.2248 18.7028 7.78901
44.4175 18.4118 7.73026
45.3634 18.9349 7.97274
44.8665 18.932 8.03997
45.0375 19.0808 8.1674
43.5361 18.4386 7.87545
43.0274 18.6346 8.15658
43.7132 18.6885 8.06821
43.1464 18.8474 8.31371
43.6281 18.8856 8.28372
43.5536 19.2029 8.52899
43.8384 19.3642 8.60517
42.0012 18.9058 8.55392
42.5236 18.9937 8.58898
41.3191 18.4308 8.34879
42.6281 19.3892 8.87016
41.1745 18.7452 8.6084
41.4986 19.061 8.84867
41.8928 19.2811 8.90522
39.4813 18.4875 8.76726
40.965 19.1114 8.99725
40.0058 18.9107 9.04141
41.5752 19.5958 9.3184
39.7741 18.8874 9.04743
40.4994 19.4707 9.38272
40.2296 19.3642 9.42388
39.9481 19.5711 9.67295
41.434 19.9199 9.66758
39.4979 19.4667 9.6801
39.6407 19.4875 9.65012
37.5793 18.7323 9.4356
39.3118 19.3693 9.64627
37.8398 19.1518 9.78276
38.6832 19.2855 9.75498
37.9193 19.2593 9.91151
38.8478 19.8276 10.1642
37.13 19.0017 9.84727
37.7427 19.4485 10.0579
36.6328 19.0094 9.98359
38.3904 20.1273 10.5914
36.6902 19.1112 10.1023
36.7872 19.4241 10.3423
37.0205 19.551 10.3815
34.7211 18.5404 10.0403
36.3003 19.425 10.4929
36.8916 19.9085 10.7998
35.8277 19.4925 10.6558
35.5137 19.4787 10.7692
35.5775 19.6058 10.921
35.5741 19.5726 10.8903
35.5674 19.6661 10.9782
35.9557 20.2244 11.4206
35.5777 19.9371 11.2986
34.2036 19.1115 10.8251
34.2214 19.4071 11.1755
35.1037 19.8392 11.2403
34.2682 19.7065 11.388
33.005 19.0438 11.0854
33.227 19.3073 11.3505
33.8727 19.6124 11.457
33.4822 19.5451 11.5356
33.6543 19.7662 11.7589
33.7398 19.667 11.5544
32.7817 19.5543 11.7613
32.6743 19.3939 11.5982
32.142 19.4594 11.8375
32.4904 19.7721 12.1191
31.8898 19.1942 11.7812
32.9391 19.8774 12.1173
32.2201 19.7471 12.2167
32.4 19.9576 12.4011
31.8623 19.7101 12.3213
32.2174 19.9904 12.5315
31.9353 20.0321 12.6691
32.6783 20.6574 13.1215
31.9393 19.9786 12.6464
30.6007 19.5227 12.6178
30.8172 19.4391 12.4543
30.9333 19.8498 12.7892
30.6471 19.7742 12.8202
30.3158 19.6713 12.8974
30.0221 19.3442 12.5812
30.4989 20.0333 13.2206
29.6034 19.3143 12.7545
28.9521 19.2735 12.9177
29.7811 19.8522 13.4327
31.1794 20.5486 13.5808
30.7222 20.651 13.9054
28.6682 19.3125 13.1631
29.7175 20.229 13.8298
29.3981 20.0897 13.8314
28.1324 19.1796 13.302
28.7131 19.5376 13.4199
28.2573 19.6755 13.8706
29.3145 19.9606 13.8054
29.1077 20.156 14.005
28.3695 19.7934 13.8689
27.4016 19.1778 13.585
27.9566 19.7842 14.0392
27.3852 19.6189 14.1552
28.1561 20.1602 14.5134
27.3365 19.359 13.8133
26.4642 19.2103 14.0832
26.3896 19.1724 14.0808
26.8701 19.5616 14.4028
27.1817 19.4996 14.1637
27.2771 19.9567 14.6401
27.2427 20.3604 15.3331
27.2937 20.0638 14.9367
26.3693 19.3295 14.3572
26.2607 19.5581 14.5785
25.4561 19.3277 14.8468
25.7362 19.2089 14.5147
26.2214 19.9181 15.2194
25.7218 19.5814 15.0438
26.2484 19.9881 15.3694
26.2284 19.9868 15.3421
25.3084 19.4238 14.9873
25.139 19.7943 15.668
26.0781 19.9942 15.5241
25.3389 19.8083 15.6248
25.7787 20.1528 15.8189
25.0475 19.7783 15.7667
25.0983 19.8106 15.7953
25.008 19.8309 15.9112
25.3133 20.0174 15.9706
24.6401 19.8619 16.1428
25.0784 20.1602 16.3802
24.8485 19.9008 16.1208
24.4238 19.6586 15.9105
23.6534 19.375 15.9712
24.3028 20.0526 16.5819
23.2414 18.941 15.7304
23.5417 19.1834 15.7754
23.2613 19.456 16.3107
23.6015 19.685 16.588
23.5716 19.7717 16.6891
23.8316 19.8325 16.6475
22.9769 19.4189 16.5217
23.0459 19.6987 17.0272
23.9165 20.1369 17.0536
22.5164 19.2223 16.5747
22.692 19.5087 16.907
22.6271 19.7344 17.275
22.8673 19.6756 17.1205
23.0933 19.9802 17.3343
22.0369 19.3071 17.0287
22.1296 19.4411 17.174
22.0948 19.3927 17.2285
21.87 19.1865 17.0162
22.1459 19.737 17.6462
21.9339 19.4487 17.3526
21.6698 19.3277 17.2955
20.93 18.9297 17.3164
21.748 19.5538 17.6183
21.0024 19.0429 17.5063
21.3402 19.3167 17.6214
21.3369 19.6381 18.1688
21.3378 19.4269 17.831
21.3292 19.4981 18.0292
21.6793 20.0607 18.672
21.593 19.9465 18.5994
21.1997 19.5764 18.2139
20.8912 19.684 18.6126
20.986 19.5553 18.3619
20.6793 19.653 18.7836
21.2594 20.1826 19.2642
20.6517 19.5526 18.7662
20.8209 19.7014 18.927
20.4602 19.4431 18.5863
19.9401 19.2366 18.6918
20.3183 19.4658 18.6411
19.4418 19.1711 19.0534
20.6393 19.7444 19.1953
20.0096 19.4454 19.0893
20.4114 19.8102 19.275
19.7212 19.4285 19.2609
19.8191 19.4982 19.3081
18.7976 18.6178 18.656
19.1924 19.2071 19.4099
19.6012 19.3999 19.4094
19.6155 19.5723 19.5996
19.6408 19.797 19.9063
19.7031 20.3828 21.1144
19.5519 19.457 19.6992
18.9482 19.3202 19.9429
19.1801 19.368 19.773
19.1366 19.77 20.6806
19.5364 19.728 20.1092
18.9674 19.7312 20.5221
18.2154 18.7788 19.6213
18.692 19.3665 20.2774
18.314 18.8885 19.5613
17.9664 18.9303 20.0728
18.2445 19.2689 20.4856
18.1584 19.0871 20.3036
18.0249 19.2142 20.7737
18.0327 18.8014 20.0683
18.2306 19.2995 20.6466
18.2431 19.2419 20.4685
18.2608 19.6592 21.1211
17.1173 18.4323 20.0867
17.4675 18.7802 20.3948
17.455 18.8127 20.459
17.7173 19.3821 21.2219
17.3394 18.9962 20.9884
17.4624 19.1815 21.2174
17.2837 18.9402 21.0026
17.5035 19.3977 21.5687
17.3719 19.2437 21.4617
17.1456 19.0954 21.4009
17.0393 19.0448 21.6197
17.3058 19.2081 21.619
16.9812 19.084 21.6615
17.2973 19.3532 21.7829
16.5617 18.7223 21.3786
17.0059 19.3173 22.1474
16.774 18.9889 21.7402
16.5155 18.8072 21.5657
16.4168 18.8226 21.6483
16.5742 19.2957 22.4502
16.1538 18.6145 21.7515
16.4311 18.8999 21.8343
16.0534 18.851 22.3115
16.2788 18.8492 22.0264
15.9674 18.6446 22.0783
16.0222 18.7005 21.9117
15.7889 19.0186 22.9585
16.0083 18.6549 22.0298
14.9836 17.7404 21.3198
15.6285 18.75 22.7087
15.8871 18.8873 22.7824
16.0213 19.1117 22.9943
15.7339 18.9508 22.9195
15.5717 18.9279 23.1583
15.664 18.6878 22.5915
15.0169 18.3589 22.7106
15.3279 18.6355 23.0362
15.3679 18.6661 22.973
15.2779 18.5536 22.8688
15.4309 18.9495 23.3389
15.1567 18.6002 23.1729
14.986 18.4665 22.9986
14.9828 18.4883 23.0248
15.0129 18.5983 23.2597
14.9135 18.7354 23.5841
14.5557 18.1027 22.849
14.4479 18.0413 22.8964
14.4421 18.0748 22.7973
14.5557 18.3809 23.2568
14.2552 18.1729 23.3542
14.4989 18.3927 23.3947
13.8712 17.8146 23.0938
14.2534 18.4307 23.977
14.1715 18.1739 23.7141
13.8193 17.7232 23.1882
14.1463 18.1042 23.447
14.1576 18.5717 24.3548
14.3439 18.5441 24.0804
13.7947 18.0301 23.8388
14.277 18.767 24.6829
14.0463 18.4417 24.4484
13.7358 18.0714 24.0732
14.0623 18.6879 24.9641
14.0573 18.4742 24.5063
13.5798 18.1033 24.157
13.5958 18.3461 25.0097
13.8618 18.3473 24.5606
13.4469 17.9905 24.3824
13.9112 18.7964 25.3416
13.1818 17.9599 24.8957
13.5439 18.1002 24.5734
13.1118 17.7465 24.1153
12.985 18.0245 25.169
13.3754 18.2434 25.2274
13.332 18.2153 25.2665
13.8025 18.9766 25.9481
12.9388 17.9771 25.3872
13.4798 18.4817 25.6177
12.9745 18.0639 25.5851
13.3697 18.5049 25.7529
12.5784 17.4918 24.8659
12.9059 17.9652 25.1173
12.4947 17.3597 24.4675
12.7279 18.0556 25.7154
12.6544 17.8175 25.4272
12.8524 18.1463 25.8658
12.9669 18.563 26.4577
12.5106 17.906 25.8609
12.5466 17.8895 25.9088
12.4773 17.7109 25.3403
12.0628 17.3612 25.1958
12.0805 17.5373 25.6548
12.0918 17.2684 25.0893
12.0417 17.4275 25.4095
12.2099 17.8998 26.3767
12.1313 17.5498 25.8033
12.2484 17.9114 26.2383
11.8646 17.3645 25.7492
11.869 17.4374 25.9701
11.799 17.1946 25.6019
12.1761 17.9912 26.3271
11.4023 17.1736 26.2583
11.9655 17.5663 26.2057
11.7161 17.2402 25.5239
11.2358 17.0003 26.0195
11.6257 17.3056 25.9805
11.4639 17.2605 26.4113
11.5652 17.4107 26.513
11.3689 16.7902 25.2252
11.2613 17.2683 26.3402
11.0029 16.6997 25.6429
11.2338 17.2825 26.7954
11.177 16.8005 25.4975
10.8976 16.6528 25.6883
10.9214 16.8385 26.082
11.0792 17.1197 26.4008
10.7683 16.7606 26.2534
10.8113 16.7316 26.3366
10.9177 16.8294 26.3817
11.0086 17.0111 26.4721
10.781 16.902 26.6875
10.9097 17.2328 27.1199
10.4919 16.5144 26.71
11.0753 17.3609 27.3651
10.9972 17.3495 27.2447
10.3133 16.3703 26.394
10.557 16.8147 27.0231
10.5889 16.8875 27.2124
10.5142 16.6744 26.7765
10.2683 16.5317 26.9958
10.3591 16.6145 27.1551
10.5385 16.875 27.3162
10.4542 16.7098 26.9207
10.3543 16.6956 26.9405
10.4151 17.2661 28.6827
10.566 16.9075 27.4443
10.3286 16.8512 27.3043
9.87601 16.4175 27.9329
10.4769 16.6938 27.0586
9.93072 16.5702 27.9756
10.4094 17.1023 28.2557
10.1876 16.7085 27.7061
10.1593 16.8765 28.1705
10.0832 16.7187 28.1645
10.2706 17.047 28.5186
10.0519 16.5973 27.5219
9.73577 16.4231 27.8407
9.64112 16.0965 27.1515
9.58124 16.1689 27.5803
9.79939 16.518 28.1221
9.90227 16.7321 28.5941
10.0525 17.0703 29.0004
9.99096 17.0963 29.3135
9.83323 16.5022 28.1136
9.50792 16.1777 28.0537
9.49029 16.0044 27.466
9.66604 16.7372 28.7308
9.48608 16.3908 28.576
9.46275 16.3223 28.434
9.46511 16.1821 27.7679
9.06071 15.8146 27.956
9.22569 15.8928 27.7931
9.25438 16.2635 28.6159
9.14435 15.8731 27.8554
9.05713 15.8815 28.3194
9.3459 16.2772 28.5841
9.18971 16.2584 29.1344
9.43189 16.6315 29.5336
9.24274 15.9908 28.2045
9.14441 16.3596 29.0872
8.71901 15.2181 27.3047
9.28951 16.7265 29.5269
8.95608 16.164 29.3188
8.95144 16.0474 28.9685
8.97888 16.4097 30.1089
8.99704 15.9546 29.1432
9.04139 16.1801 29.1451
8.80977 15.9524 29.2003
8.74887 15.8693 29.0968
8.75477 15.8698 29.3086
8.91213 15.9153 28.702
8.87348 16.3683 29.803
8.62397 15.8142 29.3543
8.65209 15.6312 28.6494
8.71869 16.3917 30.7487
8.88327 16.1368 29.5376
8.36355 15.4698 29.1393
8.59243 15.8441 29.4086
8.30887 15.295 28.9494
8.49083 15.7651 29.6131
8.57561 15.9614 29.7413
8.31054 15.6264 29.8949
8.49473 15.684 29.8591
8.5513 15.6095 28.9934
8.32492 15.7308 29.7678
8.3157 15.6984 30.0188
8.49129 15.848 29.8617
8.36514 15.8951 30.305
8.14423 15.3273 29.6516
8.26201 15.3879 29.1095
8.3118 16.0694 30.6983
8.36291 16.0421 30.8041
8.28612 15.8635 30.7783
8.32367 15.9303 30.5992
8.15244 15.5938 29.8197
7.99708 15.6477 30.6103
7.88905 15.0108 29.123
7.78781 15.1696 29.7627
8.02262 15.5779 30.1918
7.81662 15.356 30.5244
7.98727 15.3767 29.7502
7.84497 15.5489 30.6522
7.65476 15.0456 30.1713
7.67585 14.8967 29.8098
7.81344 15.2919 30.4964
8.01784 15.704 30.9377
7.91016 15.728 31.1896
7.86522 15.5647 31.1886
7.78162 15.329 30.4625
7.54788 14.7742 29.5064
7.5445 15.0379 30.3896
7.62602 15.1143 30.2926
7.56206 14.931 29.5982
7.28516 14.659 29.8869
7.66935 15.5201 31.3834
7.67082 15.434 31.0719
7.54302 15.2005 31.0247
7.50646 15.0162 30.1974
7.46734 15.5902 32.1447
7.45848 14.9161 30.4027
7.48784 15.6321 32.1979
7.32254 14.5647 29.972
7.24699 15.0101 31.3076
7.29409 14.7484 30.6882
7.62374 15.9229 32.6005
7.18722 14.5283 30.4648
7.22969 14.7572 30.609
7.20391 14.8377 30.5998
7.00883 14.5411 30.6618
7.10663 14.7111 30.9056
7.06229 14.5707 30.7068
7.05934 14.5668 30.4367
6.9405 14.3137 29.8813
6.79495 14.2306 30.2788
7.1458 15.1759 32.5144
7.33865 14.9505 30.7617
6.99968 15.0647 32.1001
6.88539 14.3802 30.6266
6.97037 14.7905 31.5233
6.91848 14.5216 30.8238
6.86409 14.6967 31.5665
6.91423 14.4761 30.6431
6.83095 14.6361 31.4328
6.90913 14.7371 31.1402
6.51018 14.0883 30.7538
6.74592 14.5814 31.1766
6.41573 13.8387 30.6807
6.63053 14.1358 30.8857
6.68535 14.4354 32.0511
6.8715 14.4815 31.0488
6.68393 14.4444 31.2569
6.46429 13.926 30.5189
6.46511 13.9687 30.6117
6.52664 14.4469 32.0007
6.60445 14.093 30.8235
6.55694 14.2421 31.0068
6.51776 14.4219 31.7636
6.50189 14.2422 31.3019
6.52232 14.6246 32.7738
6.58645 14.4433 31.9851
6.53808 14.5318 32.5006
6.52595 14.2939 31.5028
6.30503 14.0962 31.6714
6.23674 13.6878 30.6348
6.31631 14.2197 32.5474
6.50423 14.1111 31.3443
6.39277 14.3044 31.9474
6.31419 14.1656 32.2031
6.40577 14.2599 32.4277
6.56113 14.6106 32.0617
6.2123 14.3457 32.7244
6.16285 13.8451 31.6811
6.12198 13.9111 32.2431
6.27832 14.019 31.8561
6.27689 14.326 32.6109
6.17935 14.0372 32.1126
6.11663 14.11 33.0302
6.24227 13.94 32.0099
6.07571 13.7262 31.3478
6.0288 13.8163 31.8067
5.95129 13.6854 32.1055
6.18013 13.886 31.4736
6.04835 14.2187 33.1677
6.09635 13.9928 32.4613
5.92888 13.6717 31.6997
5.84294 13.6632 32.2396
5.86467 13.5759 32.2628
6.0768 13.9615 32.4053
5.96221 13.8732 32.3175
5.83008 13.4368 31.6701
5.89115 13.8895 32.7242
5.85735 13.4575 31.5379
5.77086 13.6381 32.1309
5.77314 13.6798 32.6888
5.79084 13.3447 31.374
5.79096 13.724 32.289
5.56107 13.2504 32.4907
5.93005 13.8857 32.4846
5.58831 13.2461 31.9508
5.73084 13.6562 32.866
5.71419 13.3131 31.9236
5.73365 13.691 32.6388
5.63023 13.3673 32.2261
5.71097 13.7744 33.2197
5.6632 13.4487 32.6348
5.67669 13.5162 32.5356
5.60471 13.444 32.3124
5.57332 13.6604 33.1396
5.58644 13.3956 32.4228
5.42898 13.0518 32.0768
5.46638 13.2587 32.4361
5.49986 13.3281 32.7163
5.33612 12.7686 31.8191
