# pn-170911/RbIIR-43-USNO-1280-1959.psd
# Power spectrum* (dif=0,1,2) (really just |FT|^2)
# NOTE: only the first half! (symmetric)
# weeks: 1280-1959
# 11 clock-days, 0 excluded
# PSD: 1441
522.236 0.436002 0.108127
13723.5 0.106019 0.0363489
60537.8 1.24909 0.0609499
13214.2 0.616489 0.0411565
19825.9 1.42569 0.0513399
3691.89 0.42688 0.0485182
9040.3 1.38157 0.0458445
4175.3 0.732928 0.0563762
25748.2 7.92804 0.0526926
1802.48 0.523901 0.0613882
22444.1 11.0359 0.0470961
1365.11 0.669756 0.0578141
2643.83 1.744 0.0425155
959.715 0.646859 0.0602595
28201.3 25.5918 0.0797096
1954.71 1.83825 0.0554907
21032.5 26.1531 0.0796917
682.068 1.06405 0.054268
2889.73 4.21634 0.0601509
645.7 0.956225 0.0493324
17269.3 32.8919 0.181792
1180.94 2.386 0.0506208
11461.7 27.2017 0.163393
369.662 0.833054 0.0393054
4363.82 11.6073 0.0970967
526.273 1.56986 0.0421364
12954.9 42.622 0.259464
747.258 2.36925 0.0589831
7288.6 27.6278 0.18702
782.935 2.90951 0.0520483
5393.55 22.8099 0.155952
548.748 2.40529 0.0594877
7730.46 37.6057 0.24584
614.118 3.09568 0.089671
3931.01 21.2216 0.109692
838.717 4.93841 0.0647946
4127.69 25.1929 0.233006
336.3 2.07235 0.055778
4764.57 31.6586 0.362495
436.253 2.93775 0.0639839
3127.26 23.3147 0.193197
606.073 4.55961 0.0421987
4098.82 33.6508 0.382111
599.568 5.49414 0.103514
2676.74 24.1891 0.364375
499.39 4.37549 0.069154
1614.83 15.6663 0.189726
362.248 4.0161 0.0388798
2846.03 29.793 0.463181
310.091 3.39774 0.0570231
1147.28 13.9245 0.247601
259.251 3.01961 0.0574105
1125.53 13.8978 0.214366
296.584 3.7792 0.0469723
1426.8 18.9875 0.424274
319.169 4.14207 0.0749568
1004.44 15.2014 0.290692
281.207 4.28104 0.126681
569.201 8.60859 0.131945
207.068 3.19703 0.0816237
1225.01 21.3323 0.473886
207.547 3.59484 0.157915
444.407 8.42715 0.227949
291.602 5.70509 0.178985
569.176 10.8276 0.186056
229.275 4.38865 0.0997573
645.085 13.8875 0.354143
211.048 4.51329 0.0912001
353.202 8.06033 0.219906
396.153 8.6735 0.214278
408.869 9.26303 0.184225
269.297 5.93824 0.15278
240.603 6.05208 0.212518
176.438 4.29377 0.133783
315.741 8.46622 0.322862
263.849 7.86004 0.231033
167.532 4.795 0.199344
187.963 5.48842 0.201175
335.27 9.75227 0.400165
177.158 5.3317 0.257992
211.053 6.84016 0.274667
161.863 5.16756 0.251123
192.753 6.0994 0.197562
148.337 5.12211 0.208478
268.489 9.04919 0.370703
163.498 5.52613 0.207265
187.581 6.44549 0.162532
165.512 5.8292 0.222655
247.932 8.50653 0.377994
166.677 6.3705 0.306498
176.27 6.42446 0.288364
137.007 5.36494 0.245101
194.97 6.62569 0.40799
106.285 4.06327 0.203867
132.514 5.6658 0.390282
74.4659 3.79116 0.210564
187.319 7.86356 0.507748
119.075 4.94455 0.272911
209.678 9.58608 0.562915
267.027 11.3504 0.496618
244.429 12.8476 0.789517
128.303 6.19451 0.399254
207.978 10.2061 0.576493
154.566 6.94852 0.351753
163.897 8.88149 0.604919
108.639 6.42094 0.362169
166.06 9.64201 0.724944
142.801 6.93077 0.446297
129.575 6.54831 0.46294
99.7884 5.81463 0.334986
179.243 10.1173 0.771948
170.132 10.0745 0.739822
219.206 12.6979 0.884812
168.962 9.18603 0.685387
80.7614 5.19213 0.489633
123.204 7.53141 0.413943
164.762 9.8493 0.763025
136.983 8.789 0.605746
137.029 9.0257 0.612202
178.374 10.7244 0.780474
158.243 11.1302 0.780011
202.108 12.9777 0.853537
78.0247 5.49542 0.482023
101.934 6.65147 0.663964
197.259 13.5358 1.00283
74.8321 5.51296 0.361891
91.9238 6.55668 0.457757
104.569 6.95948 0.537742
134.885 10.7462 0.978876
75.018 6.18169 0.591893
156.604 12.0688 1.08679
105.437 8.71562 0.59489
74.6307 7.15002 0.771312
140.037 12.4313 1.20153
115.096 9.40945 0.780171
81.4956 6.09074 0.43522
118.345 10.8065 1.11586
101.72 8.88351 0.821282
97.0563 9.09478 0.915667
130.712 10.6505 1.03405
105.893 10.4502 1.24584
96.1156 8.65294 0.736812
126.891 10.6459 1.22037
81.8371 6.96819 0.611165
73.3662 7.10753 0.791923
54.0071 5.52586 0.619563
125.226 11.6744 1.30088
129.382 13.3306 1.54862
58.2166 5.53084 0.532458
56.2841 5.94035 0.717447
78.4864 8.37546 1.09519
108.517 10.6969 1.09788
112.957 12.0924 1.35113
94.3742 11.3836 1.24582
86.551 9.77657 1.30357
88.7355 11.1039 1.49847
90.3112 9.23034 1.03435
138.174 16.2165 1.95825
90.325 9.73711 1.46169
60.3088 7.24038 0.796654
70.372 8.34333 1.19954
101.773 10.9172 1.25723
113.167 13.4004 1.65546
74.9143 9.09997 1.20502
103.712 12.7079 1.51538
50.1907 6.62987 0.994574
74.4758 10.4572 1.40152
66.5615 8.49516 1.07769
59.2845 8.65321 1.57017
70.7171 10.5695 1.4873
125.569 16.1334 1.86082
62.3224 7.16945 1.01664
87.5017 12.1794 1.70376
109.071 16.4482 2.66019
100.373 14.1031 1.85907
56.5486 8.60784 1.47623
86.6215 11.7095 1.62444
122.885 16.1471 2.27979
100.657 15.4364 2.27467
85.1669 14.1537 2.14573
72.3819 11.2863 1.75901
58.2778 9.46378 1.58006
137.714 20.9963 3.39278
83.0216 14.3778 2.47536
62.3502 8.45613 1.3431
93.1857 14.1103 2.21907
135.079 22.3777 3.96408
63.5461 7.86713 1.06166
56.9636 9.14728 1.65595
68.5369 12.4173 2.28501
59.5599 9.76241 1.62215
55.4585 9.22385 1.94901
128.499 20.0267 3.20849
141.115 24.3519 4.2965
53.2613 9.75215 2.03421
75.4541 13.2403 2.6767
70.3408 12.1397 2.05229
85.791 14.6109 2.44844
72.8696 13.7928 2.99948
53.5274 9.15355 1.39205
85.638 15.0997 3.03635
35.0762 6.76792 1.62523
115.532 21.3349 3.58105
104.128 20.3788 4.2115
79.6365 14.1461 3.05483
80.9456 15.1487 2.82946
57.5755 11.8514 2.64054
88.7027 17.9159 3.75736
78.1824 16.1805 3.43304
78.4199 16.1931 3.17963
110.457 20.8141 4.4895
85.5641 16.6475 3.55547
111.591 22.4781 4.32466
121.807 24.5338 4.94305
57.0792 13.0578 2.96334
88.7367 20.1658 4.80203
72.0292 12.9408 2.60131
43.9213 9.43829 2.15153
55.1529 13.0825 2.93865
40.6299 8.19923 2.04146
69.0481 16.6635 3.96581
116.697 25.2338 5.46227
98.8788 22.0411 5.21495
85.196 20.6764 5.40612
82.1887 18.3651 3.81024
83.8386 18.5972 4.48104
85.2841 20.2082 4.3384
78.863 21.4561 5.52437
69.5887 16.8423 4.1039
87.6485 22.35 5.70482
73.7046 19.9417 4.76782
162.486 39.6181 10.5058
108.707 25.7596 5.88783
243.845 69.8441 19.8905
165.423 38.5523 10.051
237.364 58.008 14.5738
208.125 52.3558 12.0934
170.146 44.743 12.711
281.449 73.1616 19.3625
188.856 45.7899 11.3706
126.05 34.1207 9.34512
147.779 36.6301 9.50818
82.2002 20.4997 5.0224
95.2639 24.3567 6.48834
68.2117 17.6337 4.42478
61.3145 17.938 5.31259
65.5424 19.3059 5.99645
97.8506 27.2725 7.84729
60.0062 18.4608 6.17166
116.948 31.4537 9.27104
30.3065 9.30983 3.26955
80.5543 19.5695 5.08395
75.615 23.577 7.42409
84.5894 20.53 5.03973
57.4775 19.2694 5.81763
56.7163 20.0532 6.65141
95.1316 30.3596 10.1043
83.6807 21.4247 5.17031
50.1192 16.677 5.63789
75.4781 23.8112 6.44064
48.9197 15.8783 5.16603
70.4606 23.4634 7.55098
58.2034 17.9217 5.75518
51.0394 17.5273 5.91019
41.7121 11.4812 3.23758
53.6104 17.6214 5.17999
62.6047 21.3487 7.65269
108.189 32.4583 9.29704
31.0427 10.6654 3.39247
48.4342 18.1663 6.58501
73.8077 26.8079 10.0171
113.772 37.1781 11.1744
45.8051 16.6216 6.65263
71.2686 22.0632 6.28545
65.1981 22.4391 7.16537
71.3142 23.8937 8.08382
62.3583 21.8859 8.50886
53.8544 17.4631 6.00509
28.7401 10.9174 3.86635
70.8767 26.8965 10.656
52.0121 18.3093 6.15677
52.0896 17.556 5.91601
48.2341 18.2038 6.51629
75.3908 31.8135 13.0567
34.5523 11.3193 4.58391
39.1248 13.1948 4.58627
35.1893 13.6665 5.35146
42.6683 14.4395 5.46155
153.258 58.6429 20.9453
67.6421 31.1009 13.3404
52.8268 17.7258 6.78756
47.1878 19.3841 8.22724
77.9177 27.2135 9.29345
42.4036 18.6145 7.94363
32.8172 13.239 6.21353
87.3305 37.0748 14.0611
46.5292 19.8361 8.59626
69.1485 26.0138 9.47029
29.9676 13.5271 6.45532
103.516 43.6975 17.5958
45.9574 20.222 9.61066
55.8042 21.4721 8.11136
31.1659 13.5772 6.40018
36.3459 16.2833 7.14548
50.1474 21.2697 8.47769
46.0003 19.4212 8.72556
76.801 37.0674 17.0004
55.9352 24.6577 10.3745
64.4344 29.9375 13.855
30.141 11.1948 4.81547
44.3692 22.3311 11.0006
72.8756 27.3197 9.9957
45.604 23.2663 11.6829
55.02 21.9321 9.49603
65.4342 28.6212 12.223
53.2638 25.2715 13.1549
88.3269 37.1391 14.3552
52.1278 22.1448 9.34627
35.9033 18.3723 10.0494
53.6646 23.3601 10.4864
73.0148 34.8508 15.7537
61.6141 30.157 13.4537
44.8687 20.4345 9.27945
29.4045 19.589 12.0719
47.3523 19.2501 8.39478
65.0504 30.9175 14.5987
29.2705 16.8937 10.1804
56.1116 26.9489 13.607
67.2711 33.5316 16.5938
76.0081 33.9191 14.6181
46.5419 24.3293 12.8563
37.9373 18.8514 9.6024
36.0333 18.8092 10.9971
49.2879 19.2175 7.48905
54.541 27.9322 13.3411
37.617 19.4938 10.2425
42.9728 23.4318 12.9321
38.3631 19.2198 10.0029
35.6346 18.551 10.5685
66.8095 34.8978 17.6376
35.1688 20 12.4214
40.4472 23.0592 14.2381
78.6917 35.8292 17.033
45.4255 21.9148 9.6768
27.4139 16.5038 8.80555
31.1006 15.3397 6.92783
35.9221 21.8197 13.5716
57.6619 29.4542 14.8397
48.4028 24.5516 13.4881
31.5426 15.688 8.20465
23.099 13.3718 7.73821
42.3649 26.1804 15.6457
63.8656 32.2214 15.6562
25.8776 15.3025 9.94808
54.7481 28.5554 14.8842
50.878 28.9659 15.7875
40.6688 24.5859 14.8407
44.9569 26.3158 15.1959
62.8455 37.7837 23.0607
47.545 25.425 14.7041
32.5445 21.1602 14.1705
40.8881 23.9781 14.0792
29.785 16.5642 9.95755
35.1661 22.7642 15.227
35.5064 20.0528 12.7517
40.5415 23.8323 13.9275
28.9678 17.9761 13.3483
37.4015 22.0432 13.8662
46.342 23.7082 11.3767
35.1469 21.713 12.8891
45.3361 33.4615 23.6605
44.1263 22.6775 12.054
18.7726 11.7857 9.07909
35.6893 23.2532 14.5437
34.81 21.5125 14.376
42.5821 25.0608 12.9913
31.5278 21.2249 15.912
57.6308 35.615 19.7543
44.1162 31.1267 19.7927
24.2471 18.3304 14.6197
28.7558 15.2652 9.59517
29.7551 21.0839 16.306
37.6694 23.7052 16.3439
45.1258 28.4211 19.6533
89.4405 51.8405 27.3033
48.1516 32.7993 20.5398
38.291 27.4167 20.4075
52.5779 35.0619 22.6176
42.8678 30.0979 22.005
42.9408 24.4134 14.0481
29.4936 18.3114 10.3428
35.5023 25.1871 16.5341
28.5095 22.5982 17.622
42.3545 26.9212 15.8097
24.0593 18.0084 13.4681
18.1817 14.9085 12.8998
37.885 26.1041 18.1763
46.8765 31.0957 20.578
27.5383 15.454 8.59633
23.6097 17.9336 14.0308
34.104 22.2162 14.2907
27.6006 19.4494 13.3788
30.2351 22.3264 15.3825
42.959 36.556 29.6391
42.0604 27.1458 18.5621
29.771 24.8806 25.0342
152.216 109.952 71.6514
49.0848 39.1148 32.0399
24.3677 12.7524 8.2766
31.8665 24.7553 19.068
20.4922 13.7137 11.0357
20.1335 11.8614 6.55733
31.7527 25.08 19.1381
48.7315 38.4987 27.9196
35.6058 25.9516 17.5937
27.7669 26.3585 23.6794
52.2246 36.7601 23.8613
23.2064 21.3888 17.0508
23.3415 19.5374 17.4863
36.0804 27.9059 20.4811
31.7806 24.4095 19.1445
20.3282 15.1736 11.774
27.4392 23.7116 20.2014
31.4074 24.5738 18.3333
26.1675 23.7967 21.585
28.0964 18.4302 11.8448
22.3732 18.3495 14.6811
40.1376 34.4216 26.3345
31.861 28.2126 24.2344
33.5139 30.2657 27.4707
39.3113 31.2674 26.4631
23.1193 14.1556 10.035
26.3515 22.4379 18.4081
43.3809 37.8661 30.7057
28.5663 22.9623 20.3632
29.1679 19.9387 11.9578
21.5496 20.9876 18.2164
29.9436 27.6888 24.8538
26.7327 20.7981 14.0884
17.1692 20.749 24.1289
36.8215 27.1515 20.1886
18.0502 15.0939 12.9904
20.4972 18.8504 15.7476
37.7768 36.4602 33.7401
26.1686 24.2465 22.7806
20.2065 18.3049 18.7709
23.7366 21.729 22.3769
26.9011 18.3201 14.7635
26.3749 20.6729 15.5004
33.6061 33.3898 31.0605
21.4467 14.8392 11.3286
18.2985 17.2558 16.7049
26.0683 23.1862 21.4107
26.5722 21.9686 19.1241
27.3267 22.6368 18.8581
32.2708 33.2162 33.2462
21.7388 14.9631 11.845
15.6584 17.1685 21.2714
48.1891 40.0634 28.7071
21.6511 22.1243 22.2596
23.565 21.2658 18.7284
20.3717 20.0618 20.5391
28.4341 25.7162 25.0103
26.9253 21.1189 16.0424
28.1375 29.4859 27.8579
22.0274 20.0872 19.5718
32.6522 29.4169 23.4731
25.0685 28.3892 31.3531
31.6069 28.3213 26.0684
25.8791 23.1372 22.8332
27.6685 23.039 18.6716
37.3583 35.679 32.3907
43.046 43.5986 40.9276
39.4717 41.1767 38.3556
25.2826 32.7195 42.2343
36.789 26.8991 21.1479
17.0533 14.7466 12.9651
18.1065 17.7132 15.4879
20.8007 26.3968 30.673
35.4291 37.3396 39.5031
37.984 38.2739 38.9117
20.3556 14.2889 11.2296
8.13627 8.85091 13.1644
30.5985 30.8355 28.6241
26.8884 27.1496 28.9807
33.2353 34.8576 35.956
31.5198 29.7239 29.1413
24.5289 24.0556 24.0908
26.5093 29.8173 32.3026
35.1612 34.3209 31.8798
28.0862 30.1955 32.9884
14.0848 13.0347 15.3066
31.9777 33.788 35.0336
21.9031 21.5094 24.9161
35.397 34.752 34.045
26.4996 27.4249 27.5274
20.8639 19.3032 18.5544
18.5433 19.7434 19.913
15.8391 17.8019 21.5658
16.8732 16.8331 22.2248
39.8007 37.5792 31.1948
25.216 30.3966 33.0147
22.1152 23.7119 27.7289
26.2817 25.6756 25.4557
32.6469 46.3293 61.5723
37.1138 28.114 20.6029
21.9747 22.506 24.7791
37.7164 36.9603 28.1308
23.665 31.1409 34.6518
27.8755 34.5665 38.192
19.5838 25.9414 34.9729
24.3366 25.1915 24.1738
13.6463 18.8752 28.8358
47.4544 50.3344 49.7032
28.3947 33.6873 38.3578
24.9013 27.8954 29.8741
19.406 22.894 25.9734
18.988 22.0972 23.6105
19.1988 23.7013 28.6968
19.2931 23.3977 29.9603
24.0185 25.4044 26.2457
19.3408 24.1347 27.9677
17.5541 19.3601 22.1422
24.6607 28.0578 31.0275
21.5143 22.1536 18.0817
12.5128 17.2819 20.2715
12.6522 18.7768 27.1442
34.7639 39.6375 37.155
22.9822 35.9695 44.2484
7.29965 15.0962 31.2088
23.6719 24.4547 31.2283
16.9626 17.2223 23.4991
34.1654 35.19 28.0546
19.7657 29.5274 33.8274
14.3251 23.4048 31.0855
16.7616 26.1392 37.7866
11.7982 16.0075 29.2251
16.6813 16.227 20.5282
13.4063 13.7344 18.6911
39.2873 44.1892 43.0295
18.6026 31.882 48.1296
23.9945 26.7848 31.3332
12.9464 19.1869 31.6415
24.0468 20.9668 18.1489
13.2435 21.6146 29.4212
16.0839 21.0035 30.7619
19.3944 23.6218 32.843
37.1588 47.7054 50.534
12.4713 18.5592 27.3781
15.8863 24.1708 37.5751
15.1724 18.821 28.4921
23.7918 27.2671 33.6133
23.0154 28.904 33.1608
11.3064 15.0156 23.9673
20.5566 22.6059 27.185
15.2525 14.6324 16.5999
27.8287 35.5305 38.2407
23.9535 41.6581 58.2055
20.5472 33.8274 58.915
19.9539 18.0945 28.9155
33.7568 38.9144 43.5008
21.3277 22.5962 24.6496
22.0656 26.424 26.4143
16.6282 32.4043 49.8295
14.5381 19.1063 32.3527
18.7731 20.4647 26.1611
26.7859 32.9903 32.6025
9.7601 17.1707 28.4156
15.0565 18.9951 26.9063
20.8305 30.8126 44.1479
25.6584 32.3499 41.4929
18.8046 23.9835 29.1401
15.4937 23.3587 33.77
17.5896 22.764 27.9679
12.2791 19.052 33.3003
25.5209 25.5726 26.0389
32.6982 53.4908 67.5468
11.3203 19.0568 36.7232
30.16 42.5307 53.871
20.3743 31.3505 50.2831
18.3995 22.2083 31.8601
14.6908 20.4855 34.3534
23.1687 33.6927 48.9958
28.2388 30.3708 29.5121
22.7525 41.5165 57.9015
8.39749 15.4382 32.4384
15.9995 24.2514 45.7066
28.0498 37.1475 51.1295
25.3027 36.4378 46.298
17.2035 28.114 46.8482
18.7445 20.6294 24.0868
14.6648 26.4935 42.53
11.5234 16.1307 28.0511
18.8085 24.8024 37.2881
17.7629 22.2948 29.8243
17.7337 24.4214 32.0414
16.504 26.4432 38.4741
11.1929 16.3988 27.9751
15.5188 21.0435 30.2689
13.6181 16.718 22.6104
8.41171 11.057 17.8425
8.96869 10.5326 12.5181
12.3978 24.3558 45.7005
20.3784 24.4444 32.5182
25.9083 40.784 59.4641
20.0654 24.7279 37.7398
25.7603 33.1881 40.7675
15.8226 20.4018 25.4515
13.9799 20.7934 31.494
21.6544 30.9402 43.0997
21.3462 33.8949 53.7844
22.1054 26.0361 28.4501
13.1048 24.7542 40.5567
12.5666 16.2923 22.4073
11.1398 19.4516 32.2662
17.5916 26.5958 36.1017
17.2018 26.0523 31.0009
10.2384 21.2174 33.3179
10.4438 22.0684 40.0697
16.6581 30.7137 52.3768
15.9449 27.0083 47.5298
10.235 19.7721 41.2612
15.0631 23.1227 41.7883
16.0756 22.8387 40.9296
25.8251 39.1719 59.1186
20.1997 38.5663 72.3513
19.1368 22.3886 37.6736
14.2669 14.769 16.9684
15.0262 22.0975 33.1678
17.2146 29.8582 48.114
18.0596 25.4939 33.4676
15.3322 36.0125 66.6419
13.3921 18.2206 37.4511
18.1468 27.403 50.0007
22.8639 25.1794 25.9965
23.3533 42.4836 67.097
19.4959 26.4042 32.4109
9.60977 19.9298 35.6351
10.377 21.8596 48.2541
17.7739 30.1528 58.1725
15.5276 16.5277 25.906
14.9746 21.543 32.9563
16.4539 24.8618 38.2342
18.2623 33.2858 54.9547
20.8219 33.9233 57.4031
19.4451 27.6194 46.4582
21.4803 29.1045 36.4377
12.5873 19.8106 27.3092
10.4781 21.1305 40.4769
15.6439 25.0067 39.4504
17.1274 34.2869 65.0957
18.4504 27.0935 47.165
15.8266 22.4471 34.4448
14.285 22.1813 34.8543
17.8688 30.0649 48.7204
16.7466 25.7306 35.6475
16.0987 31.0706 53.8512
20.3738 40.0005 67.959
22.6016 43.4488 71.6272
10.3011 11.683 20.1459
14.5874 26.311 45.6023
14.6306 25.985 41.623
14.3708 30.1162 59.6441
18.5373 28.3311 43.2603
22.6017 45.1235 66.0876
10.9079 22.9427 48.3533
14.2125 27.5745 55.408
12.1244 16.0293 22.6432
11.0397 23.1835 42.8087
14.9145 32.1914 65.0154
20.509 33.8671 46.2562
8.33798 26.451 69.8597
21.4244 35.109 69.1696
25.1078 42.3369 73.2518
19.4432 29.0323 44.2439
14.0535 28.7205 65.3367
32.2688 53.6346 68.8387
8.72648 17.8403 36.5247
17.1629 40.5979 80.8279
14.8459 22.9959 47.817
21.1722 39.87 65.515
15.9752 29.7279 55.4304
15.2363 24.6152 44.1775
14.3252 30.994 70.6042
22.4413 34.9502 53.4803
18.1707 34.1932 56.8843
8.70258 19.9956 53.4883
16.8392 21.0006 35.2305
14.792 25.6734 42.4376
9.94831 16.6242 31.061
14.6781 27.7154 50.686
15.4977 23.3627 29.4879
7.86294 19.0604 33.4584
8.83689 23.09 53.8771
10.6451 19.4782 46.1595
15.9692 27.869 54.2393
17.7853 35.3562 68.7276
17.7115 35.036 74.1938
18.929 30.4693 52.6328
16.7081 37.7916 79.2636
19.1436 32.1241 63.2222
21.6638 38.8708 61.821
11.0659 16.0848 25.7477
14.0099 34.3822 66.3113
12.6074 26.1629 55.5979
13.6482 23.5727 44.7962
9.81989 19.6835 49.9082
14.5397 20.8534 36.7306
15.6818 28.3757 45.9191
16.9296 37.0613 66.618
16.8291 32.9575 58.7358
14.9426 28.6136 51.5861
16.4906 33.4921 62.9555
19.7377 40.5682 66.7286
8.94496 11.8657 16.6893
13.3516 36.9236 72.2483
15.483 36.2575 73.8421
12.4181 23.0444 47.7784
10.704 20.9119 49.2661
13.5016 23.4757 44.1931
13.1793 23.1326 37.5787
12.653 30.1107 64.8004
16.8443 31.7924 47.8296
6.44666 13.1866 27.3203
8.84453 24.5376 53.7884
10.8407 19.435 35.0614
5.45841 12.5699 30.216
11.0105 30.207 77.9523
19.1371 37.1382 73.2847
12.6177 15.9231 22.9963
4.81465 12.663 43.8431
20.2571 39.1695 66.5975
8.09741 15.0824 34.4511
10.9405 22.4266 47.2896
12.805 29.0354 59.2626
12.7525 24.0731 44.2342
8.33219 18.0058 42.9715
11.3069 20.0846 44.8601
12.7123 24.972 49.5568
12.8072 18.3308 23.7234
12.4364 30.2948 48.7762
10.3928 26.7003 49.0227
10.3765 31.975 76.4462
7.77965 14.1757 45.7572
13.5831 21.241 32.7387
8.02784 17.7148 37.7751
14.8368 34.2411 60.5992
8.43261 20.2012 52.1622
15.5388 33.5161 64.6477
11.5772 30.3507 81.3837
16.014 25.4513 47.8231
11.5986 25.3143 56.1331
13.4381 22.1617 33.5562
7.0844 19.3228 41.0584
9.87982 26.588 65.7033
11.8568 18.4736 44.1011
17.6642 35.0795 50.6151
9.29481 25.316 54.6822
18.7456 50.3005 97.8103
9.41883 19.8492 39.6115
7.48154 30.5199 101.065
20.2075 33.5212 62.4579
9.45473 17.361 43.3586
9.82573 19.3581 47.3472
16.2704 39.8933 77.5888
11.1755 22.7998 56.5029
11.5484 22.8806 44.64
7.83241 27.309 107.321
28.9552 46.377 70.0118
18.6131 42.4409 72.7141
13.5356 34.2544 70.5378
11.0552 22.4288 52.1739
11.7696 27.6989 67.4091
14.9198 28.5428 50.089
11.8762 26.5069 44.331
8.00582 23.1988 71.0149
20.9817 43.7216 67.5525
13.961 41.2687 89.999
11.4613 21.3249 48.3629
13.3165 26.621 31.5421
7.4355 28.7346 70.3399
17.0836 46.8253 98.6236
9.5033 21.6702 67.108
18.6832 39.4035 70.3256
14.938 45.1677 110.499
20.6688 47.091 85.5336
7.50956 16.4498 48.4481
12.1766 25.9814 38.1979
5.41444 24.2784 73.7641
13.2776 30.1777 74.5178
15.1365 30.9711 60.437
18.2845 56.7869 119.967
11.9151 26.9556 60.9424
8.70692 20.5269 35.7504
7.36906 32.0478 81.7805
8.55341 23.1127 57.782
5.68453 23.2009 80.0623
10.9954 25.2899 76.8428
13.4841 31.6015 74.2194
8.9939 16.2733 40.4788
10.938 33.6162 85.4037
11.8673 29.4861 79.858
11.4425 26.0431 71.5916
14.6432 34.5785 67.5254
8.77111 29.7785 93.5239
16.8216 36.7189 68.8477
10.2506 43.7097 137.085
15.3685 29.2584 90.7898
10.9624 19.6749 82.3818
20.2332 29.9284 35.8754
13.3834 51.801 138.091
14.574 24.4154 47.7908
10.673 41.1504 118.122
13.0221 30.5593 106.077
14.7917 25.5844 82.4486
15.6066 26.5579 72.729
19.3128 41.7111 88.8639
13.9355 26.9815 57.2218
18.0451 54.9304 124.04
12.5432 23.1868 59.8556
16.2347 54.9624 151.659
18.5774 29.2136 77.4516
29.7543 90.2239 183.529
13.3835 30.1867 96.0755
14.9138 37.2836 125.577
25.024 49.855 98.311
24.368 77.7951 185.078
26.5357 73.195 162.521
