# pn-170911/RbIIR-60-AMC2-1280-1959.psd
# Power spectrum* (dif=0,1,2) (really just |FT|^2)
# NOTE: only the first half! (symmetric)
# weeks: 1280-1959
# 537 clock-days, 10 excluded
# PSD: 1441
290.204 0.0408597 0.0225388
13111.5 0.262377 0.0226495
53456.7 1.08112 0.0217743
13579.2 0.54246 0.0240542
17490.5 1.27158 0.0221694
4878.7 0.500998 0.0230007
3708.27 0.561333 0.0212328
2796.13 0.539043 0.023408
2264.95 0.629111 0.0232199
1722.05 0.576592 0.0221765
1370.15 0.594594 0.0222575
1035.04 0.538298 0.0241963
950.748 0.58945 0.022121
836.739 0.580587 0.0243441
716.513 0.581079 0.023361
623.984 0.594415 0.0226048
550.763 0.57939 0.0230371
497.833 0.625379 0.0233297
471.92 0.640265 0.0231486
432.223 0.663431 0.0256466
374.395 0.627831 0.0224355
337.749 0.650927 0.0228192
344.286 0.706551 0.0251797
323.396 0.734926 0.026589
294.602 0.725317 0.0226748
264.258 0.711341 0.0246844
261.379 0.747657 0.0238584
255.832 0.813454 0.0243249
242.202 0.8212 0.0254946
223.577 0.826221 0.02504
221.471 0.887403 0.0257871
228.218 0.916713 0.0285144
211.213 0.945781 0.0262689
189.097 0.896393 0.0282955
217.914 1.09451 0.0285167
188.827 1.00967 0.0269027
185.219 1.04329 0.0282533
169.615 1.02663 0.0307193
178.352 1.13203 0.0321278
172.4 1.14456 0.0289022
169.521 1.18206 0.0310752
162.127 1.2068 0.0322735
165.718 1.33687 0.0316862
154.484 1.29701 0.033773
152.303 1.33167 0.0344978
153.152 1.40074 0.0357261
146.04 1.37096 0.0367012
154.751 1.54424 0.0374067
147.727 1.48818 0.0400801
153.504 1.65009 0.0431459
137.983 1.52901 0.039594
133.412 1.53994 0.0419233
144.759 1.80224 0.046955
147.621 1.90658 0.0490125
132.025 1.73726 0.04523
141.948 1.95669 0.0519766
134.89 1.91914 0.0482009
147.991 2.1506 0.0562652
132.147 2.03554 0.0551622
135.387 2.16345 0.0576197
132.467 2.22879 0.0581522
136.771 2.36481 0.0648131
118.825 2.08887 0.0599699
140.745 2.53274 0.0729334
130.52 2.40723 0.0697141
125.835 2.44253 0.0669219
123.466 2.47206 0.0729357
127.916 2.66387 0.0784273
118.948 2.56108 0.0752104
135.132 2.88298 0.091087
128.688 2.89226 0.0905759
121.098 2.84379 0.0876043
130.194 3.09406 0.0935419
118.502 2.91643 0.0930669
119.831 3.02021 0.103102
119.891 3.16819 0.105662
114.108 3.08452 0.108362
116.397 3.20449 0.114459
119.866 3.41061 0.119785
121.813 3.49651 0.12693
110.143 3.29369 0.126252
117.48 3.52745 0.131481
115.93 3.62111 0.143377
113.474 3.63885 0.139426
111.484 3.67868 0.144734
118.397 3.88817 0.157409
120.097 4.15923 0.165717
108.894 3.787 0.15752
112.579 4.05652 0.172214
117.105 4.33073 0.182789
112.585 4.1593 0.178883
107.962 4.14861 0.189974
115.75 4.60146 0.204607
110.592 4.42423 0.203322
112.75 4.66143 0.216989
116.155 4.76098 0.225657
104.221 4.46805 0.217783
105.597 4.63667 0.236632
107.187 4.78862 0.239086
99.2753 4.54736 0.236518
106.5 4.94522 0.259584
108.161 5.18238 0.273214
109.298 5.23047 0.276063
101.547 5.02929 0.283597
101.194 5.00762 0.279456
109.853 5.58183 0.316779
108.242 5.69107 0.328557
105.338 5.61955 0.333926
106.723 5.77036 0.344168
110.511 6.10184 0.352358
106.257 5.98471 0.366105
93.0269 5.30435 0.330711
108.198 6.37967 0.398668
99.2368 5.86628 0.369875
102.709 6.25219 0.41497
110.676 6.79432 0.448831
95.8579 6.01245 0.41246
98.0812 6.28731 0.433821
100.957 6.55806 0.458824
100.069 6.60769 0.460482
105.956 7.15422 0.498866
102.752 7.09031 0.519083
101.227 7.06722 0.520994
97.7254 6.91945 0.51939
94.4003 6.75881 0.514946
95.6 6.97649 0.528706
87.7692 6.48493 0.516985
102.338 7.729 0.607658
101.345 7.80592 0.626581
94.2463 7.37798 0.611583
93.9725 7.39708 0.606596
90.2885 7.24284 0.626047
84.5735 6.96747 0.605808
92.3375 7.61877 0.665244
91.0755 7.58102 0.673053
94.2958 7.93696 0.705276
99.9249 8.65006 0.762944
96.13 8.46007 0.783481
96.0505 8.56945 0.8064
93.7071 8.4555 0.781946
89.7812 8.32528 0.794812
86.1308 7.88575 0.755849
90.5684 8.46218 0.826775
92.9629 8.75338 0.846332
85.2396 8.24148 0.830117
89.6063 8.64721 0.877722
84.359 8.41024 0.87134
88.1445 8.83663 0.926423
91.8282 9.44214 1.01086
83.012 8.6203 0.924369
94.8557 9.88124 1.05764
86.708 9.28191 1.01744
84.5275 9.02595 0.977
85.6618 9.34555 1.05093
84.4783 9.41467 1.08721
82.5515 9.27383 1.06585
87.4719 10.0296 1.17775
87.1261 9.8907 1.15743
80.0231 9.40931 1.12874
82.0829 9.46821 1.13903
84.7099 10.1409 1.26078
78.8971 9.36599 1.14901
84.6972 10.3828 1.29415
80.2942 10.0503 1.26578
83.4132 10.5344 1.37422
83.4743 10.4675 1.36045
82.7174 10.7462 1.41089
79.4008 10.4309 1.39176
81.4302 10.6917 1.42211
75.1445 10.021 1.36976
80.4015 10.804 1.48986
74.4735 10.3756 1.44658
85.0852 11.8145 1.68092
74.7129 10.3504 1.49604
75.5593 10.6832 1.52921
75.0465 10.8054 1.57546
79.3353 11.3908 1.65933
71.0366 10.3426 1.53171
82.1382 12.143 1.8096
65.0923 9.81042 1.52993
73.0941 11.0562 1.71709
73.8092 11.3918 1.78356
76.1588 11.7618 1.89131
72.0345 11.0856 1.73677
79.3009 12.4862 1.99964
71.2143 11.5094 1.87889
69.7782 11.1784 1.80492
70.0904 11.5369 1.91663
74.2616 11.9409 1.97782
73.8569 12.5064 2.14176
74.0459 12.3248 2.09744
75.8886 12.8982 2.20994
74.1784 12.5048 2.13752
74.8176 12.8148 2.24022
66.7217 11.4917 2.0023
72.2972 12.7803 2.30724
65.7949 11.9826 2.23175
72.3216 13.0244 2.36696
66.6246 12.1506 2.26456
74.4346 13.6652 2.54548
69.4227 12.9588 2.43452
66.7784 12.7861 2.50252
68.4149 12.8902 2.46589
69.7262 13.3086 2.5825
69.5411 13.3458 2.61923
70.7723 13.6033 2.6757
67.568 13.4567 2.69255
60.39 12.0341 2.44495
64.0713 12.7453 2.62
63.5831 12.7096 2.59006
63.6261 13.078 2.71582
61.7954 12.7633 2.68422
67.6514 14.1793 2.99599
64.5901 13.8199 2.98771
69.5321 14.6578 3.18799
65.9779 14.0383 3.03021
63.1779 13.547 2.93444
64.965 14.2669 3.1641
65.2075 14.4703 3.26757
60.6205 13.2834 2.9895
65.2796 14.6011 3.31373
66.7795 14.8855 3.35771
63.0198 14.3542 3.32195
62.7298 14.5775 3.42973
61.5501 14.3069 3.33687
59.8023 14.1258 3.34593
65.0065 15.1872 3.58308
53.2587 12.7609 3.12629
60.3518 14.4416 3.51756
62.2655 15.0951 3.68007
55.1689 13.398 3.32262
59.6729 14.7225 3.63591
61.7752 15.2778 3.83316
58.6394 14.9359 3.78633
59.4558 15.2537 3.9713
55.0963 13.929 3.53906
61.391 16.2124 4.22851
56.3036 14.3075 3.74182
59.2431 15.2609 3.97889
62.448 16.353 4.3208
57.1017 15.1647 4.0747
56.7473 15.2139 4.13056
58.4112 15.898 4.33757
54.786 15.1117 4.18567
54.7677 15.1207 4.21731
52.673 14.672 4.10467
59.5784 16.8956 4.80836
57.7785 16.0432 4.55034
60.3046 16.953 4.78757
57.5032 16.7435 4.89953
54.9688 15.8958 4.59774
51.1814 15.1427 4.45696
61.6878 17.9661 5.2892
52.9554 15.6366 4.60988
54.2518 16.2245 4.89967
57.1991 17.0911 5.16656
53.1166 16.3008 4.96211
50.6696 15.3474 4.74112
54.4046 16.4645 5.09545
51.3856 15.7579 4.87362
51.6701 15.8483 4.89399
48.4842 15.399 4.9304
52.7899 16.8085 5.34047
51.4449 16.6104 5.35162
50.9312 16.1917 5.2726
50.9691 16.2604 5.27452
49.8803 16.1548 5.33539
50.549 16.6086 5.52749
46.8279 15.6515 5.27725
52.952 17.2551 5.69371
47.6465 15.9589 5.36732
48.9076 16.529 5.56891
51.2294 17.6813 6.05157
47.4461 16.0728 5.46102
45.2314 15.7087 5.50356
49.8258 17.6421 6.26178
49.2473 17.0161 5.98746
46.7552 16.5133 5.91024
49.0555 17.2279 6.10702
50.6062 18.2363 6.63119
46.4741 16.4538 5.87527
48.3577 17.7683 6.4709
46.072 16.8499 6.22924
47.6926 17.5695 6.56639
48.3024 17.809 6.58158
44.6818 16.4809 6.16212
48.3393 18.0728 6.74256
42.8868 16.2484 6.28322
45.4474 17.7208 6.89342
45.5073 17.3177 6.63392
45.0465 17.3015 6.7124
41.6941 16.1177 6.30002
46.7132 18.4408 7.33931
43.0646 16.8932 6.78508
43.1466 16.5976 6.44958
41.5824 16.5303 6.67165
41.7925 17.1065 7.08292
47.6191 18.2937 7.05982
41.6904 17.1899 7.06821
44.6909 18.5252 7.68594
47.5591 19.4418 8.03242
45.0614 18.3445 7.55065
42.8904 18.063 7.63356
43.1633 18.1129 7.67634
43.424 18.2715 7.74553
42.4326 18.2125 7.89431
42.7138 18.0462 7.67399
39.406 16.8337 7.28175
40.9411 17.5789 7.70309
42.6644 18.366 7.86742
40.5435 18.1395 8.08425
38.6235 17.0275 7.61161
38.3335 17.08 7.73505
41.3941 18.4634 8.33112
41.2571 17.9711 7.96506
40.8272 18.4711 8.35792
41.5915 18.9098 8.57496
42.5802 19.5305 8.9699
39.7164 18.2099 8.40298
36.7479 16.7874 7.88565
44.2021 20.5675 9.62204
39.8437 18.6659 8.80882
39.3055 18.5914 8.81397
34.7702 16.8167 8.28828
39.019 18.6264 8.95828
36.2777 17.268 8.42454
37.6948 18.3168 8.88804
39.5926 19.0398 9.08543
35.0907 17.0795 8.33302
37.379 18.3683 9.05138
38.8878 18.912 9.2489
38.7301 19.9118 10.138
38.0626 19.0847 9.79975
38.6295 19.1061 9.55975
36.143 17.875 9.02859
37.5646 18.9154 9.57071
39.0503 20.0936 10.3211
35.0923 17.7291 9.2074
36.7654 19.0743 9.85193
36.3801 19.1602 10.1782
37.5573 19.6939 10.4794
38.5831 19.9925 10.5548
40.0479 20.875 10.8825
35.1582 18.43 9.6839
35.1346 19.0881 10.3303
35.9163 19.295 10.5171
37.1651 20.0054 10.8991
34.3987 18.8099 10.3847
37.2025 20.3562 11.0553
33.4602 18.5208 10.361
33.3339 18.2 10.0858
36.2574 20.3759 11.3985
34.1918 19.3158 11.1224
34.0126 18.3958 10.1664
33.2606 18.6687 10.667
33.6366 18.9466 10.7578
32.056 17.8737 10.0351
35.3737 20.4955 11.8058
32.3973 18.614 10.822
34.135 19.6295 11.3185
29.8288 17.3506 10.3211
32.0647 18.562 10.881
32.377 19.009 11.1954
32.3063 18.8143 11.0587
32.9627 20.1133 12.126
31.9297 18.9852 11.2127
31.0819 19.1925 11.7819
29.0686 17.4475 10.6511
33.525 20.8718 12.932
31.3614 18.5796 11.3036
32.69 20.3507 12.6303
30.2753 18.485 11.5276
30.7806 18.6767 11.4337
28.9596 18.286 11.5192
30.2153 19.1954 12.1629
31.3924 20.2793 13.2691
35.1603 21.9174 13.7874
31.1542 19.3254 12.255
30.8731 19.34 12.2371
34.9435 22.7372 14.7275
33.8467 21.1756 13.1141
29.9374 19.5542 12.7068
29.6499 19.6981 13.2574
30.7165 20.3853 13.597
32.7146 21.1465 13.7021
30.9923 21.2474 14.3921
30.6049 19.8563 12.9627
29.094 20.0732 13.8514
29.5045 19.4087 12.9651
28.4702 18.9486 12.5722
26.7414 18.3694 12.7144
27.2021 18.6282 12.9219
29.6509 20.7705 14.564
30.6392 20.9101 14.3504
29.2593 20.494 14.3063
29.0583 20.1051 14.0442
30.8335 21.529 15.0853
29.4261 20.5468 14.3904
26.6145 18.9066 13.6855
26.821 18.7888 13.1987
25.3275 17.987 13.0096
28.3476 19.9184 13.9482
26.6707 19.552 14.3557
28.316 20.4495 14.8014
27.6925 20.0862 14.7321
25.0645 18.175 13.4772
25.1845 17.8126 12.9057
27.5537 20.6852 15.5803
27.5189 20.4154 15.4368
27.7144 19.8654 14.3267
25.499 19.1429 14.617
26.6949 19.9098 15.1335
27.2884 20.0689 14.8259
26.5052 20.269 15.3784
26.9598 20.1841 15.2185
25.0173 18.6966 14.0846
24.608 19.2498 15.1227
25.8528 19.5361 14.8139
24.117 19.1182 15.3196
26.5429 20.0435 15.4431
28.388 21.9896 16.9605
25.1199 19.4428 15.1532
24.6402 19.7091 15.9203
26.6408 21.043 16.575
26.2531 20.2025 15.6358
25.2991 20.635 16.6643
25.6574 20.1963 15.9282
22.4621 18.0971 14.835
22.9524 18.4853 15.1834
25.1825 20.1418 16.3336
25.0315 20.9639 17.6427
27.7883 22.2168 18.0689
25.9344 20.6615 16.5802
24.3841 20.145 16.5598
22.7862 18.6386 15.4339
23.0036 19.3388 16.4051
24.0835 19.9108 16.3316
21.7156 18.9968 16.4424
21.7891 18.7827 16.727
23.1068 19.1762 16.56
25.5688 21.2734 17.634
24.356 20.8014 17.8276
23.5508 19.7307 16.4446
22.7325 19.8526 17.0903
21.0203 18.6 16.4711
22.7906 19.4457 16.8664
22.4687 19.6692 17.4325
23.7977 20.2979 17.2948
20.7458 18.2203 16.3423
21.5426 18.9428 16.6507
22.3774 19.5794 17.3268
22.0674 19.9505 18.2311
21.8368 18.558 16.1784
21.845 20.0383 18.5564
22.1888 19.5015 17.5077
21.8848 19.376 17.2144
21.8347 19.9772 18.0537
21.1851 19.5705 17.9362
19.7591 17.9484 16.7582
19.5798 17.5016 15.7356
21.1138 19.3703 17.6323
20.9058 19.462 17.9168
20.5807 19.1802 17.9718
21.3422 19.76 18.0872
20.3602 19.6466 18.7253
20.3504 19.176 18.18
19.5597 18.229 17.2466
19.8658 19.5841 19.1941
20.4468 19.4979 18.8865
21.6853 20.9726 20.3152
20.3822 18.7408 17.9364
20.2209 19.1509 18.2888
19.5923 18.9276 18.3553
20.2667 20.0517 19.8158
19.8912 18.7245 17.9967
19.33 18.6582 17.9204
20.5599 20.3338 19.7667
20.1003 20.091 19.7333
18.2664 18.5866 19.0697
19.5318 19.3488 19.3099
18.2466 18.0637 18.4259
19.9086 19.5871 19.5218
19.9475 20.1666 20.388
20.8752 21.0976 21.1771
19.1986 20.0156 21.3345
21.6692 21.2652 20.9364
19.7255 19.9223 19.8563
17.8897 18.4975 19.2024
18.122 18.9719 19.8656
19.3665 20.3098 21.2713
20.3841 20.9263 21.5156
17.9232 18.4468 19.4211
19.8185 20.9876 22.5422
20.2755 20.1728 20.4301
21.0107 22.4042 23.4758
20.7213 22.2026 23.7332
18.9708 19.7206 21.198
19.3618 20.0365 21.3924
20.846 21.5646 21.9283
19.4348 21.7435 23.4663
18.6687 20.4257 22.852
19.6795 20.412 21.6034
18.9492 20.4367 22.2525
19.6025 21.4304 23.3224
18.92 20.6467 22.7998
19.5445 21.1372 23.1675
19.2541 20.5874 22.0234
18.1316 20.5576 23.5813
20.279 22.238 24.6247
19.492 21.2984 23.342
18.3741 20.8236 23.8779
19.2343 20.7306 22.5006
17.9132 20.2972 23.1657
19.4483 22.0452 25.2146
19.8137 21.8078 23.8145
18.5332 20.9667 23.5969
17.0581 19.561 22.6107
17.8746 20.3168 23.2316
17.6046 20.5457 24.2886
18.1659 20.4519 23.5196
17.0625 18.4947 20.7042
17.8811 20.8132 23.9749
17.022 19.6589 23.2941
18.5006 21.4546 24.6515
17.2443 20.5226 24.7598
18.3855 20.9241 23.9855
17.6901 20.3108 23.0335
16.2051 19.4621 23.2311
16.5471 20.2546 24.5587
16.5069 19.0012 22.7382
16.7244 19.7248 23.3225
15.8676 19.4027 24.1128
16.9962 19.5835 23.1341
16.6043 20.0632 24.3459
17.1679 20.4206 24.0061
16.0359 19.7364 24.1882
15.7245 19.266 24.2039
16.701 19.8242 23.9919
17.5755 21.3993 25.3016
15.7515 19.7797 25.2208
16.9837 20.5653 25.0573
17.4706 22.0971 27.1966
15.3242 18.7584 23.7379
15.8713 19.4972 24.43
15.8433 19.3338 23.9197
16.1202 20.8505 26.801
16.8743 20.6562 25.6827
15.6179 19.53 24.9685
16.2999 20.17 25.179
15.239 18.7224 23.2663
14.307 18.2845 23.926
17.1779 22.4177 28.2062
15.0004 19.0267 25.2067
16.5486 21.2932 27.4163
15.6105 19.3395 24.3391
15.5166 20.6361 27.2476
15.1247 19.4784 25.8262
16.3772 20.6622 25.9028
15.0847 20.0276 26.5188
14.7461 19.1448 25.746
15.4784 20.0707 26.1106
15.1248 19.6044 25.4526
14.7 19.4961 26.0535
15.2238 20.6953 28.3211
15.8277 19.9277 25.9004
15.6464 20.4221 25.7965
13.7129 19.6456 27.8567
14.9527 20.1618 28.0468
15.0921 19.2429 25.3555
15.3365 21.0111 28.595
14.9825 19.8009 26.7288
14.6553 19.4992 26.4424
14.8654 19.8922 26.775
14.7025 20.2691 28.0072
14.8086 19.846 26.7792
14.9199 20.8411 28.8034
14.1566 18.9656 25.7588
14.8913 20.7791 28.389
13.304 18.7262 26.901
14.4117 19.8297 27.7395
15.2038 21.3112 29.886
15.0159 20.5742 28.1828
13.4856 18.5142 25.5977
13.6596 19.3903 27.1635
13.4416 19.6467 28.5435
13.7911 19.6459 28.6416
13.8399 19.4063 27.8592
13.5226 18.5909 26.5537
13.9972 19.9097 28.5244
13.3959 18.8357 26.7623
12.9003 18.7182 27.0996
13.5112 19.4646 28.2252
13.306 19.3141 28.812
14.8109 20.9199 29.7781
13.8101 19.4494 27.4907
13.0365 19.331 28.6314
12.9205 18.6879 27.6043
13.732 20.0535 28.716
12.7119 19.0402 28.7103
12.6369 18.3234 27.5998
12.9881 18.5852 27.4746
14.1858 20.9674 30.2066
12.7595 19.2396 29.0256
12.4911 18.3734 27.6437
13.9046 20.6265 30.1149
13.5445 20.6167 30.9825
12.9185 19.3636 29.299
12.7855 18.77 27.5179
11.871 18.3562 28.3159
12.4213 18.9607 28.9591
11.8544 17.8085 27.1223
11.5033 17.4042 26.5246
12.0136 18.8211 29.8429
12.7237 19.098 28.8394
11.4142 17.6085 27.8516
13.3962 21.3621 33.1971
12.3457 18.4152 28.6433
12.0368 18.2108 28.0989
11.5709 17.4781 26.3798
11.2105 18.3844 29.7069
11.7497 17.6627 27.3295
11.5634 18.4331 29.2604
12.0291 18.5708 28.7084
11.0464 17.7106 28.783
11.897 18.8708 30.5611
12.4798 19.2379 29.9699
11.4988 17.9778 28.3774
11.5137 18.5287 29.9629
12.6453 20.4938 32.7929
11.5136 17.628 27.8422
12.0486 19.71 31.8042
12.2724 19.8599 32.279
11.5975 18.2201 29.4295
12.4497 20.6229 33.4174
11.7301 18.8242 31.1262
12.0574 18.5431 28.9842
11.7622 19.9547 32.7806
11.7144 18.5554 29.8936
11.1851 18.1561 29.5369
11.0989 18.361 29.898
10.3107 17.4091 30.4944
11.8184 18.9116 30.5688
11.181 18.8951 32.0497
11.7716 19.4274 33.048
12.2819 19.6427 31.2187
10.5912 17.5318 30.1945
11.9424 19.779 32.3801
10.6284 18.3005 32.2926
11.5495 18.4465 29.6825
10.2202 17.3173 30.5788
11.5615 19.1211 31.8411
11.2877 19.5665 34.0245
12.0591 19.7239 32.1786
11.2826 19.2488 31.9342
10.4164 17.8854 30.0969
9.73206 16.7161 29.782
11.1606 19.1697 32.3185
9.93381 17.118 30.3001
10.6426 18.7295 33.0652
10.5796 17.7918 31.1422
10.7351 18.2521 30.6505
9.69372 17.0189 30.5354
10.2367 18.089 32.2779
10.6714 18.0215 30.7997
10.2762 17.5497 29.8266
9.93509 17.1862 28.3256
8.65038 16.0302 29.1594
9.42958 17.0654 30.9229
10.0159 17.6784 30.9931
10.0862 18.4044 33.6165
9.80356 16.712 29.8797
9.66194 17.0201 31.2497
10.303 17.3641 29.5504
9.59353 17.5954 32.3857
10.6758 18.7978 32.2544
9.29922 17.3497 32.5294
9.65012 17.086 30.997
9.30891 16.7074 30.7555
9.80781 17.4645 31.7885
10.7074 19.6 34.5415
9.98206 18.7187 35.0312
9.99484 17.4821 31.4671
9.75354 18.208 33.6617
9.819 18.2934 34.5977
10.1225 18.3698 34.3956
9.81108 17.1666 31.4249
9.98287 17.9083 31.6389
9.17887 17.1554 31.5147
8.9743 16.5362 30.6797
9.30847 17.8626 33.935
9.20846 16.5171 31.2014
9.58752 17.5371 32.1371
9.2662 17.4324 32.6349
9.34747 17.5912 33.0031
8.67368 15.7087 29.2648
8.87481 17.6684 35.3224
10.0273 17.6445 31.2338
9.43023 18.8684 35.2717
8.80659 16.5283 31.6825
8.59628 16.6341 33.1067
9.0075 16.1554 30.2827
8.98665 17.995 35.6129
9.43969 17.3737 32.4769
8.94411 17.3384 33.7784
9.56732 18.1567 33.2842
8.31323 16.2061 32.2906
8.81729 17.5077 34.2635
8.84953 17.1264 34.0602
8.81794 16.6267 32.2793
8.74232 16.7244 32.3965
8.42337 16.8471 34.0194
9.13986 17.546 35.2566
9.47789 17.6277 33.1722
8.5871 17.2471 35.0455
8.96741 17.251 34.0583
8.66766 16.3766 31.0554
7.89726 15.5545 31.0733
8.75882 18.332 37.1133
8.49652 16.2647 32.4515
8.19745 16.3394 33.7709
8.61202 16.5849 32.9425
8.47075 16.1099 31.9243
8.21075 15.9008 30.627
8.65365 18.146 35.7991
7.76494 15.818 33.4901
8.82767 17.5947 35.7162
9.41559 18.8894 36.8495
8.39948 16.7184 33.5412
8.20016 16.5521 33.6581
8.39351 16.822 34.3655
8.41924 16.9127 33.1672
7.67847 15.6922 32.0287
7.64405 15.6961 32.278
7.81389 16.0761 32.5667
7.36769 15.2919 31.9834
7.59038 15.9242 33.6354
7.77976 15.707 32.9995
7.80977 15.6194 30.9903
7.27755 15.3837 32.5745
7.55525 15.9254 33.3258
7.55515 15.6378 33.2163
7.69854 16.2904 34.7981
7.67737 15.1679 31.1204
7.55465 16.2081 34.2831
7.65884 15.5917 32.8935
7.62227 15.943 33.7986
7.68908 16.3472 34.5333
7.94073 17.0023 35.8821
7.31148 15.1861 34.2939
8.33921 16.8334 34.3436
7.7583 16.1546 33.2655
7.64833 16.8077 36.5072
7.85064 16.3202 34.6046
7.73006 16.737 36.3074
7.46117 15.2433 31.5326
7.25254 16.012 34.291
7.32272 15.979 34.3527
7.19546 15.3753 33.6423
7.87746 17.1337 36.0688
7.1816 15.621 34.1638
7.13675 15.9019 35.9046
7.31421 15.2987 33.4399
7.16345 15.4483 33.9402
7.5695 16.2473 35.1704
6.97768 15.311 33.9758
6.79875 14.1863 31.3081
6.83426 14.7834 32.5629
7.19999 16.2147 36.0939
7.01266 15.3675 34.9114
7.26409 15.6547 34.5408
7.36344 16.3719 36.8869
7.93572 17.0662 35.2913
6.49291 14.6513 32.844
6.47171 14.859 34.7975
7.08956 15.4273 34.4498
6.92385 15.1379 34.2559
7.29872 16.4648 36.3337
6.7389 14.4512 32.8354
7.31108 17.1342 37.7134
6.68517 14.0176 31.9565
6.83077 15.3985 34.4759
6.4923 14.5202 33.6212
6.74606 15.0135 34.1791
6.9077 15.5219 35.2131
6.969 15.4055 33.9942
6.67293 15.7888 37.064
6.8972 15.2343 36.0237
7.09548 14.9515 32.5063
6.62922 15.3805 34.6119
6.69056 15.1792 33.4902
6.31788 14.4889 32.4265
6.21691 15.0411 35.4929
6.46399 14.6043 34.8161
6.92755 15.8287 36.4075
6.70252 15.1817 34.7807
6.7572 16.3517 37.7016
6.36672 14.3761 33.8646
6.46465 14.8388 34.8289
6.6722 16.4833 38.8105
6.44547 14.2546 34.0203
6.48789 14.6653 34.2951
6.782 15.9773 35.2621
5.80967 14.1516 34.4998
6.13427 14.443 35.6745
6.57272 15.0642 35.7491
6.73875 16.0437 37.4411
6.32083 14.7885 36.2504
6.32062 14.1898 34.2372
6.63156 15.777 36.8604
6.49157 15.3659 36.5546
6.22995 14.089 33.7401
6.16233 14.517 35.5543
6.47253 15.0252 34.6419
6.05969 14.5916 34.9785
6.3429 15.3818 36.1902
5.76742 13.8033 34.7353
6.29077 14.7696 35.2342
6.21684 14.923 35.498
6.10615 14.9457 36.6646
6.42518 15.1626 34.9654
5.49208 12.5523 29.9444
5.54592 14.3465 35.1185
5.82392 14.1585 34.6334
5.43306 12.7993 32.1234
5.74204 14.0491 33.3613
5.13003 12.624 32.5662
5.68076 13.7881 34.2226
