# pn-170911/RbIIR-52-PTBB-1280-1959.psd
# Power spectrum* (dif=0,1,2) (really just |FT|^2)
# NOTE: only the first half! (symmetric)
# weeks: 1280-1959
# 4 clock-days, 0 excluded
# PSD: 1441
211.944 0.0567079 0.0225696
7870.67 0.535699 0.0131638
62849.6 1.93475 0.0129086
21368.3 0.782511 0.0125095
26487.9 1.06635 0.0135623
6242.68 0.268077 0.0132404
5214.79 0.272852 0.0127313
2336.08 0.164628 0.0133914
2132.08 0.60736 0.0142181
2192.86 0.390585 0.0136638
2017.54 0.683413 0.012785
2695.13 0.965469 0.0119838
1297.36 0.32801 0.0140037
1069.69 0.941976 0.0099431
1309.61 0.587919 0.01286
647.332 0.851956 0.0180579
380.106 0.325008 0.0153791
735.802 0.526878 0.0126429
372.55 0.971433 0.014704
597.442 0.747273 0.0144927
421.377 0.447511 0.0103409
655.296 0.920913 0.0114155
509.314 0.994069 0.0132367
309.753 0.59949 0.0151534
223.992 0.837488 0.0169884
195.414 0.59258 0.0187569
252.702 0.398788 0.0161267
249.563 0.550846 0.0171545
170.375 0.587796 0.0115943
194.78 0.392141 0.0121858
350.535 1.03475 0.0239569
348.313 0.825417 0.0160527
131.006 1.06083 0.0196925
197.005 0.710856 0.0152429
241.8 0.829458 0.0170854
76.0626 0.970078 0.0271031
302.965 1.39743 0.0256487
160.725 1.26426 0.025179
203.696 1.03796 0.00820557
200.792 1.38508 0.0293075
231.97 0.825714 0.0191808
122.43 0.987798 0.0216974
76.1237 1.04688 0.0251257
194.569 1.45247 0.0300677
190.859 1.1437 0.0230975
103.911 0.573448 0.0066744
208.573 1.88132 0.0336687
74.0271 0.344079 0.0142124
115.591 1.51185 0.0177265
185.58 2.51206 0.0404775
152.111 1.40023 0.0132671
86.8573 1.57868 0.0474966
282.143 2.66318 0.0415409
273.977 2.06161 0.034917
113.596 0.874196 0.0207027
139.932 1.17359 0.0247416
133.006 1.77976 0.0554567
280.324 4.3122 0.0441424
153.211 1.34642 0.0445382
45.8688 1.02191 0.021507
164.443 2.98782 0.0880184
220.815 3.57055 0.0441185
103.531 1.39845 0.0656836
136.881 2.66455 0.0399396
101.882 1.72237 0.0448069
59.1397 1.82105 0.0777251
174.458 2.50968 0.0511231
306.593 5.02615 0.128762
123.485 2.82449 0.109458
53.9575 0.998606 0.0386551
149.323 2.62613 0.0669628
298.972 6.74808 0.129407
55.993 0.646414 0.0167465
134.013 3.74558 0.126822
222.467 5.18632 0.142976
324.077 8.38227 0.179531
168.197 4.54445 0.109749
153.054 4.87546 0.192601
68.7388 1.73408 0.0706314
171.927 6.34382 0.258342
125.135 2.42457 0.101044
164.122 3.50115 0.0965137
70.9313 2.49883 0.0878882
75.9451 2.80565 0.0967062
100.387 2.63849 0.118206
151.505 6.31768 0.25987
129.005 3.68866 0.166521
212.273 7.66734 0.362652
100.749 3.07857 0.0914114
166.065 5.73406 0.21345
88.9553 3.007 0.149012
170.018 6.31946 0.253395
228.516 8.76321 0.309277
143.833 7.52605 0.328286
79.1891 2.65635 0.162923
105.978 5.40439 0.259324
83.4341 4.61317 0.192832
174.373 7.90312 0.337359
105.288 3.5443 0.190267
195.421 8.84603 0.457316
51.6355 1.75781 0.116886
113.686 6.23467 0.395431
145.391 5.90324 0.220162
141.644 5.98188 0.274194
157.701 10.7275 0.581796
89.7731 4.34028 0.266508
171.505 9.6073 0.493703
57.2627 2.91648 0.215808
74.1783 3.72206 0.192022
155.993 11.1544 0.713745
46.0683 1.97474 0.0995421
188.243 10.4239 0.597188
101.545 4.55198 0.244622
48.7528 4.40308 0.224574
73.5226 3.15638 0.213986
40.6769 2.81926 0.147321
111.534 8.43196 0.568137
78.049 5.0946 0.361505
183.729 11.5349 0.85645
101.649 5.89247 0.349297
247.769 14.4538 1.00639
32.9293 3.49748 0.269876
134.452 8.95344 0.709132
33.198 2.39184 0.192079
36.4339 4.01503 0.274418
144.678 10.5042 0.608316
144.678 11.0927 0.728434
71.0298 6.44351 0.481938
96.7398 4.46982 0.2974
97.5776 6.06757 0.444438
54.0154 3.55951 0.222568
166.429 11.5981 0.987509
110.857 7.84158 0.655111
83.2016 7.75706 0.673739
102.693 6.76239 0.491134
258.417 20.0452 1.69862
74.6339 7.03739 0.717467
31.3288 3.0559 0.214127
45.8591 3.81958 0.389002
31.8495 4.10909 0.459944
159.394 15.0667 1.38618
128.571 11.8235 1.20307
105.988 8.80457 0.971715
77.7748 7.38257 0.701125
145.363 11.6832 1.15655
66.4256 7.00345 0.708596
76.3023 8.09439 0.999582
130.111 10.3469 1.10274
64.6058 5.40573 0.544805
66.7904 7.51998 0.947014
228.637 27.3687 2.75623
56.8895 7.56544 0.947917
13.6261 1.58183 0.297019
83.5945 9.67834 1.02567
96.2193 8.25245 0.916945
138.955 14.3582 1.74302
30.0013 5.30565 0.653199
67.424 6.49878 0.593322
110.563 14.6467 1.73365
108.916 14.2759 2.08132
143.723 15.7097 1.52275
120.028 15.7207 1.92859
222.901 26.6321 3.33488
20.7 2.8011 0.327575
50.6987 8.79275 1.24012
97.403 14.0865 1.8104
133.151 17.9741 2.58773
112 13.8164 1.8722
122.539 17.4999 2.38285
131.535 15.0526 2.03652
93.4927 16.275 2.44644
21.8652 2.48671 0.538483
93.2453 10.7895 1.41232
33.7674 3.79886 0.478455
60.5336 9.13837 1.73726
168.989 18.9651 2.33768
36.4793 5.76818 0.922301
32.042 4.59609 0.592113
127.412 16.9153 2.52616
74.9309 13.9168 2.08556
149.178 20.0037 2.82527
51.5205 7.47148 1.24906
111.767 16.1244 2.58211
41.4851 5.95605 0.957033
91.9852 15.4046 2.51874
60.4733 8.55921 1.45239
77.3986 14.4057 2.68272
100.396 11.9636 1.62878
261.108 37.1684 5.745
62.1071 9.17496 1.62324
79.6553 11.1121 1.86804
21.2381 3.97192 0.690534
81.2236 15.7989 2.81865
111.038 19.1759 3.71848
115.507 19.3346 3.28174
41.9525 5.49819 0.894054
68.6637 11.0194 1.91054
142.618 25.3697 4.71331
32.1682 6.42669 1.41514
49.1609 8.23008 1.47175
62.3836 12.7398 2.63191
99.9525 14.4911 2.65206
65.9916 9.67345 1.89584
47.8702 7.56524 1.6028
102.092 19.199 4.16666
17.0918 4.23947 1.1477
67.011 11.0992 1.58921
77.7313 13.7995 2.6624
108.293 23.5918 4.75019
123.74 24.8429 5.02303
59.7114 15.1335 2.97698
49.5525 14.1804 3.51857
134.226 32.7222 7.19186
84.6893 12.9305 2.31092
88.4875 14.8092 2.76434
37.1762 9.26143 2.29957
97.3615 18.481 3.81328
22.6521 5.65068 1.32438
40.4038 11.5671 3.2217
92.957 19.097 3.54071
68.5304 17.7201 3.93303
23.8532 6.3592 1.86829
102.311 21.1464 5.07365
133.492 26.792 5.10133
48.9408 9.4194 2.26464
84.3901 17.2949 4.28888
48.2285 11.5754 2.82821
71.8773 17.6393 4.00353
132.474 30.0684 6.77886
53.6659 15.1459 4.36741
45.4576 9.65261 1.9697
84.0115 23.3764 5.59325
31.1438 8.0565 2.27994
120.81 25.993 6.50663
42.1351 9.38331 2.48651
57.1839 14.0433 4.00948
102.731 24.6535 6.0768
14.7824 3.78797 0.927972
71.8228 20.7458 5.40227
75.5102 20.5707 5.13355
49.6642 15.4703 4.83846
104.883 26.6858 6.73764
48.9071 13.7443 3.96254
35.3851 8.12003 2.55856
94.0503 21.8604 5.87792
70.4212 19.9874 5.61138
54.8647 17.8979 5.73044
51.0079 12.9151 3.09763
64.4239 20.8432 5.78968
89.8078 26.0626 7.97645
28.5658 10.4112 4.01287
39.3851 8.75326 2.04111
111.548 29.6555 9.13544
53.4825 15.4638 4.01191
61.1422 21.1935 7.11649
37.9222 8.27528 2.40666
89.0498 24.1724 6.59645
70.1355 24.5348 8.48448
28.0574 7.8891 2.48881
40.274 8.57127 2.14296
86.9517 25.7709 7.91879
40.5585 10.863 3.39453
10.1455 2.21468 0.748359
48.0319 13.0644 4.42773
86.4273 26.5667 8.6708
16.6782 5.5751 1.91334
65.5868 21.3595 6.14011
34.5675 13.6244 5.65052
56.1373 20.8201 7.12852
75.0219 28.9009 11.0236
51.3434 14.6653 3.84193
19.2528 4.56909 1.8821
75.144 27.2942 8.63207
12.9696 2.79189 1.03922
61.4536 19.9394 7.08298
14.8967 4.39707 1.52845
40.9579 14.1791 4.81699
35.9606 10.9629 3.99192
17.151 8.85367 3.8234
54.8677 18.14 5.62268
25.1532 13.6297 6.54501
29.2579 8.56083 3.29005
12.1747 3.82334 1.37571
68.9444 23.4347 9.04722
132.654 45.8152 15.4838
43.2025 16.8855 5.92956
30.8805 14.2855 5.88398
28.3406 12.4087 5.52543
60.8796 20.7164 7.72498
94.1651 34.4054 11.1113
67.3178 35.2106 16.5346
50.2863 18.6528 7.59933
38.155 12.1886 4.42821
48.1598 17.3405 6.43024
102.514 39.3917 14.8486
28.0575 9.45825 3.31564
13.0216 5.43023 2.86851
25.7327 9.89482 3.82364
34.5602 13.0389 5.35335
33.4557 13.8932 6.43057
88.9944 32.1297 12.1603
34.3935 12.5635 4.59804
37.5807 17.3921 8.81993
15.2046 4.53492 1.82306
23.0422 8.07578 2.83583
50.7755 23.4729 9.72827
17.7084 7.97179 4.17874
43.76 21.7731 10.1254
23.7168 7.11713 2.93157
38.5177 14.3352 6.00559
58.4063 22.9916 11.0065
56.4639 24.6232 12.2167
47.8449 22.1876 10.9776
121.021 50.3317 20.3426
17.543 7.72433 2.8488
58.2038 26.4132 11.8958
37.6298 19.9174 9.40311
42.0397 20.3395 10.026
15.0539 8.80757 4.74593
52.9232 25.2739 11.4848
42.8446 18.7173 8.47722
54.1089 26.7036 12.6786
36.0206 15.5548 6.94714
12.5546 6.48556 4.00327
65.3503 26.4031 12.4491
98.4822 46.1765 20.6943
41.5855 20.8292 11.338
11.328 6.09515 3.58443
16.1639 6.58207 3.75686
65.698 29.5029 13.9443
21.3346 11.2381 6.18311
28.4849 12.9968 6.79482
24.1254 10.4128 4.98821
29.2115 16.9709 8.75867
34.0943 18.8026 10.0017
41.1482 19.346 10.3779
75.1054 45.469 23.0026
66.6111 29.6478 13.1211
29.2377 18.5076 10.5768
20.5143 13.5079 8.75808
41.3414 21.2136 11.0852
28.111 11.2475 5.73713
39.313 22.5188 12.5256
19.3639 13.1661 9.75377
24.0226 9.13939 4.03616
14.9862 6.69213 3.70282
41.1083 20.6518 10.0732
52.7488 26.4248 13.5282
90.942 46.5479 23.6972
17.1445 9.86983 6.16016
24.5839 11.912 7.2258
40.4216 21.5308 9.93865
54.5574 31.5387 17.8948
27.297 20.4118 14.0777
37.671 18.4111 9.93622
39.6621 21.5476 10.1028
23.5831 15.7625 9.09153
15.2453 13.8329 10.4206
21.5011 7.54929 2.85914
20.6649 14.4788 10.0942
64.4744 31.8437 17.5055
23.3095 14.9767 7.84907
16.3475 10.5058 7.39144
32.6539 17.601 9.90952
16.5452 10.2928 8.51097
41.661 26.8889 14.3886
13.305 5.15177 3.06185
29.9457 18.8417 11.6582
34.1324 20.6044 12.1947
15.1803 10.1491 7.09133
20.7509 12.0716 8.68192
18.8062 8.65144 4.80587
25.9936 15.8696 10.4004
43.688 25.9826 15.6583
29.451 23.699 17.1089
39.8252 17.2505 9.21707
17.2424 9.89477 5.63745
26.9745 13.0307 6.53006
33.6383 25.7256 17.5065
5.66104 2.97961 3.12953
37.0933 20.4601 12.4033
34.032 20.6009 10.4787
34.5004 28.414 20.7937
31.7136 26.2326 22.3538
59.2505 28.6449 15.501
59.1548 39.5882 26.0182
25.3129 14.6986 10.4305
27.263 18.4431 13.73
14.7315 8.38702 7.29488
20.3715 14.4718 9.47738
37.4633 20.2422 10.0178
34.3811 27.0365 20.0461
43.2539 26.7675 16.5934
35.6907 28.8689 21.6095
20.4459 15.9968 15.3252
40.765 23.271 12.0409
27.9454 15.1685 8.30403
17.4596 12.2791 8.75087
11.2499 7.60605 4.59952
36.9198 28.7795 21.6057
25.2119 20.6364 17.1437
25.1497 16.6991 11.2625
24.781 15.7647 8.46411
12.7804 11.2447 9.24265
21.02 17.2446 15.0158
34.9005 24.4572 16.3502
15.3807 10.3169 8.85475
14.0791 13.3297 12.9458
56.8197 40.0111 24.5306
8.63791 9.13882 9.18783
24.0836 12.2409 6.3303
34.296 27.7021 20.7262
5.78353 7.08986 10.0864
43.5074 25.9114 13.9797
36.7532 30.2513 24.3361
16.5647 10.9522 7.94982
22.5737 17.5757 13.8847
27.5067 19.4683 12.9427
29.0374 25.5659 21.671
10.3729 6.99613 8.40056
28.8741 23.0569 17.2581
17.6757 9.86136 6.11435
19.8497 17.3731 17.6269
6.32369 4.93982 6.92459
37.3316 24.7151 14.2711
23.6796 15.1329 8.26103
38.6975 37.2317 29.7795
36.7146 33.8017 32.7433
11.4453 8.20628 7.78727
28.7822 23.6435 18.2807
31.4202 28.1638 25.8915
19.5751 13.6785 13.5783
36.2095 27.9445 20.678
19.7765 12.7345 12.3434
23.9891 16.0818 10.629
39.7653 33.3402 23.7534
14.3453 10.8949 8.11519
15.8097 14.1851 12.0061
35.4887 34.6015 31.5478
49.8063 38.1009 32.419
37.1713 27.6395 20.2667
8.27295 6.29518 5.37401
12.662 14.6157 19.5006
24.9086 13.6967 8.23324
52.3765 44.7555 37.8017
42.5709 35.1332 24.5389
6.67104 9.78236 13.6626
23.9288 21.2939 19.0131
21.9294 17.4311 14.4501
20.8792 21.058 16.5879
15.4506 13.1349 12.3573
17.8353 17.1951 16.2964
35.4209 27.8333 20.642
16.5747 18.71 18.3768
7.94221 4.29406 4.3704
11.9578 10.5803 9.17006
7.39315 8.73446 9.26985
20.3357 19.7807 21.3412
19.2201 13.0553 9.41245
28.1845 28.0794 22.7006
21.9535 23.4149 24.1842
16.8599 12.4147 10.7443
33.0958 30.7779 26.1523
15.1658 13.5778 14.4138
21.5252 23.1098 20.4931
16.8483 19.2932 22.9613
50.8625 49.1571 42.0363
30.822 29.6949 25.7799
19.3108 28.6362 35.641
24.5318 19.8601 20.3481
20.7976 14.3839 11.6795
15.7109 17.4978 19.4144
36.7644 32.7808 26.9534
11.3441 8.17693 6.62863
11.0239 10.5832 9.99706
35.7527 32.8862 28.6473
16.3275 21.5421 27.5452
17.9438 15.0865 16.3621
24.8684 23.7055 18.5691
20.2916 24.3581 24.1769
48.2407 53.6903 50.2255
18.7583 20.4688 23.4771
16.549 17.5253 18.1146
39.5381 45.8169 47.9355
16.3344 13.7913 12.7363
13.027 26.4604 37.6561
21.6403 10.2819 7.28896
24.089 35.6009 51.9424
61.3622 40.0143 23.8473
10.5997 13.2876 19.0339
29.9066 23.1598 16.7477
6.37048 7.85115 11.1302
25.7058 24.7695 23.0572
29.4332 30.8171 34.0201
14.9273 21.0554 29.2882
24.6797 17.9589 16.4983
13.5944 8.61981 4.44351
31.2908 37.9753 37.2949
19.0072 23.0278 27.9838
38.3237 42.3136 37.9693
11.4886 14.9507 18.9271
11.3673 6.82438 5.75466
14.3492 15.5024 16.8835
23.8783 27.6925 31.3123
19.7216 16.6728 17.8112
20.1036 21.0238 23.0833
27.9081 26.9035 21.7626
4.19687 9.81965 15.9487
12.8851 15.8637 22.304
15.0514 16.4213 17.0338
23.2247 27.0928 27.2186
5.03004 8.88221 13.9918
17.5263 22.0188 32.0229
28.8597 30.794 35.1244
23.1774 18.2643 15.4759
12.9697 17.1085 23.8234
21.2719 22.0273 22.6442
13.4815 10.92 13.9969
25.0014 25.9376 23.1289
36.1724 41.6619 37.9924
15.0211 24.5233 33.8466
22.4815 24.3537 29.9189
12.5012 16.141 24.071
14.4789 11.004 11.27
14.6278 20.5575 30.7917
17.8827 14.0716 7.73206
5.97513 9.94951 12.6077
16.7239 25.3496 33.1325
13.4529 13.617 17.416
11.9426 12.9493 11.9153
2.44026 6.73641 14.9591
16.1518 13.9145 14.0844
11.2748 14.6858 23.6266
19.034 24.9947 30.6589
18.2097 17.2588 18.5057
15.4098 22.8354 30.3601
11.228 8.59065 7.09326
10.9657 17.3322 29.1198
20.6895 20.3194 20.511
19.2981 19.6952 18.4158
20.4258 29.56 40.2941
14.8041 16.9399 21.9284
16.0102 15.1237 14.4949
2.15379 3.05893 5.56356
4.90836 9.23882 18.6378
13.0732 14.1936 20.3499
19.6529 20.3841 14.7408
5.29557 15.0148 28.8219
17.3368 12.2277 9.0752
4.46965 4.69999 10.506
21.49 28.37 38.4464
29.5095 32.5768 25.5697
12.418 23.5099 33.6428
18.656 23.2348 31.8777
15.0952 16.1552 24.0182
29.8483 33.6306 33.0134
9.72492 16.3333 27.623
12.5605 17.857 28.7503
23.1375 28.9961 33.7005
18.2541 24.6395 36.7325
16.7284 19.3851 22.2248
13.2231 16.0038 18.4226
5.8905 5.65572 11.5587
18.141 17.7251 14.9911
18.801 28.9404 38.6118
8.06173 10.6416 17.3807
18.2022 24.699 25.2724
16.654 32.0581 51.8711
11.6286 13.1702 23.7861
23.2078 29.4232 37.7387
29.598 45.9857 59.8329
9.64142 13.922 30.7842
22.0394 17.1506 13.4238
10.5518 16.1321 25.3847
19.866 20.4858 17.7961
6.71644 14.5398 31.677
34.8688 47.2136 56.6094
10.961 16.8026 28.7309
15.1489 14.637 11.253
9.03427 20.4829 30.2468
5.12436 5.5612 8.69966
7.56984 13.6315 29.6753
30.8063 44.476 53.1798
10.8117 16.6973 27.2402
17.1232 22.5409 28.6941
5.79823 6.74548 12.3344
9.79514 16.0475 27.7137
9.31759 5.58134 4.56276
12.9086 20.136 33.7488
22.1543 33.1331 46.4829
23.6585 32.484 41.0515
12.0353 20.5908 33.8033
11.1161 15.3614 25.0042
13.802 12.292 13.705
20.1342 29.7056 38.078
7.06868 11.2286 19.6985
4.35113 4.81939 11.2189
8.52008 10.2689 12.7878
19.4811 32.9012 40.0265
8.34007 12.921 17.8049
2.67654 5.97853 12.5453
6.23384 12.4377 22.3863
6.25838 6.56141 16.086
12.9661 12.1881 13.2995
9.54259 13.9468 24.6384
21.2303 29.3759 38.8133
13.1215 24.2203 43.7883
12.572 12.1213 13.6316
8.26576 13.7494 21.9486
11.2607 15.3355 20.2027
3.3245 9.87637 30.801
20.3806 19.2524 16.2302
7.54549 12.8234 26.3406
13.9267 16.9621 18.9131
13.0303 18.7569 19.5715
9.61577 16.0519 20.1309
18.578 38.9604 56.097
6.86388 21.0716 49.7422
17.7098 23.5943 36.6734
11.7492 12.7332 26.2494
15.7165 16.484 23.6171
23.3139 34.5817 43.3053
7.18075 10.3903 15.5607
8.90469 24.031 54.4682
27.5205 33.0976 43.4283
11.2691 16.7576 23.568
10.0071 15.0315 33.9664
23.3457 28.8381 32.2848
12.9412 25.1146 40.1502
11.2453 15.1837 23.8348
4.54704 5.74726 6.77321
2.79806 7.26955 19.2319
9.69305 17.9266 33.7958
25.0621 34.6319 44.626
13.3922 24.6761 43.5855
12.2101 19.137 42.2008
23.8783 30.3948 26.4564
10.9217 22.0831 37.3483
6.3858 15.7943 31.0639
5.19318 5.96812 22.2645
16.6182 22.25 26.1574
9.65078 8.05592 4.76056
8.84149 14.1135 15.9802
9.78633 27.3901 58.2737
7.75866 8.78943 16.462
9.58434 16.7163 26.4898
7.4909 12.7214 18.5637
9.85584 21.1455 35.6832
5.61913 7.72249 17.0313
7.43717 14.4668 31.1331
17.7885 30.7051 43.9745
12.6068 27.2677 47.5681
8.67242 20.0356 54.781
28.8807 35.0557 37.0171
8.213 14.8363 33.3188
22.8843 47.55 77.4099
8.67346 9.81627 24.408
13.7078 19.1233 33.3422
14.9705 21.6654 33.3038
12.1139 23.0418 41.8145
23.2965 30.627 33.063
7.73036 20.2062 34.584
8.55621 22.4064 56.8176
14.0593 17.84 33.4632
12.1013 17.7925 29.867
14.7409 28.9556 58.2896
14.5074 15.4238 14.4195
8.07791 16.6771 27.925
6.33684 10.9822 20.445
5.70493 9.0099 19.3994
8.41082 14.3938 24.2259
6.65633 21.3114 58.2121
28.6357 45.4001 61.231
6.2778 11.0268 25.4472
8.98289 21.3152 45.3828
7.2046 10.002 22.5783
8.15499 11.269 12.2672
5.92683 10.3079 21.7624
8.50039 15.1109 24.5669
4.41984 4.92313 10.3593
12.4794 22.9926 31.1492
9.31013 25.5936 54.2519
6.06766 10.3436 25.4054
12.8994 28.3441 50.9056
10.4442 15.8275 20.6064
5.16264 11.2939 19.5352
3.13037 5.23501 10.9647
7.07775 18.8077 40.1475
5.3432 7.18817 17.9617
9.08643 13.5514 19.7768
4.20852 8.11568 25.4044
10.6181 16.4268 29.9097
12.744 19.3683 31.5187
9.57256 19.4926 42.304
11.8038 21.1375 32.3602
5.45579 7.73336 14.7386
10.5716 25.5958 41.9415
9.15455 21.9035 38.7506
3.1956 5.22128 13.0438
2.49306 5.57755 12.0496
2.69998 12.1339 37.0207
8.16114 13.9867 42.5005
17.4613 19.2536 20.6446
10.1233 17.3428 29.1131
5.63583 11.2143 23.7186
5.20954 9.74515 17.2536
4.30044 9.46822 22.5304
6.19977 8.79857 14.6535
9.91991 19.5242 37.6605
13.123 28.6565 41.9428
4.57758 8.2531 19.9186
5.55945 12.1741 25.6196
7.43364 13.073 25.5685
2.17564 3.47469 16.0993
7.85502 14.06 31.4671
11.9028 24.6824 35.5067
10.5102 25.9066 40.9004
2.59404 8.88957 25.4168
4.24141 10.62 34.3477
8.63096 6.82975 10.6214
9.52771 18.6649 30.7598
8.27192 15.0459 32.3751
12.0381 24.9194 48.6475
7.18713 8.02208 5.2725
4.70519 12.6097 27.6796
5.13363 8.99098 16.8949
5.84505 16.5841 36.0699
8.51041 13.7249 20.1388
3.71966 13.806 37.113
7.23356 10.0532 23.5876
6.88103 13.6258 18.1887
3.41418 8.52869 16.0609
3.57555 10.6636 27.148
7.15773 14.1454 24.0357
5.09837 13.7567 40.4793
9.0045 17.7959 41.7831
10.8916 18.4756 32.0413
12.4548 21.7516 31.1086
3.11609 6.79524 11.5195
5.03419 19.2987 42.3653
6.95163 19.8305 52.6233
2.76012 5.14031 40.6108
14.2899 20.0071 38.2406
9.71593 19.4236 46.7342
12.9197 16.1631 17.9266
6.08761 14.3949 31.8735
8.07672 15.0339 29.7928
10.1692 22.6128 40.2353
8.18074 18.8829 40.8595
11.0654 18.3155 23.3385
7.30171 24.7745 71.2847
11.1901 17.544 21.4775
3.81751 13.3884 36.2219
7.45386 9.26011 14.3811
7.32253 17.3356 25.3618
6.99955 16.993 26.1915
5.53769 30.8902 94.5767
10.4134 12.496 29.7177
6.39283 9.05793 17.5178
5.53435 13.493 28.3244
3.54359 7.52897 25.3451
9.81666 17.6004 19.7594
1.65813 8.41858 30.4587
5.96461 7.96797 10.7435
4.89036 14.0418 29.5899
5.10328 19.021 54.1496
5.03392 6.06088 21.2676
3.62238 10.4294 58.7431
20.9689 34.4748 44.9124
13.8933 36.7969 59.5307
5.28157 12.128 31.7229
4.66147 5.89403 11.4387
5.36334 12.5401 26.7711
4.49801 10.7871 27.5803
4.819 9.1966 14.8755
1.70729 3.76771 14.8783
6.95484 17.0725 40.5668
9.25865 18.8274 31.5311
5.21391 18.1194 43.1023
6.31095 13.4365 31.2292
4.32442 11.2785 32.3918
8.41539 11.3844 16.1815
2.08264 7.8732 25.1722
4.62912 8.1265 19.0032
3.92185 8.32889 30.4048
4.97593 4.96873 11.2095
10.347 31.3719 70.07
11.2338 16.8155 36.5806
15.475 36.3773 51.3905
4.82595 16.7978 33.3468
1.5612 7.21026 30.0846
5.58776 15.4083 43.4886
7.02944 15.5692 39.0656
5.54709 12.7321 34.1845
7.94432 14.4741 19.0944
1.7947 7.61547 37.3849
9.12907 17.9381 26.3533
4.63116 12.342 27.8467
4.71131 13.6174 38.175
4.35112 6.91028 20.3089
2.5374 9.03555 46.8305
13.6594 22.5008 31.9035
5.33017 10.8009 22.2589
7.11037 19.3977 41.2519
10.0551 20.6263 39.5397
4.59959 10.4233 25.8641
10.8882 36.7854 99.7944
15.1743 28.268 62.2254
7.28258 14.0152 27.9533
1.71302 2.79011 21.0356
9.19661 17.8325 18.158
2.73032 14.4053 46.4941
8.61208 17.857 29.024
4.08584 14.0957 38.1241
4.10388 4.95765 15.7626
4.60622 9.96589 19.0195
3.02976 8.07262 29.8589
4.82801 11.627 33.0268
9.85296 26.4213 48.2714
4.98051 20.4598 78.1687
11.9858 16.3254 24.0447
3.204 10.3551 39.0022
7.07735 11.7134 18.4189
2.96457 10.2972 33.5471
