# pn-170911/RbIIR-52-RbIIR-1280-1959.psd
# Power spectrum* (dif=0,1,2) (really just |FT|^2)
# NOTE: only the first half! (symmetric)
# weeks: 1280-1959
# 3868 clock-days, 34 excluded
# PSD: 1441
603.996 0.0979164 0.0384082
45466.5 1.13188 0.0301931
134089 2.53832 0.0290177
38642.7 1.31269 0.029863
50258.4 3.52776 0.0297598
13688.9 1.18117 0.029906
11026.6 1.48021 0.0297471
6319.29 1.15776 0.0311006
7969.95 2.06463 0.029356
4159.66 1.17846 0.0301551
3581.1 1.30229 0.0301606
2806.94 1.20503 0.030693
2627.28 1.38466 0.031844
2024.16 1.25569 0.0308559
1843.58 1.38864 0.0306742
1583.85 1.31501 0.0312716
1554.67 1.48494 0.0318709
1308.19 1.37555 0.0320745
1201.67 1.46021 0.0317377
1080.36 1.48828 0.0328727
1004.78 1.55877 0.03337
953.457 1.60225 0.0330695
873.644 1.61959 0.0335626
807.794 1.65203 0.0338428
797.055 1.75324 0.0344393
728.351 1.80012 0.0342487
680.839 1.81394 0.035118
648.113 1.90401 0.0363288
622 1.9185 0.0370325
590.233 1.96331 0.0374546
571.607 2.05832 0.0388719
551.029 2.09977 0.0389025
525.023 2.17986 0.0409877
522.361 2.33958 0.0429388
505.495 2.39238 0.043437
496.896 2.49435 0.0446835
478.349 2.51444 0.0444239
456.638 2.59105 0.0475763
455.563 2.74626 0.0500674
444.652 2.8346 0.0506406
423.537 2.80232 0.0508173
412.219 2.89304 0.0542209
413.316 3.05879 0.056625
411.961 3.18958 0.0590941
406.34 3.30904 0.0601845
387.176 3.31096 0.0623036
379.921 3.40074 0.0639272
388.8 3.66201 0.0687719
382.751 3.80754 0.0712556
364.417 3.78461 0.075287
367.016 3.95863 0.0774726
359.023 4.07928 0.0807245
358.438 4.28749 0.085374
368.269 4.46804 0.0892787
350.498 4.45354 0.0931541
351.66 4.65847 0.0996927
337.316 4.6206 0.100519
339.237 4.77058 0.104445
333.839 5.00599 0.109839
340.258 5.18322 0.115805
332.839 5.26873 0.117979
330.759 5.45535 0.128022
329.416 5.57644 0.133561
318.539 5.64893 0.137248
315.944 5.72689 0.142611
312.269 5.90761 0.152801
316.891 6.13044 0.158941
315.626 6.33846 0.166117
306.559 6.31103 0.168292
310.445 6.6132 0.1815
292.997 6.49193 0.181424
304.746 6.92317 0.197927
301.559 7.0685 0.203752
293.572 7.05529 0.211938
296.419 7.35046 0.223576
290.804 7.41359 0.230954
292.055 7.67101 0.242736
291.126 7.82049 0.248335
287.157 7.83034 0.259976
281.943 7.93605 0.265313
278.375 8.09957 0.276464
283.914 8.37906 0.291799
288.589 8.84375 0.312994
277.082 8.64326 0.313444
276.859 8.866 0.326215
273.778 8.95225 0.334293
269.711 9.13906 0.352788
276.378 9.51028 0.372127
259.779 9.13049 0.371157
269.59 9.72414 0.398146
264.124 9.72079 0.397767
276.961 10.4708 0.440271
262.658 10.1571 0.436672
254.308 9.99629 0.438608
255.761 10.2593 0.462894
262.674 10.7419 0.485853
315.947 13.5315 0.616137
262.137 11.1924 0.535569
256.432 11.3569 0.54784
241.9 10.9251 0.539035
251.758 11.5245 0.582171
253.422 11.8581 0.603304
257.165 12.2705 0.6337
251.845 12.2363 0.649207
246.446 12.1982 0.65885
242.479 12.2655 0.679041
243.904 12.5202 0.699315
236.347 12.4748 0.709829
241.276 12.895 0.7395
240.585 13.1629 0.778405
241.174 13.3143 0.796407
233.81 13.2968 0.807769
229.488 13.2671 0.821915
230.82 13.6515 0.852822
249.515 14.9319 0.940301
233.662 14.2454 0.929295
240.003 14.8849 0.983683
237.022 14.8958 0.992929
226.063 14.5447 0.991934
230.16 15.0615 1.045
233.08 15.4825 1.08556
233.207 15.6268 1.10945
225.283 15.3448 1.11873
220.106 15.4959 1.1362
225.354 16.037 1.1945
224.646 16.2176 1.23904
231.607 16.9413 1.30611
221.606 16.3036 1.27036
222.518 16.7218 1.32399
220.618 16.9525 1.35962
208.564 16.1646 1.32309
219.05 17.3806 1.44303
215.895 17.4502 1.47705
211.935 17.3143 1.4738
210.564 17.3906 1.50846
207.922 17.6425 1.54912
210.335 18.0885 1.60841
201.281 17.4221 1.57665
203.882 17.9434 1.64446
202.876 18.0985 1.68369
206.928 18.6865 1.75513
197.932 18.146 1.72978
201.552 18.7071 1.821
206.264 19.5479 1.92593
211.674 20.1188 1.98962
198.969 19.1588 1.92143
198.159 19.5273 1.99699
201.22 20.146 2.0886
199.803 20.1768 2.11405
197.473 20.2663 2.14717
195.316 20.3419 2.19006
201.413 21.0983 2.30471
190.155 20.1995 2.22445
191.854 20.9964 2.36357
190.378 20.8472 2.37555
194.349 21.6824 2.50205
195.627 21.9397 2.53743
186.216 21.3286 2.51433
188.942 21.6403 2.56723
190.344 22.2402 2.6873
185.843 21.9 2.67264
178.977 21.7126 2.69437
181.703 21.9646 2.7213
182.991 22.4726 2.84638
181.31 22.5988 2.89849
183.985 23.1312 2.98609
178.805 22.8627 3.00211
184.212 23.8723 3.15353
181.583 23.6893 3.1894
179.154 23.6137 3.1794
177.228 23.7238 3.25627
178.641 23.9403 3.30611
176.106 24.0659 3.38414
172.661 23.9523 3.41783
172.618 24.1227 3.44771
171.349 24.3248 3.53274
169.467 24.2867 3.55571
171.523 24.8419 3.69929
173.447 25.1673 3.75905
167.245 24.9045 3.79096
170.552 25.5649 3.90459
161.747 24.4757 3.79573
165.019 25.1847 3.94384
170.612 26.4586 4.20685
162.694 25.3374 4.06178
172.015 27.3077 4.41992
163.716 25.9315 4.21882
163.913 26.3814 4.35838
165.784 26.8935 4.47882
162.644 26.8872 4.55485
160.447 26.682 4.53972
157.064 26.8046 4.66072
196.269 33.3503 5.7547
161.041 27.5831 4.83039
156.273 27.137 4.81228
158.938 27.9894 5.02182
157.771 27.7918 5.01111
154.083 27.6587 5.05947
154.178 27.9741 5.21495
156.172 28.3933 5.30493
152.176 27.9318 5.23457
146.654 27.2066 5.17006
150.97 28.5339 5.50385
153.261 28.9121 5.59148
149.517 28.7219 5.62144
150.793 29.3611 5.82217
150.461 29.3629 5.87386
144.239 28.4092 5.73249
148.238 29.4577 5.97705
146.947 29.641 6.06542
145.504 29.5074 6.0857
143.732 29.6395 6.21003
140.902 29.2779 6.19611
139.728 29.266 6.25033
145.609 30.7859 6.62669
143.941 30.8585 6.76433
140.218 29.9603 6.5209
138.632 30.1216 6.6864
138.05 30.2419 6.75239
140.342 30.9006 6.94124
135.767 30.1701 6.84409
139.383 31.13 7.11221
139.225 31.4347 7.25386
133.965 30.5511 7.1183
134.097 31.0972 7.37019
134.955 31.4153 7.46842
133.413 31.377 7.52733
131.733 31.1444 7.52398
134.507 32.1064 7.80501
133.615 32.1188 7.85403
131.877 31.9563 7.91291
134.563 32.9033 8.20753
129.734 32.2749 8.15194
132.046 33.0047 8.41312
129.672 32.4529 8.2879
128.24 32.531 8.40611
124.504 31.7818 8.25088
125.1 32.2401 8.47489
125.482 32.7725 8.70152
129.038 33.8901 9.03367
126.301 33.3816 8.93837
124.648 32.9091 8.85795
119.482 32.2619 8.88638
122.392 33.2158 9.1943
124.649 33.8648 9.36905
125.244 34.602 9.69858
120.813 33.5361 9.45904
122.784 34.3346 9.77829
122.654 34.4088 9.8841
120.018 33.9181 9.77586
120.16 34.2166 9.91947
119.321 34.4852 10.1231
117.186 34.0091 10.0575
120.141 35.1171 10.416
117.116 34.5727 10.3987
119.318 35.3546 10.652
114.858 34.4339 10.4903
114.998 34.7853 10.6621
114.273 34.4957 10.6313
112.583 34.7485 10.8861
114.643 35.0149 10.9173
115.363 36.1169 11.4692
110.57 34.6462 11.0473
107.931 34.1889 11.0201
113.888 36.1215 11.6242
108.402 34.85 11.3305
110.156 35.8349 11.8201
109.758 35.6614 11.7453
106.287 35.1151 11.7932
109.554 36.1141 12.0867
105.447 34.9248 11.8006
107.168 35.9852 12.232
105.874 35.5472 12.1719
106.234 36.2874 12.5021
106.62 36.4218 12.6387
104.329 36.1436 12.7539
103.127 35.7541 12.5561
104.096 36.2073 12.7966
103.537 36.4039 13.0168
103.735 36.8337 13.2681
104.344 37.3305 13.5005
102.452 36.8779 13.4863
103.19 37.3712 13.7114
100.796 36.6759 13.548
97.9218 36.123 13.5277
100.16 37.1657 14.0043
99.4428 36.9662 13.9265
98.5956 37.3007 14.4582
126.767 47.7352 17.9129
99.2812 37.7167 14.5306
97.9209 37.587 14.6799
98.8596 37.9715 14.7674
94.6105 36.5666 14.4038
96.5274 37.7108 14.8976
94.4264 37.3233 14.9633
92.1367 36.5493 14.6736
93.5785 36.76 14.7426
95.552 38.3949 15.529
91.8026 36.9971 15.0745
92.7327 37.8852 15.7178
93.5637 38.3903 15.9275
92.5239 37.8915 15.7999
93.4893 38.7214 16.2526
91.5286 37.9187 15.8926
90.4198 37.8599 16.1194
90.1171 38.1984 16.3644
90.835 38.4893 16.5253
88.8649 37.8641 16.3812
90.6305 38.758 16.816
86.7996 37.5763 16.4825
88.8723 38.5488 17.0098
87.646 38.1993 16.8508
86.1257 38.2247 17.2458
86.9441 38.5248 17.2874
88.6384 39.5046 17.865
85.8499 38.0667 17.1787
84.2748 38.1688 17.563
87.5573 39.3776 17.977
85.0219 38.8414 18.0499
84.9626 38.8529 18.0465
84.2055 38.6279 18.0777
82.5938 38.0658 17.7799
83.4295 39.4351 18.7651
82.2191 38.7431 18.5988
83.8342 39.4912 18.8084
80.4276 38.6544 18.703
82.7348 39.7136 19.2556
80.849 39.4907 19.5123
82.7641 39.9248 19.5891
79.7889 38.7105 19.1497
81.6788 40.1823 19.9578
80.7259 39.707 19.7184
78.4689 38.6865 19.4192
78.4211 38.906 19.6539
78.81 39.3757 19.9775
79.1605 40.2416 20.6846
76.9577 39.3388 20.3882
78.9478 39.9745 20.5494
76.2578 39.2296 20.3529
74.7384 38.7302 20.3456
75.6857 39.4595 20.7445
75.9948 39.5913 20.8923
74.5112 39.2884 21.0961
77.3014 40.9229 21.8356
73.0946 38.7795 20.8783
76.4797 40.6992 21.966
74.8959 40.4457 22.0493
73.7133 39.5955 21.6567
72.0868 39.2097 21.6711
72.2042 39.3335 21.7737
73.2044 40.2999 22.5065
72.0451 39.6796 22.3043
74.7206 41.4569 23.1832
71.0546 39.5352 22.3152
70.3699 39.2843 22.2429
71.6296 40.3268 22.9755
71.8076 40.769 23.364
71.8963 40.9274 23.6827
68.1182 38.9217 22.7108
69.5412 39.9039 23.2871
69.5778 40.5452 23.9322
70.0811 40.3144 23.628
68.7941 40.4479 23.8911
68.4227 40.1286 23.8255
67.4321 39.728 23.8378
69.2194 40.7395 24.3162
66.2245 39.838 24.1441
66.5205 40.1766 24.5756
67.4978 40.7401 24.9742
65.8525 39.628 24.3053
65.9976 39.911 24.4266
66.5054 41.1198 25.6226
64.1606 39.7594 24.9755
65.9295 40.5616 25.3167
65.7861 40.9782 25.8809
65.3502 40.7548 25.747
63.3252 39.7194 25.3923
63.2156 39.9588 25.6083
63.0479 40.0531 25.8603
63.7931 40.7113 26.3114
63.1095 40.5831 26.3538
62.7766 40.2352 26.1532
60.6421 39.5165 26.1316
62.3149 41.3109 28.1257
80.1674 51.4022 32.6668
60.8311 40.3007 27.1308
61.8733 40.8971 27.5491
62.3794 41.3042 27.6585
62.4095 41.2033 27.5471
59.2995 40.0389 27.4799
60.1453 40.426 27.5843
60.5506 41.1568 28.3343
61.6793 41.4415 28.2971
60.2022 41.009 28.2487
58.9445 40.7037 28.4609
58.1288 39.9446 27.9741
60.2132 41.4954 28.9096
58.7991 40.89 28.8742
57.4652 40.1008 28.4283
58.0615 40.8538 29.097
57.9822 40.8205 29.1921
56.7283 40.1368 28.8056
57.75 41.069 29.4023
54.0519 39.0996 28.7205
56.0233 40.1209 29.3179
56.0346 40.38 29.5095
55.8203 40.4111 29.7357
55.9032 40.5202 29.7167
56.0365 41.088 30.5194
55.39 40.6872 30.2667
53.4154 39.3803 29.4693
54.0725 40.3209 30.2716
53.6523 40.2173 30.607
53.9941 40.0968 30.1969
54.274 40.9072 31.1415
53.6778 40.8194 31.4069
54.0352 41.2577 31.9895
54.3575 40.9776 31.4293
53.8867 41.0336 31.5848
52.3486 40.8168 32.1217
51.9081 40.1094 31.6584
52.2702 40.3271 31.7539
51.7917 40.3498 31.8803
52.3814 40.9568 32.3201
51.6311 40.7687 32.6653
51.959 41.0876 33.0013
53.1835 41.5946 32.8899
50.2385 40.1003 32.3147
49.4477 39.8146 32.4371
50.9423 41.0126 33.3643
50.15 40.3459 32.8967
49.75 40.4674 33.185
49.3554 40.2792 33.4058
48.1102 39.0729 32.3828
48.7641 39.9868 33.2128
48.6861 40.44 34.0152
49.3811 40.4309 33.4902
47.2115 39.3953 33.2794
47.5966 39.9896 33.9952
49.2939 41.3308 35.0444
47.2243 39.9462 34.3988
47.6002 40.072 34.3348
47.5889 40.0326 34.1791
47.4461 40.5696 35.3144
48.9297 41.9077 36.0624
46.6229 40.4629 35.6164
47.5666 40.6642 35.248
45.8911 39.9924 35.4001
46.9616 41.0062 36.1302
46.457 40.8055 36.4276
47.7905 41.6724 36.8778
45.7618 40.1645 35.8908
45.7141 40.2599 36.0004
46.3417 40.9004 36.4994
44.4575 40.1037 36.6592
45.889 40.9672 36.9269
44.0276 39.8018 36.5693
44.6713 40.3404 36.9988
44.9756 40.7164 37.5329
45.087 40.519 37.1108
45.3192 41.5841 38.5383
44.1734 40.0592 37.0658
44.3118 40.7228 37.8379
44.4999 41.2858 38.6114
43.4665 40.5706 38.3962
44.2663 41.2486 38.7878
43.2069 40.2892 38.1264
43.9639 41.6301 39.998
43.5617 40.7358 38.7841
42.9651 40.4027 38.5387
41.5663 39.6477 38.2265
41.7753 39.903 38.6059
41.8226 39.7935 38.1645
41.4707 40.3669 39.6913
42.7635 41.1979 40.2554
41.3497 40.031 39.5025
40.3388 39.0463 38.5351
40.9569 39.9998 39.6363
40.7181 39.8555 39.7116
39.3554 39.1211 40.7419
52.7856 51.6127 49.1625
41.345 41.0375 41.5644
40.16 39.7782 39.8576
40.2774 40.5137 40.9879
39.8598 40.4792 41.668
40.8064 40.7663 41.4978
39.8416 40.0777 41.0041
39.7704 39.9112 40.4847
39.0681 39.8513 41.109
39.5871 40.5754 41.9813
39.1581 40.2461 41.8053
39.3108 40.823 42.6145
38.8963 40.0832 41.9828
38.3395 39.5843 41.4311
38.8092 40.2983 42.2835
37.8427 39.83 42.47
39.1786 41.0087 43.5085
37.9421 39.3635 41.3883
37.1103 39.7322 42.9958
37.8968 40.0579 42.9937
37.5088 39.5954 42.6843
37.9451 40.3676 43.3676
36.6346 39.3267 42.9648
37.6372 40.2453 43.4089
35.9894 38.8416 42.4444
36.095 39.4102 43.5581
36.7477 39.8323 43.6192
36.0297 39.2231 43.3753
36.2686 39.9342 44.6906
36.4555 39.6231 43.5592
35.0662 39.0095 44.0745
35.9898 39.6148 44.0703
34.9309 38.622 43.8686
35.9155 39.8246 44.8952
35.733 39.9328 45.1237
35.6781 39.8303 45.0582
34.9757 39.2658 44.6307
34.9444 39.0806 44.2179
34.2255 39.2036 45.2077
34.3808 38.8393 44.5733
33.9139 39.3183 46.1834
34.8679 39.5796 45.6567
34.0436 38.8719 45.0121
33.7621 39.0296 45.3052
33.4371 38.9683 45.9701
33.7608 38.9092 45.664
33.2909 38.9519 46.0536
33.2041 38.6759 45.7885
33.5375 39.5755 47.446
33.847 39.1029 45.9182
31.7185 37.3474 44.9057
32.4179 38.1399 45.8884
33.7491 40.284 48.5492
32.8577 38.5975 46.2915
33.1341 39.7914 48.099
32.5337 38.6346 46.4606
32.5531 39.8331 49.1312
32.3831 38.8133 47.6731
32.2221 38.661 47.5587
32.0258 38.8057 47.7171
32.3335 39.3817 48.6483
31.9047 38.8324 47.8834
31.66 38.797 48.1891
31.1787 38.1643 47.19
30.5183 37.9419 48.121
31.1146 38.0857 47.5956
31.3847 39.311 49.2038
30.8911 38.4633 48.4952
30.6125 37.9147 48.0534
30.8083 38.6858 48.8963
29.3219 36.5524 46.6588
30.1731 38.2173 48.8952
29.8268 37.8376 48.5031
30.0049 38.2294 48.8038
29.1828 37.3163 48.493
28.8816 36.7424 47.8925
29.5665 37.8258 48.8329
29.642 38.1479 49.9354
30.0898 39.0401 50.9333
30.0248 38.829 50.5367
29.2076 38.2873 50.4108
29.2624 38.303 50.651
28.7828 37.6969 50.2393
29.1195 38.222 50.4094
28.0277 37.0772 50.1542
29.1383 38.5461 51.6101
28.7145 37.8923 50.5007
29.0924 39.3331 53.4231
28.5153 37.8656 51.3527
28.2412 37.0803 50.0467
28.8281 38.94 53.1393
28.7651 38.5556 52.3224
27.8373 37.215 51.0145
27.9315 37.2935 50.6109
27.7779 38.4271 53.574
27.9401 38.7413 56.6946
36.3809 48.7347 63.1915
28.8913 39.5026 54.6514
27.8169 38.1515 53.291
28.0678 38.346 52.9308
27.1373 38.0773 54.2419
27.6036 37.8148 52.6257
25.9819 36.2403 52.0317
27.294 37.5584 52.9665
26.673 36.6307 51.5426
26.822 37.1243 52.3394
26.6741 37.3724 53.1384
27.1083 37.8796 53.2632
25.9346 36.9527 53.1882
26.3043 37.4184 53.4966
25.5808 36.6788 53.428
26.141 37.2089 53.2832
25.2288 35.7772 52.0057
25.6815 37.1346 53.9563
25.3857 36.6216 53.6216
25.7918 37.3413 54.9582
25.2315 35.9787 52.7992
25.5675 37.2557 54.9933
25.7656 37.3815 54.9258
24.7112 35.8395 53.0341
25.2084 36.9675 54.454
24.4539 36.0323 54.0814
24.8193 36.4144 54.0926
24.4124 36.2697 54.9134
24.9579 36.1836 53.7312
24.5265 36.3108 54.1846
24.0236 35.9205 54.316
24.5789 36.8487 55.7073
24.0957 35.9362 55.0795
24.1664 35.9192 54.8959
24.8232 36.7406 54.8512
23.6417 35.5738 54.4273
23.6649 35.6515 54.4283
23.8354 36.5172 56.2853
23.5824 35.6673 55.0556
23.3185 35.4935 54.5797
23.3262 35.5867 55.1445
23.5386 35.9652 54.88
22.7686 35.4638 55.9873
23.051 35.4414 55.8494
23.0798 35.04 54.5777
23.2804 36.0139 55.8106
22.5801 35.6839 56.8813
22.9718 35.8264 56.857
23.3149 36.5578 58.2844
23.3169 36.5183 57.6325
22.5241 35.343 56.7302
22.3355 35.0083 55.6112
21.867 34.455 55.6689
22.5098 35.3641 56.2929
22.7002 36.3878 58.2799
22.0157 35.13 57.4961
22.2751 35.2112 57.1048
21.8661 34.7914 56.7194
22.5915 36.1866 58.4157
22.0688 35.355 57.2983
22.4303 36.606 59.8692
21.6886 34.6389 56.7767
21.6647 34.9687 56.6267
20.8406 34.4605 57.7124
22.0182 35.7835 58.8736
21.691 35.8985 59.9725
21.507 34.8795 58.0196
21.2218 34.5379 57.3648
21.2557 34.9659 57.8752
20.1752 33.53 57.3741
21.3932 35.2921 58.561
20.6077 33.9664 57.3225
20.7801 34.5934 58.3479
21.3006 35.4482 58.9862
20.5247 35.0037 60.3298
20.636 34.0566 58.0248
20.6725 34.767 60.0809
21.7862 36.4796 60.7634
20.3372 34.8439 60.6332
20.9747 35.0552 59.8015
20.5564 35.219 61.0572
20.117 33.5291 57.9237
20.5306 35.0848 60.3009
19.9557 34.1695 59.6923
19.8221 33.5491 58.1406
19.7001 33.7762 58.9675
20.1366 34.7932 60.9764
20.1026 34.7746 60.836
19.8291 33.9928 59.5597
19.317 33.713 59.7653
19.765 34.3309 60.721
19.9587 34.4704 60.2524
18.9488 33.7408 61.4257
19.7972 33.946 59.8903
19.1429 33.6195 60.6624
19.6977 35.9593 69.8161
25.9272 43.4881 69.4794
19.4777 35.314 63.3676
19.1793 34.4463 63.0744
19.3134 34.3935 62.3852
19.0493 33.7127 61.5051
19.2587 33.8075 60.3885
18.6447 33.6402 61.978
19.4826 35.0373 63.3114
18.6211 33.6038 62.0844
18.926 33.8841 61.5324
18.644 33.3095 60.5865
18.5883 33.7805 61.9408
18.5647 33.6392 61.5565
17.8735 32.4631 60.2873
18.2733 33.4238 61.887
18.6129 34.0871 63.0492
17.9341 32.7425 61.5304
18.4562 33.8159 62.7539
18.0815 32.9672 61.4816
17.9765 33.0763 61.9139
18.3519 34.0473 63.0461
17.618 32.9698 62.9819
17.7956 32.6911 61.4515
17.5485 32.9102 62.665
17.9477 33.3921 63.1491
17.4862 32.0727 60.8764
17.4813 32.6236 61.7475
17.5221 33.1272 63.8362
17.5467 32.4809 62.0459
17.6766 33.1157 62.0382
17.0937 32.9553 63.3862
17.0667 32.3075 62.3134
17.3117 32.9159 63.1229
17.2663 33.0677 63.9373
16.8497 32.1686 62.6737
16.8689 32.3164 62.8001
16.5168 31.4434 61.7991
16.7783 32.2383 63.1364
17.0656 32.4561 62.4586
16.5406 32.4166 63.8015
16.4927 31.6376 61.6211
16.5412 33.0171 65.825
16.1769 31.1308 63.2994
17.1617 32.4417 62.9598
16.451 32.2196 63.6481
16.6303 32.4247 63.5901
16.3374 32.08 63.4026
16.0114 31.9064 65.4026
17.0767 33.3338 66.3438
16.2818 31.779 64.2257
16.4298 32.3073 65.0756
16.3815 31.9818 63.3527
15.7403 31.1184 62.0866
15.7048 31.8027 64.7526
16.0754 32.1607 65.2893
16.0454 31.9337 64.8827
16.0413 31.7743 63.9554
15.4064 30.8164 62.4867
15.5946 32.032 65.7696
15.6643 31.736 65.5079
15.7209 31.8236 65.4244
15.361 30.5413 62.807
15.1935 30.6016 63.1382
15.0392 30.4666 64.1301
16.0884 32.968 67.1588
15.6234 31.6195 64.8034
15.2078 31.241 65.3204
15.437 31.519 65.4505
15.4942 31.8544 65.8828
14.8818 30.6664 64.2197
14.8327 30.4941 64.0867
14.8677 30.4264 63.3455
14.7467 30.6068 63.4789
14.4434 30.543 66.1082
15.0084 31.0436 65.766
15.0784 31.3326 66.3549
15.173 31.6876 66.3915
14.4891 30.1697 64.772
14.8973 31.337 66.1928
14.4704 30.4836 66.0351
14.5497 30.4966 65.0923
14.284 29.5527 63.6743
14.7788 31.7496 68.2358
14.6682 30.6182 65.6208
14.3897 30.4779 64.9132
14.1635 30.7038 66.0754
13.8124 29.1965 64.1866
14.3874 31.1827 68.0196
14.5552 30.7059 66.8858
14.2796 30.6825 66.6584
13.8922 29.5817 65.3459
14.0317 29.7437 64.6729
14.0705 30.7555 67.1297
13.8412 29.9176 65.8339
13.6837 29.9486 67.3784
14.2242 31.4997 77.3491
18.8049 38.9882 75.5605
13.8358 30.2302 66.6931
13.6997 30.0914 66.7921
13.6628 29.8273 66.2575
13.6321 30.092 67.1957
13.7121 29.7866 65.6795
13.4345 29.9348 66.7902
13.388 29.2756 65.4531
13.3991 29.8122 67.3687
13.4926 29.4904 66.5777
13.5129 29.6903 65.9949
13.2276 29.5589 66.9065
13.0671 28.847 65.8835
13.5383 30.1845 67.1091
12.9657 29.148 66.1183
12.88 28.9324 66.4726
13.0385 29.5528 68.3691
13.2637 29.3268 66.4822
12.9365 29.4132 68.2892
13.1553 29.107 66.4997
13.1269 29.6594 68.5479
13.4192 29.9878 68.0108
12.736 28.7362 65.9271
12.4125 27.9968 66.2276
12.8202 28.7718 65.7283
12.6661 28.7967 66.0215
12.5167 28.7952 67.2988
12.8313 29.1735 67.3172
12.5903 29.1053 67.6956
12.3462 28.3141 67.361
12.7437 29.045 66.6645
12.1465 28.0967 66.7888
12.5145 29.2488 68.8665
12.1589 27.5273 65.5766
12.56 29.2434 68.7728
12.4208 28.0832 64.9057
11.9629 28.3279 68.218
12.3548 28.142 67.0227
12.3577 28.3259 66.1868
12.1432 28.3149 67.412
12.1452 28.2646 66.8161
12.0887 28.437 67.9409
12.0712 28.113 65.9778
11.8879 28.4164 68.4598
11.8459 27.6136 66.1758
11.854 28.0692 67.3303
11.7933 27.6623 66.7251
11.8999 28.1379 66.6502
11.5059 27.7146 67.8887
11.7767 27.8947 67.82
11.9344 28.0979 66.7795
11.7448 28.702 69.6047
11.6789 27.8252 68.5293
11.7372 27.7598 67.4465
11.4976 27.6099 68.4391
11.8546 28.4413 69.0014
11.4507 27.151 66.4011
11.3294 27.0354 66.526
11.6236 28.3647 68.4872
11.3132 27.5353 68.1188
11.6756 28.5821 70.3938
