# pn-170911/RbIIF-63-RbIIR-1280-1959.psd
# Power spectrum* (dif=0,1,2) (really just |FT|^2)
# NOTE: only the first half! (symmetric)
# weeks: 1280-1959
# 1953 clock-days, 150 excluded
# PSD: 1441
153.145 0.0441671 0.0203274
24939.3 0.523335 0.0112954
123023 2.43014 0.0113866
25094.1 0.92618 0.0114599
37964.5 2.89639 0.0112426
8236.39 0.792726 0.0112555
7173.42 1.06104 0.0114061
4188.31 0.78493 0.01133
3807.05 0.990471 0.0113637
2551.79 0.780653 0.0112622
2416.17 0.908703 0.0119153
1660.86 0.771807 0.0112213
1588.7 0.856894 0.011517
1262.17 0.783732 0.0119616
1151.69 0.866328 0.0117834
949.821 0.833983 0.0118901
931.874 0.908644 0.0119628
804.613 0.891761 0.0128991
702.752 0.889088 0.0125523
627.847 0.876205 0.0127839
595.944 0.936931 0.0133188
580.542 0.974572 0.013096
516.403 0.963506 0.013405
484.662 0.998375 0.0142206
458.803 1.01571 0.0137531
430.689 1.03811 0.0145497
394.762 1.07014 0.0145581
376.984 1.12568 0.0144908
380.821 1.17159 0.0157141
334.459 1.10819 0.0158946
322.968 1.181 0.016203
319.976 1.21744 0.0166073
301.423 1.24794 0.0172734
292.411 1.32439 0.0178099
279.039 1.32636 0.0190161
276.064 1.39619 0.0195096
256.594 1.36151 0.0195297
252.242 1.41324 0.0197841
250.481 1.50728 0.0218817
249.052 1.5301 0.0223835
226.935 1.49336 0.022389
227.713 1.58953 0.0242009
220.647 1.61728 0.0249123
219.383 1.69017 0.0259858
217.008 1.77995 0.0270608
202.76 1.71338 0.0283077
203.845 1.821 0.0304882
199.632 1.86859 0.031235
209.251 2.0555 0.0343678
191.231 1.97928 0.0341084
197.603 2.09888 0.0359097
196.711 2.20079 0.0383927
189.354 2.23401 0.0397878
187.11 2.25966 0.0416187
193.024 2.41279 0.0458451
180.672 2.4122 0.0468681
180.628 2.44397 0.0484028
173.295 2.45404 0.0500477
173.826 2.56551 0.0523275
181.69 2.81602 0.0572331
170.553 2.68637 0.0551046
165.752 2.73112 0.0602591
164.659 2.77746 0.0628925
160.559 2.86757 0.0663587
166.924 3.05277 0.0711234
167.97 3.15826 0.0750274
164.575 3.15383 0.0772561
160.384 3.22862 0.0810761
161.459 3.30163 0.0831611
158.532 3.36069 0.088112
148.652 3.23263 0.0866394
150.381 3.40878 0.0918254
150.231 3.44202 0.0975823
148.505 3.54813 0.101875
140.988 3.48668 0.104161
152.284 3.87873 0.114566
146.985 3.81526 0.117236
146.406 3.90811 0.120376
144.383 3.88982 0.124817
139.213 3.95017 0.129514
136.616 4.00946 0.13503
144.552 4.24582 0.145265
143.602 4.41297 0.152583
140.523 4.35122 0.154972
136.436 4.26286 0.155443
135.801 4.44907 0.165573
141.943 4.76891 0.180897
136.149 4.67132 0.179482
131.974 4.68551 0.184754
137.242 4.93952 0.197527
139.433 5.16142 0.211835
130.809 4.95518 0.206387
133.039 5.11377 0.217578
135.156 5.30469 0.228298
125.857 5.04915 0.221308
130.129 5.28105 0.237345
130.797 5.52115 0.253105
131.61 5.63081 0.264083
130.702 5.71588 0.272472
122.673 5.53782 0.269768
128.405 5.81437 0.28911
122.029 5.66449 0.283535
124.836 5.89635 0.303679
124.329 6.02198 0.315125
123.784 6.05418 0.324562
117.293 5.93376 0.323238
120.28 6.14862 0.34203
116.294 6.16153 0.345085
117.192 6.32387 0.364534
117.482 6.44939 0.380788
121.725 6.66521 0.394457
119.377 6.73101 0.405398
116.245 6.71137 0.409043
118.36 7.0031 0.433606
124.241 7.35421 0.460176
114.891 6.96913 0.451799
113.897 7.10969 0.467657
118.367 7.43872 0.49308
113.766 7.27545 0.493719
112.233 7.3252 0.500709
113.827 7.48619 0.524881
115.774 7.88228 0.558259
108.743 7.43508 0.533978
110.872 7.80825 0.574693
112.569 7.98795 0.594784
110.159 7.91206 0.602491
113.69 8.3085 0.640473
106.177 7.88114 0.613479
106.578 8.15853 0.642707
106.282 8.14789 0.651935
103.701 8.11633 0.661645
104.76 8.27382 0.688765
105.658 8.53524 0.715598
104.444 8.59505 0.727144
103.71 8.54189 0.736457
107.522 9.11333 0.79724
102.878 8.86757 0.786545
103.259 8.8973 0.800097
102.074 8.98642 0.819394
101.811 9.05138 0.841313
106.702 9.62069 0.902902
101.473 9.37555 0.893588
103.604 9.67896 0.940413
98.3286 9.31637 0.918454
101.304 9.63622 0.950288
101.551 9.86584 0.988313
93.3822 9.2073 0.939226
98.9687 9.84663 1.01428
95.8122 9.58063 1.01218
102.236 10.4807 1.11093
96.2656 10.0541 1.08115
97.1037 10.187 1.11245
92.6733 9.96175 1.09174
97.7485 10.5721 1.18754
91.9965 10.088 1.14351
92.8855 10.3821 1.19741
92.5245 10.4055 1.20846
93.0244 10.5695 1.2393
94.6264 10.8792 1.286
97.8583 11.4497 1.38182
94.5056 11.2302 1.37818
87.6296 10.4662 1.29702
90.076 10.8973 1.35068
91.8449 11.2072 1.40951
93.039 11.4802 1.46823
90.5199 11.4237 1.47705
88.6902 11.2956 1.491
87.9588 11.4101 1.50729
87.2298 11.3845 1.5138
90.3439 11.968 1.62627
89.5209 12.0526 1.65067
89.4745 12.0358 1.65788
87.8123 11.993 1.67981
87.7241 12.1978 1.73829
89.2312 12.4134 1.77654
85.4076 12.0412 1.7538
84.444 12.0595 1.75908
87.205 12.533 1.86039
83.0536 12.2296 1.83353
80.9709 12.0211 1.8353
82.4923 12.2569 1.86839
84.0017 12.6144 1.94003
82.1271 12.5472 1.97598
83.3091 12.8828 2.04731
79.505 12.4261 1.98734
83.8168 13.2789 2.15627
82.7509 13.2166 2.17104
82.7086 13.3339 2.19252
80.4475 13.1307 2.20526
83.5289 13.7682 2.31166
79.2062 13.2181 2.2542
79.3956 13.5117 2.3533
80.6925 13.5781 2.34687
79.5785 13.6327 2.37291
78.3401 13.6738 2.44569
77.1763 13.6108 2.42831
79.3002 14.0365 2.54976
75.7674 13.5563 2.4758
77.0626 13.9411 2.57145
75.9368 13.8233 2.58677
75.6172 13.9044 2.6395
76.2857 14.2009 2.6858
76.7825 14.5787 2.83331
76.2834 14.4503 2.79659
75.8226 14.5163 2.81655
75.3962 14.6997 2.91193
77.7123 15.1721 3.03762
71.9829 14.2126 2.86569
76.6258 15.2993 3.09148
72.272 14.4972 2.97231
73.1092 14.9258 3.10161
73.2104 15.0361 3.13245
71.5015 14.9723 3.17825
70.8252 14.791 3.15384
68.9543 14.6847 3.16357
71.291 15.188 3.3049
69.9675 15.024 3.27648
69.5477 15.1525 3.34589
70.2306 15.3132 3.40958
67.4404 14.9647 3.35837
67.6055 15.0267 3.43507
67.7909 15.343 3.52161
70.7274 15.8875 3.65604
65.4131 14.985 3.50284
66.9905 15.5766 3.67854
67.7515 15.6973 3.68426
64.4532 15.0943 3.61834
64.9083 15.4992 3.75388
66.1241 15.7741 3.84113
65.9255 15.927 3.90572
64.8147 15.5061 3.78992
64.5818 16.001 4.01577
65.4983 16.1752 4.07735
67.5879 16.7081 4.2082
64.077 16.0335 4.10822
63.9045 16.2284 4.20476
62.7507 16.0705 4.17729
64.9388 16.7254 4.399
63.7598 16.6245 4.37682
64.0887 16.9159 4.534
64.5341 17.0162 4.58501
62.1884 16.4978 4.464
63.2629 16.887 4.61749
60.2072 16.4138 4.5268
60.7807 16.5117 4.60085
61.99 17.0256 4.77006
58.1522 16.1741 4.57409
60.491 16.7094 4.71312
62.2649 17.5762 5.01148
59.6446 16.9534 4.92508
59.0576 17.0859 5.0092
59.4482 17.3599 5.14849
61.8323 17.9536 5.26936
59.4097 17.3461 5.17673
59.7229 17.5966 5.29258
60.6183 17.9822 5.41013
58.4253 17.5326 5.33649
57.996 17.5837 5.39914
58.5244 17.6908 5.45853
58.3566 18.0402 5.60819
55.9598 17.3061 5.45205
58.0344 18.1645 5.7531
58.3084 18.3173 5.81055
53.7517 17.0762 5.50227
54.5688 17.2845 5.54911
55.6918 18.0054 5.90673
56.1584 18.2822 6.00377
55.2058 18.1243 5.96852
54.9862 18.1525 6.08439
53.8314 17.6011 5.88877
53.576 17.932 6.09869
54.9161 18.205 6.12043
52.4843 17.7689 6.13468
54.2166 18.5355 6.40242
53.4853 18.3485 6.34854
52.051 18.034 6.29912
51.0881 17.8006 6.28551
51.8028 17.8834 6.26545
49.5918 17.4572 6.25874
52.4912 18.6105 6.69742
51.0355 18.1342 6.5186
51.5264 18.6771 6.83667
52.6023 19.1632 7.07224
50.8993 18.6687 6.9329
48.8408 17.9099 6.70351
51.9314 19.099 7.16149
52.0771 19.2926 7.28718
52.4438 19.7983 7.55193
52.4983 19.831 7.55069
49.0269 18.6318 7.21063
48.885 18.7684 7.34269
50.7748 19.4164 7.50893
47.5783 18.5251 7.33608
48.5675 18.9713 7.48741
48.6763 19.0524 7.61723
47.0231 18.5663 7.40422
46.4802 18.5094 7.45281
49.3497 19.9379 8.08841
47.7132 19.2866 7.87053
45.6012 18.6402 7.72374
46.9184 19.0506 7.91894
46.1319 18.8983 7.78768
45.9951 19.0925 8.03207
45.6975 18.9273 7.94878
46.2945 19.6504 8.37778
46.2341 19.5431 8.30568
45.6701 19.3969 8.34861
44.896 19.3118 8.42717
46.1801 19.8624 8.67383
46.8787 20.3317 8.89235
44.9245 19.5611 8.6782
45.2144 19.5293 8.5795
43.1997 19.0454 8.56378
44.4719 19.6533 8.79719
43.0785 19.1269 8.59923
43.2224 19.4566 8.84298
41.0008 18.507 8.58986
43.1691 19.4749 8.93699
42.7714 19.3319 8.87354
41.6687 18.946 8.693
39.4423 18.4141 8.70668
43.1449 20.184 9.49671
43.1448 20.2218 9.56848
41.1127 19.5494 9.43547
40.2417 18.8338 8.8991
38.9779 18.8704 9.17836
40.7309 19.5368 9.45497
39.7163 19.2856 9.53186
42.0459 20.1647 9.81268
39.6101 19.4007 9.64972
41.0941 20.0736 9.90059
39.4166 19.5873 9.82865
39.929 19.5586 9.78216
39.2539 19.5873 9.91999
39.1426 19.4535 9.89516
40.5846 20.5041 10.4674
38.7794 19.8562 10.2569
38.0679 19.234 9.87076
38.8496 20.1313 10.4779
38.3243 20.0131 10.5853
39.0118 20.3402 10.7644
37.4097 19.2974 10.15
37.104 19.4359 10.3045
37.4464 19.8851 10.5839
36.1555 19.3674 10.5134
36.2287 19.1451 10.415
37.526 20.1273 10.9516
37.3557 20.1111 10.9077
35.6499 19.7094 11.0442
37.5449 20.425 11.2989
35.7283 19.6203 10.9547
37.4943 20.4809 11.355
36.7375 20.1708 11.2311
37.1092 20.7895 11.757
36.018 19.9848 11.1891
34.2161 19.4631 11.2336
35.7074 20.0877 11.4271
35.4994 20.5069 12.0508
36.0288 20.321 11.6589
33.96 19.7749 11.6821
35.2279 20.3982 11.902
33.8939 19.7002 11.5766
34.3839 20.2083 12.0185
34.2969 20.0147 11.854
35.3363 21.237 12.8749
35.8595 20.9098 12.3614
35.4118 21.2239 12.7589
34.4863 20.8704 12.747
33.0423 19.9073 12.2112
35.0228 21.2374 12.9742
34.4915 20.7605 12.6799
33.8044 21.0185 13.1169
33.527 20.5494 12.8106
31.6149 19.6447 12.4417
34.4657 21.4989 13.6292
33.051 20.465 12.8901
32.1852 20.2024 12.9155
31.9941 20.0081 12.6562
31.4156 20.0178 12.8415
31.3048 20.1102 13.0822
30.9636 19.7186 12.7569
30.8637 19.8944 12.9894
30.1665 19.5703 12.8934
32.3157 21.2827 14.1109
30.3509 19.9434 13.3693
30.7158 20.0863 13.3874
30.3991 19.7953 13.1874
31.6784 20.8955 13.9803
30.8363 20.6115 13.905
30.7998 20.5698 13.9249
30.9186 21.0128 14.4225
30.167 20.2837 13.9061
29.4998 20.1213 13.9412
29.5469 20.0971 13.8071
30.1973 20.841 14.5911
31.0107 20.9464 14.2442
29.1771 20.5888 14.6128
28.6154 19.748 13.8575
28.4491 19.7406 13.9295
28.2827 20.1524 14.4238
28.4476 19.9207 14.1856
28.4755 20.489 14.8957
28.289 20.0016 14.3099
28.1508 20.3079 14.8681
27.8196 19.9396 14.6269
28.2951 20.3631 14.8712
28.0226 20.3403 14.9895
28.3549 20.4015 14.9289
28.3168 20.889 15.4831
26.5853 19.8486 15.1151
27.0203 19.4873 14.4291
27.946 20.6524 15.3089
26.3815 19.6984 14.9456
27.2607 20.4536 15.5079
27.0695 20.4771 15.6143
26.6458 20.1765 15.4145
25.9546 19.7988 15.425
26.8496 20.2468 15.5637
25.8924 19.7876 15.3129
26.6423 20.7513 16.3096
26.6037 20.7381 16.3881
26.7694 20.787 16.4372
27.1975 20.8676 16.2581
24.9399 19.4724 15.4186
25.4569 20.0501 16.0036
25.2205 19.8429 15.9402
26.2558 20.6181 16.5001
25.4519 20.3234 16.5599
26.4616 20.8313 16.6669
25.4281 20.3395 16.4935
25.3407 20.4462 16.645
25.0257 20.3234 16.7034
24.94 20.4112 16.7855
25.0642 20.6481 17.0954
23.7987 19.3284 16.0885
24.3032 20.327 17.2019
25.4773 21.1894 17.9101
24.8545 20.5198 17.2028
24.4703 20.2889 17.2403
24.5203 20.2291 16.9085
23.4421 20.2059 17.6521
25.0402 20.9435 17.6458
23.8325 20.5334 17.8507
25.0631 21.4363 18.4764
24.5718 21.2069 18.4205
23.3042 20.2112 17.8289
23.859 20.4702 17.9802
23.4265 20.3544 17.9705
23.9457 20.9206 18.5368
23.9708 20.8526 18.2627
23.4222 20.471 18.1458
23.5232 20.7987 18.5861
23.5232 20.8752 18.7644
23.4294 20.7884 18.8258
22.9145 20.0922 17.8566
22.6992 20.5342 18.6263
22.3298 20.3126 18.8012
23.0618 20.628 18.8482
22.8444 20.7119 18.9674
22.0813 19.8611 18.1895
21.9017 20.2826 19.0637
23.0304 20.788 19.0631
22.4745 20.4978 19.0087
21.962 20.3034 18.9059
21.8601 20.6979 19.8836
22.0524 20.2236 18.872
21.716 20.4866 19.3941
21.7236 20.8325 20.1779
22.0538 20.4886 19.6279
22.4062 21.1668 20.1926
21.8969 20.6571 19.6636
21.3658 20.5224 19.8794
21.4914 20.5434 19.7527
20.3304 19.9998 20.1232
22.4689 21.4148 20.7029
21.0271 19.9938 19.6244
21.116 20.2902 19.7926
21.2763 21.0065 20.8447
21.0893 20.4574 20.2073
20.1116 19.6684 19.465
19.9682 19.9264 20.0303
20.6215 20.5332 20.7443
20.1191 19.8362 19.8576
20.6895 21.0109 21.3822
20.4705 20.7405 21.3481
20.1361 20.1166 20.6466
20.1324 20.0566 20.3857
20.1348 20.0644 20.1713
19.6583 20.5132 21.4963
20.5063 20.7411 21.1841
20.3397 21.0513 21.8822
19.7186 20.5462 21.4512
19.4235 20.3444 21.8219
19.94 20.4469 21.5115
20.8684 21.4558 22.0195
18.981 20.2137 21.9537
20.0631 20.7175 21.6755
18.8903 19.9436 21.4075
18.8971 19.6388 20.7946
18.806 20.0937 21.5418
18.3742 19.7175 21.5744
19.1353 20.1252 21.4247
18.4173 20.0109 21.9787
18.8457 20.0928 21.5866
17.8941 19.2723 21.1117
18.709 20.7178 23.1711
18.5211 19.5072 21.035
17.8293 19.7617 22.2728
18.4239 19.6248 21.6401
18.9377 20.813 22.7766
18.7621 21.0115 23.6325
18.5362 20.261 22.3986
17.8406 19.974 22.8053
18.5238 20.2001 22.4141
18.12 20.7043 23.5771
17.6609 19.637 22.2174
17.2629 19.4794 22.3012
17.2849 19.0245 21.6999
17.3369 19.6747 22.5882
17.3195 19.5111 22.0471
16.7035 19.368 22.8439
17.888 20.2533 23.0962
17.1294 19.8313 23.2204
17.3516 20.2222 23.7685
16.8808 19.3203 22.6986
17.9368 20.6573 23.9644
17.0999 19.6732 23.1236
16.6199 19.4257 22.7314
16.3285 19.4842 23.5843
17.0023 19.7313 23.5117
16.0493 18.691 22.2047
15.7054 18.4057 22.2051
17.3627 20.6414 24.4626
16.279 19.1797 23.178
17.0679 20.7467 24.9597
16.4236 19.8087 24.2658
16.5823 20.3456 25.2756
16.7304 19.8966 24.2727
16.6783 19.9493 24.4322
16.8459 20.7143 25.7117
16.3213 19.2992 23.6647
16.3379 20.1165 24.8816
16.0027 19.2848 23.8635
16.1448 20.0877 24.9402
16.0939 19.6943 24.2606
15.2006 19.1307 24.386
15.7705 19.5792 24.6673
15.8357 19.5963 24.7334
15.6284 19.4844 24.6983
15.8056 19.6358 24.5701
15.3683 19.4358 24.8809
15.6185 19.7456 25.101
14.8145 18.5068 23.5324
14.5674 18.7856 24.4571
15.494 19.9394 25.5254
14.8148 19.0484 24.7536
14.2304 18.3962 24.1943
14.5896 18.6248 24.3551
15.159 19.6909 25.6597
14.9979 19.3419 25.5357
15.3068 19.6773 25.4387
14.7225 19.4012 25.7494
14.102 18.2439 24.5056
14.4298 18.9319 24.9666
14.4486 19.4326 26.3
14.6559 19.291 26.0149
14.2858 18.8295 25.2008
13.9731 18.4406 24.91
14.0082 18.8105 25.5551
13.9592 18.3636 25.1147
14.9588 19.9808 26.7141
14.4007 19.3595 26.3956
14.0682 18.9776 26.0645
14.4101 19.5682 26.5715
13.8979 18.9184 26.263
14.4923 19.8652 27.6741
14.3941 19.4405 26.7454
14.8063 20.2642 27.9913
14.7605 20.5312 28.4402
14.2732 19.5584 27.1373
13.8032 18.9709 26.9394
14.0187 19.3214 26.7969
13.2126 18.4515 26.435
13.8765 19.1564 26.821
12.9397 18.2574 26.6705
13.8669 18.9072 26.5323
14.3099 19.8891 27.5272
13.3677 18.9925 27.3098
13.096 18.5513 26.6408
13.6435 19.649 28.3596
13.2173 18.6558 26.7574
12.9841 18.296 26.3638
13.0145 18.7128 27.1751
12.8155 18.1404 26.1603
12.7489 18.5311 27.3721
12.9108 18.5939 27.4942
13.1341 18.5072 26.5054
12.7302 18.5968 27.1802
12.5942 18.4415 27.2758
12.2423 17.7813 26.7158
12.8373 18.6001 27.179
12.3218 18.3082 27.5488
12.8978 19.1757 28.5606
12.699 18.8055 28.3937
12.552 18.2913 27.6395
12.6609 18.8252 28.4114
12.3237 18.0728 27.2019
12.7217 19.0167 28.2952
12.5255 19.0105 29.0715
12.2855 18.5509 28.5541
12.5622 18.372 27.6069
12.0705 18.2567 27.7666
11.6486 17.5724 27.1416
12.0627 18.3292 28.157
11.6822 17.6275 27.4181
12.1317 17.7836 26.392
11.5512 18.0468 28.2729
12.101 18.6764 28.7388
11.2756 17.4099 27.7954
11.7488 17.9602 28.1138
11.3625 17.4773 27.8267
12.2207 19.0186 29.5704
11.9694 18.5545 29.4295
12.0044 18.3563 28.8223
12.1693 18.8829 29.4295
11.9185 18.9049 30.0211
11.7371 18.2325 28.5118
11.3124 18.0935 28.8308
10.6242 16.6962 27.1464
11.2932 18.0899 29.0143
11.2073 17.7027 28.5625
11.4168 18.4471 29.8724
11.1802 17.6777 28.5161
10.7551 17.3971 28.8874
11.649 18.3851 29.3026
11.1767 18.1068 29.4762
11.4674 18.8214 31.3209
11.6691 18.125 28.8117
10.9825 18.1513 29.4104
10.2669 16.8305 28.5935
10.7047 17.216 28.6582
11.044 18.4222 31.0288
11.5073 18.7393 31.0652
11.2172 18.0778 29.3504
10.6406 17.5569 29.3125
10.5574 17.5386 29.5596
10.9109 18.02 29.4675
10.2144 17.2034 29.2481
10.4985 17.4632 29.096
10.1798 17.5597 30.2526
10.6295 18.0802 31.139
10.4395 17.1753 29.731
10.8918 18.3268 31.1337
10.844 18.2159 30.6858
10.2165 17.4378 30.6598
10.9129 18.1203 30.3983
10.5603 18.2069 31.5756
10.4735 17.6292 30.5581
10.7188 18.207 31.0362
10.3909 18.0679 31.5713
10.2189 17.6782 31.4794
10.2972 16.9419 28.8447
10.0075 17.4929 30.7077
10.3209 17.822 30.948
10.0419 17.4507 30.8518
10.3642 17.9769 31.0742
10.0958 18.1224 32.7685
10.478 18.0684 31.763
10.0849 17.7583 31.7754
9.92242 17.4001 31.1929
10.0283 17.461 30.9058
9.93798 17.63 31.8561
10.1132 17.4057 30.8169
10.3558 18.5641 32.9027
10.0522 17.9177 32.1168
9.78778 17.7348 32.0533
9.50505 16.9403 31.3312
9.76335 17.2363 30.8013
9.36964 16.9622 31.2279
9.72266 17.5198 32.2738
9.80897 17.5972 32.179
9.87736 17.8064 32.4064
9.66249 17.2826 31.5362
9.77139 17.4804 31.449
9.29548 17.0754 31.6057
9.25765 16.6364 30.9479
9.42323 16.865 30.7175
9.58881 18.1564 33.9695
9.29458 16.8413 31.7694
9.63171 17.656 32.1376
9.07327 16.8912 32.1614
9.16296 16.6064 30.8596
9.03568 16.7548 31.0007
8.79333 16.8125 32.5697
9.19791 16.9708 32.1565
9.0301 16.7393 32.2873
9.30563 16.9876 32.042
9.27746 17.1557 31.9334
9.14084 17.2146 32.038
8.84228 17.1544 33.6473
9.08817 16.8393 32.469
9.14777 16.9543 31.5862
8.55247 16.3949 32.0342
9.03373 17.2374 32.9697
8.85872 16.5805 31.7701
8.92752 17.363 32.9402
8.41952 15.9295 30.7171
8.29313 16.4157 32.4913
8.3707 16.0476 31.5789
8.4694 16.1797 32.0274
8.81546 16.7587 32.1865
8.5003 16.7053 33.3393
8.44229 16.0067 31.4321
8.77112 17.5118 34.7321
8.72011 16.9076 33.8032
8.75751 16.5085 32.4965
8.66768 16.9252 33.4098
8.48295 16.5313 32.8557
8.57604 16.7744 33.4282
8.56282 16.9926 34.1167
8.45762 16.4748 32.8455
8.34811 16.5492 33.8961
8.59455 16.5597 33.0062
8.47439 16.6796 32.7269
8.19299 16.4956 32.6342
7.66246 15.637 33.3305
8.47627 16.4256 32.9308
8.58874 17.1051 33.756
8.24802 16.7507 33.866
8.03867 16.2251 32.9685
7.99842 16.0817 32.3247
7.74183 16.0181 33.7138
8.19478 16.5328 33.6645
7.90645 15.7414 32.5324
7.97529 16.2323 33.4901
7.82123 16.0871 34.3033
8.26818 16.5413 33.6162
7.94577 16.2554 33.8117
7.79708 15.9451 33.846
7.84587 15.8016 32.9933
8.06692 16.491 33.7374
7.78935 16.0437 33.4786
7.76033 15.936 33.5758
7.88078 16.2698 33.9349
7.64892 15.551 32.0329
7.31655 15.4797 33.2148
7.60015 15.6453 33.4718
8.01209 16.648 34.0023
7.41577 15.9205 33.8751
7.49151 15.7231 33.2659
7.6953 16.3174 34.7227
7.39208 15.3921 33.0199
7.45493 15.7476 33.5539
7.18793 15.3585 34.3685
7.87669 16.3976 34.7654
7.63815 16.1058 34.0525
7.17397 14.9844 32.0183
7.39318 16.0955 34.1229
7.12477 15.4006 33.814
7.09284 15.093 33.1176
7.45643 16.0151 34.5725
7.25519 15.698 34.2924
7.29095 15.5907 34.3862
7.32872 15.6271 33.6945
7.11584 15.6639 34.7166
7.38449 16.0154 35.1005
7.22268 15.5113 34.4348
7.26736 15.3749 33.2778
7.05854 15.7473 35.0274
7.16371 15.6124 34.4232
7.03517 15.4777 34.1994
6.71945 14.7095 33.4906
7.09045 15.5159 34.581
7.22171 15.6844 34.1492
7.03079 15.6001 34.2288
6.72297 14.9421 33.574
6.77504 15.2854 35.2407
7.17436 16.0176 36.49
7.26299 16.0472 35.4445
6.83977 15.0006 34.2608
6.92318 15.359 35.011
7.04712 15.5171 34.6115
6.65049 14.6187 32.7208
6.60102 15.1138 34.7071
6.54248 14.3067 32.2822
6.63197 15.3062 34.8048
6.67769 15.0479 34.2447
6.47486 14.5547 33.8033
6.79808 15.4694 35.5621
6.81576 15.3228 34.4151
6.47701 15.2638 35.7991
6.5497 14.4225 33.2677
6.69363 15.5613 35.5429
6.50104 14.4935 33.2897
6.57241 15.5365 36.3932
6.65561 15.2246 35.3093
6.33574 14.4591 34.2063
6.56875 15.472 37.4772
7.11649 15.8488 35.361
6.4295 15.193 36.9104
6.7593 15.1994 35.2997
6.32269 14.1733 33.2948
6.5026 15.2967 35.4338
6.4723 15.0291 34.7328
6.12442 14.6325 35.567
6.42962 14.7817 35.3004
6.53737 14.905 35.1614
6.44365 15.0154 34.4695
5.96977 14.1496 34.6092
6.38452 15.0655 35.4443
5.94382 13.7017 32.7804
5.99434 14.5738 35.9339
6.38719 14.8318 34.7744
6.11163 14.4422 34.4556
6.17359 14.8727 36.037
6.14515 14.3404 34.752
6.20547 14.9271 36.6174
6.3696 14.8542 35.3536
6.10331 14.6028 35.4177
6.16341 14.8746 36.0394
6.22677 15.114 37.2421
6.30789 15.0269 36.473
6.08378 14.6639 37.0634
6.38502 15.2904 37.4187
6.28665 14.9965 37.0684
