# pn-170911/RbIIA-26-PTBB-1280-1959.psd
# Power spectrum* (dif=0,1,2) (really just |FT|^2)
# NOTE: only the first half! (symmetric)
# weeks: 1280-1959
# 3 clock-days, 4 excluded
# PSD: 1441
8167.38 0.434687 0.00488341
273411 4.43883 0.0014863
1.23017e+06 21.6192 0.00107073
216795 8.10927 0.00214035
92433.8 5.72487 0.0018809
70309.9 6.90886 0.00319035
32617.2 6.40838 0.00354306
20489 2.72791 0.0021641
13480.8 2.71881 0.00190918
8041.96 2.08741 0.000980752
13593.3 5.6889 0.00379435
9777.93 2.80546 0.00350532
3895.26 3.26509 0.00566831
9065.47 6.66007 0.00361292
3764.03 7.37513 0.0105601
15658.9 10.5362 0.0114963
3545.43 8.64398 0.00957876
3462.77 2.64063 0.00687812
4845.58 3.81281 0.00941018
2827.48 2.96224 0.0040038
1839.86 1.07347 0.0059117
2108.32 8.17406 0.0219128
2871.53 7.39631 0.0251663
787.658 2.53731 0.00769186
1500.98 2.66897 0.00858358
596.327 2.41428 0.00676462
1606.36 4.75954 0.0171636
2177.5 6.31784 0.0260978
697.393 1.18067 0.00272991
1119.78 1.65848 0.00332349
1491.83 3.61326 0.0124731
2200.24 5.61526 0.0305979
723.152 0.73647 0.0038472
2721.65 6.47766 0.0349247
2428.29 6.69815 0.0366867
1209.87 3.71122 0.0301342
673.357 2.19993 0.018061
1127.14 5.203 0.0352977
658.611 2.82549 0.0247088
556.723 4.53675 0.0404212
313.483 1.90241 0.00992672
190.237 1.37026 0.013506
1199.82 3.64388 0.0354986
645.615 5.90561 0.0571007
520.388 2.82222 0.0343631
962.724 5.19333 0.0361137
421.699 6.4042 0.0713278
1413.44 8.68691 0.07388
528.024 2.80491 0.0315742
624.616 5.43481 0.0697762
428.384 2.67787 0.0410089
531.685 2.62396 0.0363395
713.216 5.26309 0.0738845
311.209 2.64436 0.0271966
674.662 9.1418 0.133919
462.611 6.14313 0.107714
160.376 2.51552 0.030186
536.564 4.45323 0.0747792
617.639 7.10783 0.112883
478.251 7.02327 0.108266
290.79 4.73907 0.0749283
318.793 4.30528 0.0590945
465.728 6.79854 0.124554
420.628 3.98254 0.0773103
324.341 3.60784 0.0869401
240.488 4.71561 0.106951
105.132 2.59157 0.0682687
152.698 4.6532 0.0920668
543.776 8.71867 0.196789
501.27 6.64156 0.12861
502.956 5.5646 0.125547
129.781 5.3485 0.115444
389.039 5.39342 0.117823
257.956 2.57167 0.0757699
85.8422 4.24351 0.117488
116.685 3.69745 0.0908659
95.2351 3.78036 0.12085
154.821 0.985051 0.0222516
386.099 7.00686 0.220098
250.015 6.52334 0.193835
115.693 6.30166 0.190565
135.512 3.78146 0.137935
296.119 3.74311 0.12754
152.629 4.64934 0.165563
555.244 13.8224 0.45529
265.118 6.81739 0.238863
367.971 6.63936 0.240449
95.5328 2.21932 0.0920905
65.946 4.06481 0.173157
255.049 4.6346 0.164054
83.589 2.76136 0.124861
198.337 5.31353 0.232446
111.388 4.4452 0.20256
184.467 2.73506 0.101022
89.1262 2.45479 0.0986963
104.169 4.11747 0.171028
317.216 7.47264 0.283889
118.224 3.25509 0.155905
125.359 2.91274 0.122332
185.098 3.88704 0.185595
121.745 3.58049 0.155611
122.843 2.41119 0.10844
33.0732 2.02473 0.0982102
91.8366 2.49678 0.136957
266.252 9.42017 0.488962
255.464 9.97238 0.550403
137.989 8.72885 0.491607
122.357 4.20813 0.221918
119.749 3.77058 0.224134
48.1224 3.05297 0.192459
143.564 8.36568 0.505208
120.174 7.67556 0.439351
212.513 8.86468 0.556625
112.675 2.19648 0.102318
173.093 8.32061 0.515526
138.303 7.69649 0.56975
168.809 7.49593 0.415127
112.864 6.22216 0.354782
98.6552 5.85408 0.398619
123.42 2.8529 0.200975
72.8166 4.61684 0.305028
26.2575 1.83515 0.123801
130.493 7.39364 0.505185
38.8909 5.82139 0.423034
73.0262 5.60404 0.457214
116.157 6.19501 0.444805
68.9596 8.77828 0.661709
17.8069 1.58165 0.159823
66.9743 5.627 0.49039
46.6516 1.48138 0.126494
50.3926 2.03391 0.154206
94.6137 4.17635 0.307434
61.6516 4.47267 0.358665
81.4749 6.98612 0.630763
84.8429 2.24356 0.159116
182.558 11.933 0.969815
108.612 3.84286 0.349127
93.2006 4.44921 0.386641
81.7828 3.40228 0.278028
55.3347 1.16684 0.0983816
174.164 10.7333 1.08916
96.1238 6.56574 0.628716
84.6042 5.12782 0.476083
149.775 9.70353 0.866316
45.2477 5.24305 0.525336
35.212 3.14631 0.403113
206.768 22.9985 2.30014
96.317 8.56717 0.831535
59.4686 5.57169 0.684938
131.714 8.0716 0.822347
27.8339 3.36332 0.483497
90.7113 9.4901 0.926702
34.5863 2.97539 0.287121
62.453 3.40834 0.317178
43.167 5.3788 0.654729
76.2477 4.67242 0.436154
117.1 7.81796 0.893443
62.2482 5.05358 0.5346
59.1913 2.1778 0.25179
114.27 10.2808 1.26883
46.9306 3.22468 0.419049
32.0962 2.57327 0.263501
24.9328 0.417831 0.0727662
68.7992 4.88538 0.556476
30.543 3.57623 0.514003
49.3624 5.29588 0.712466
42.4102 2.34163 0.295024
41.8734 3.41378 0.430996
35.5341 3.94117 0.564465
35.5658 2.10326 0.253857
18.6744 1.55175 0.21305
48.4528 4.8881 0.691432
61.0509 6.44982 0.879894
44.3696 5.01031 0.731247
9.40581 1.04397 0.0937186
68.1991 7.94894 1.09409
21.9115 2.11994 0.278942
44.3831 11.4845 1.65439
14.1605 1.40951 0.214472
27.519 2.03243 0.294747
11.672 3.90828 0.589162
7.06993 5.24442 0.908875
16.3061 2.7796 0.550139
59.7968 3.69682 0.513884
72.8056 7.05687 1.11878
41.2145 7.68826 1.24656
11.9465 3.56982 0.637418
20.9695 5.94714 1.1214
40.8022 2.58698 0.471726
58.2484 8.43354 1.5139
111.406 8.47404 1.15732
56.4146 6.87884 1.16413
102.563 7.03987 0.933862
157.435 16.8586 2.851
116.178 11.9601 2.21597
21.6603 2.41136 0.617604
59.6381 8.31275 1.51919
61.4508 9.68283 1.60268
82.0175 12.3363 2.13508
70.9726 13.0437 2.58689
48.2592 5.73629 0.963031
19.8814 2.79634 0.594401
15.8887 2.63449 0.53478
101.921 10.1169 1.9261
24.6856 3.95218 1.19339
74.7304 16.7884 2.89699
91.6097 11.1214 1.8517
85.0736 17.6794 3.63778
15.4283 3.31463 0.886027
105.393 12.6911 2.44853
26.5767 2.61188 0.627075
71.5621 8.45971 1.31381
111.237 16.9731 3.33792
64.2979 11.3153 2.7121
31.2843 6.89955 1.83486
38.7497 4.39488 0.776179
24.4512 5.99907 1.4803
47.8087 6.53721 1.2397
99.4772 15.897 3.65663
69.313 8.94734 2.18319
18.23 7.76933 1.74022
75.9914 12.8856 3.03076
85.7391 14.3001 3.30093
11.2885 0.619799 0.181493
36.5968 6.53806 1.47135
8.30715 1.88745 0.479772
45.0033 7.06331 1.94939
24.973 4.32151 0.906638
75.3025 14.3913 3.624
16.5812 3.76275 0.899275
19.1479 2.12967 0.511338
45.0053 8.41003 2.22127
46.5401 5.88507 1.72178
22.1866 5.76179 1.86614
30.4036 8.77711 2.0603
71.1027 11.6187 2.60402
8.26682 2.47198 0.591421
45.7433 9.5749 2.39019
36.058 8.60219 2.36305
60.1291 11.4531 3.21919
12.3237 4.43684 0.940866
20.3143 6.09891 1.64376
16.3594 5.75816 1.2549
23.316 7.87115 2.19213
27.867 6.7501 1.72271
11.585 10.0796 3.08897
25.7293 4.43035 1.75048
64.1469 15.7418 4.04055
23.5306 3.88805 1.10841
27.9148 5.80726 1.69613
13.4777 3.75201 1.07869
37.9061 5.08307 1.42827
16.0385 2.91154 1.12089
25.4196 6.05867 1.7611
38.8981 11.0082 3.15113
15.927 2.34859 0.630367
10.8918 5.61318 1.78051
20.315 3.94134 1.2938
20.3899 6.36369 2.20452
35.1588 7.78479 2.0276
32.1193 7.38849 2.52137
32.3374 4.65472 1.13911
38.5258 8.70885 2.91454
40.9465 10.4374 3.31879
26.1036 4.0522 1.23792
12.5494 5.08353 1.67944
38.3332 7.46405 2.7905
112.171 24.9439 7.38953
29.7935 8.57209 3.19414
16.8974 4.41877 1.50815
14.2836 5.03253 2.18802
47.5422 12.2324 4.45251
19.6609 7.03442 2.46016
11.746 5.66722 1.8803
20.706 6.02483 1.65953
4.75036 1.23203 0.427782
34.2533 12.0768 3.58817
28.7174 9.68917 3.92141
15.3535 3.58909 1.45267
47.2868 11.7617 3.90915
20.0334 3.88967 1.53201
19.741 10.6211 3.31078
14.3268 11.0927 4.46721
28.5459 7.63014 3.06934
45.4934 11.2882 3.76439
39.1634 7.8658 3.27642
14.471 7.96772 2.8552
23.8592 5.66338 2.02921
24.5243 5.4992 2.33822
8.62297 2.94451 1.78784
42.8007 13.0014 4.57282
17.9641 11.3516 3.84848
27.8414 10.4399 4.13309
10.3765 1.69972 1.26816
13.3508 7.60987 2.63003
15.0985 10.1356 4.72317
19.8436 6.12414 2.92272
38.2713 6.27188 1.93483
13.7416 5.00474 1.70141
2.59753 3.38863 1.95564
34.8604 7.45253 2.11129
27.6097 13.8395 5.78911
63.5889 26.318 11.547
46.7857 10.8969 4.10378
17.8404 3.22277 1.57469
37.0195 13.1203 5.44317
3.70479 2.52116 2.17004
73.8359 21.6675 8.098
15.6044 5.66436 2.85052
13.6184 5.0496 2.72662
5.25251 1.54128 1.30367
11.4123 5.82253 1.88338
12.2765 6.01921 2.50796
6.00931 4.10022 2.33535
18.3377 3.3094 1.36944
22.3329 10.6773 4.77791
14.7225 7.24037 2.98513
6.13443 7.92401 3.81106
29.1529 10.4425 3.9502
8.0982 5.62631 3.03192
15.5498 8.02163 3.48104
7.60147 1.45717 0.546497
14.0456 4.19518 2.10651
5.02817 0.690469 0.563059
10.3338 3.06762 1.41675
8.60357 2.45638 1.08303
8.05906 3.63968 1.56673
13.8657 10.2444 5.00592
5.84279 6.91908 3.3972
12.0946 6.7957 3.33674
22.5764 5.60392 2.81045
4.43331 1.68689 0.780094
8.92013 4.98205 2.91957
22.7082 7.2472 3.4975
23.3801 6.08198 3.71854
8.45336 6.16443 2.35188
11.1503 3.92277 2.85287
12.5395 6.5922 2.67158
9.98529 9.95862 4.69578
15.879 6.66792 3.58373
19.1087 9.46706 5.55814
25.8366 13.697 7.55862
10.8571 3.5768 1.18079
6.61766 8.02609 4.4728
15.561 4.31514 2.22089
20.4782 12.9 9.22136
7.92097 1.83805 1.12623
22.7055 9.16895 5.7948
30.3613 9.50782 3.78193
43.544 20.5866 9.25011
40.0056 15.2733 7.97866
8.07455 7.10814 4.57959
19.3538 5.73099 3.02209
22.0006 7.81243 4.4646
8.36671 7.14233 4.56971
8.26368 5.97309 5.45797
13.4799 5.74532 1.45687
17.6094 15.0422 7.50288
20.1223 13.0058 7.77001
6.00084 2.44324 2.25426
16.4538 5.05842 3.17449
12.1438 5.24206 3.27144
12.3883 3.60509 1.77395
16.1836 8.48924 4.93562
3.54536 2.14243 1.95771
3.44247 3.48478 2.53905
11.3062 3.9898 2.09288
2.65795 0.858915 0.947506
21.194 15.7415 10.173
22.1459 5.77615 3.14403
2.90396 1.79966 0.847451
11.2451 7.36037 4.77606
8.20247 1.66038 0.95597
7.34309 1.55781 0.748561
10.5972 8.90775 6.84622
11.098 4.26781 2.32423
16.8013 13.0184 8.03447
34.1822 17.396 12.5389
22.8067 13.1533 7.39624
7.67927 4.3274 2.94619
7.59357 2.57812 2.67528
15.4163 5.37456 2.08745
14.7649 13.5239 11.1971
17.0154 5.57024 1.8505
11.0914 3.92914 2.43057
6.11459 9.81064 8.07164
18.9848 7.66263 3.18639
13.313 9.42722 6.82411
10.9957 6.7758 6.29332
17.7149 5.2304 2.31627
15.8625 5.30153 3.3003
8.12781 3.72343 2.42348
4.39776 4.78085 3.1345
6.57725 6.66963 6.86554
30.6745 11.4874 5.31541
15.2777 7.33819 4.87381
7.75377 4.99882 5.30195
17.8279 7.70669 5.17968
30.5546 16.1897 10.0582
6.17388 2.00722 1.02373
10.7571 2.81813 1.74635
4.09226 0.296497 0.234318
6.70797 3.92626 3.36033
5.89203 2.13005 1.08939
4.7545 3.32813 3.69493
26.865 7.98152 3.78977
10.4307 2.98814 1.81918
11.804 4.44651 3.61924
10.6307 3.80465 2.57765
5.79655 3.03985 2.33344
9.69549 5.20857 3.84225
3.13346 2.051 1.75082
8.84047 4.89974 3.58173
7.45991 2.6056 2.36695
7.47062 5.16423 4.36548
7.43313 1.60379 0.852784
5.0417 2.08015 1.42687
14.3582 7.02865 6.85624
34.4165 18.3931 11.7478
19.7306 12.6955 9.95447
14.0195 6.36303 3.48968
15.5963 9.79563 8.05694
6.23747 4.04414 3.75281
3.321 1.59198 1.40562
7.29151 3.66759 4.15989
4.69331 2.56551 1.5692
10.2773 6.16072 4.94121
3.5956 3.95479 3.94569
7.51082 3.6602 3.07578
5.15305 3.39092 5.3943
9.827 4.60038 1.68477
8.67175 6.04598 6.1267
18.593 8.62611 5.21894
12.6917 5.77324 5.03269
8.04624 7.11814 7.08515
8.7781 2.62169 3.29062
10.4844 6.60038 4.50908
6.65649 5.75824 4.2317
11.5378 10.8579 8.14072
9.95236 4.10837 2.72408
3.00339 4.76956 4.16601
11.1847 5.39892 4.08348
17.6415 11.4953 9.63477
4.7014 4.49114 5.21002
12.9666 6.08569 5.59595
2.79011 3.35881 2.28231
2.21188 6.19349 6.61209
8.47542 5.50655 4.49447
12.8254 4.92211 3.84142
19.9629 14.2542 13.1048
7.70349 5.78762 6.01288
4.50447 3.64765 2.24175
5.44727 6.46288 5.45707
7.00011 7.77689 8.11109
8.13144 3.53893 5.23808
12.1419 7.36135 7.21263
8.63647 9.50256 7.579
1.81178 2.3959 3.33696
7.48094 7.31405 4.65878
3.94999 2.07541 1.93052
6.15745 3.71778 3.93006
6.58181 11.3121 9.05647
2.42143 1.49568 2.43993
9.77919 5.05258 4.6542
2.29458 1.72402 1.9034
6.68857 5.35821 4.82202
7.32809 2.75693 1.7985
9.94373 8.10022 8.32612
11.518 6.77302 6.21088
4.18078 3.19726 4.57643
10.3732 8.31242 6.17695
0.751275 3.77526 3.81722
6.38465 2.97374 4.48492
8.66779 9.44607 9.06642
10.024 4.59343 4.05781
6.55452 9.5324 11.8142
6.23742 2.58509 2.77647
9.03925 5.70946 3.69551
5.96488 3.84995 2.71498
7.10182 6.24015 6.44305
7.49677 7.11427 5.23453
6.6476 6.27039 7.51193
12.8207 7.31201 7.90035
8.26694 6.94963 6.9021
3.62898 5.5492 4.73741
2.28608 1.75479 3.2239
6.32169 3.13957 1.92665
5.22456 3.87354 6.12059
4.9884 6.03345 4.85557
5.87828 3.96816 2.87366
1.95071 5.85777 6.17189
5.27545 2.89035 3.43972
9.44753 5.12973 4.89636
7.08601 5.86406 7.86225
7.76272 3.99479 4.384
8.53679 7.32345 6.53697
9.74715 9.96712 8.88551
6.9279 10.151 14.9109
8.45804 7.09219 5.03969
3.16584 2.53275 3.73656
10.7344 5.60803 5.51977
7.42319 5.07076 6.51998
7.71066 5.0602 3.69594
1.27965 2.05646 3.36597
11.1292 13.7804 14.2365
3.11683 2.70707 4.95919
3.91155 6.60556 9.49297
13.5376 8.50839 12.7871
19.3139 17.4917 15.6307
10.7084 3.59631 1.34564
9.69263 9.54254 10.5549
2.72729 2.47194 3.31213
4.2964 3.34668 4.15456
10.4873 6.31836 6.4162
1.69747 2.71442 4.4245
9.67258 9.95783 10.3262
10.827 6.53955 7.0743
11.5865 9.59115 8.94294
0.239751 2.81509 4.09195
11.0176 13.989 18.9009
20.0735 16.2653 17.4877
5.45726 3.29281 3.97137
4.84357 4.22826 3.27822
3.05432 8.16426 10.7847
6.60672 1.5116 1.20113
5.63335 2.87987 2.9091
4.89774 5.96617 8.07975
12.2175 11.6609 14.5709
6.5824 2.71843 1.46793
8.88704 6.47826 9.36544
15.4101 9.99533 9.93394
10.3264 9.52002 8.42156
1.49509 2.96834 3.46016
3.48332 5.54517 7.77585
6.8893 4.09811 7.40041
10.0192 9.54247 9.5365
4.12448 2.86216 6.4396
6.82229 11.177 12.0668
14.8136 11.6934 11.6468
5.75958 3.35896 4.77912
1.66206 1.5938 3.88191
8.94297 13.3712 18.9712
14.613 15.8708 16.8709
10.3952 8.79214 10.1074
3.85433 5.6424 7.40367
5.25649 5.7554 6.25082
2.35907 1.612 3.02643
2.98076 3.09426 6.85755
7.46488 10.4639 11.6758
5.93627 5.84147 6.23991
1.20583 2.45616 3.08201
3.50821 7.4353 12.5542
6.22023 8.44233 9.47359
8.81451 10.0249 13.4808
3.3896 2.0511 3.16955
11.445 9.62896 10.0834
6.0619 7.22828 9.12579
13.3361 19.9002 27.242
2.88831 3.08471 3.61625
5.70077 4.35901 5.55004
3.90625 6.57452 7.14861
1.89892 1.66065 1.2868
0.983841 2.78982 4.20599
5.08747 5.1871 9.28838
4.34818 5.99271 5.9473
3.01387 3.48981 4.18639
7.15704 10.6444 9.21532
1.61439 8.23775 8.4605
1.16865 9.11705 15.8711
8.68983 10.4157 16.7972
8.88478 3.53554 3.15133
4.70272 6.22145 10.1905
4.47207 2.07202 5.23695
8.27856 10.0043 10.9509
3.94245 2.93533 7.15432
12.5716 16.396 21.7551
1.60213 2.21911 7.08535
10.8806 8.21158 10.7705
4.99218 9.42828 16.575
11.1363 6.38728 2.82534
1.96545 3.43883 6.8882
8.00722 7.73772 8.8271
8.38466 11.5469 16.1839
3.94111 4.84211 9.36679
8.15773 3.53973 1.9786
4.77096 4.88705 6.00893
2.14612 2.05476 3.76332
7.56667 3.36315 2.11223
5.4655 5.60215 9.18045
6.12339 6.12894 5.78658
6.88848 11.2202 15.7493
1.75481 1.01402 2.14517
6.16332 9.9512 17.3507
1.15593 2.80921 9.02681
6.09359 5.4 6.88596
4.3631 6.74368 9.02185
9.2388 6.44742 6.48894
7.38364 8.58878 16.8087
4.46758 8.53028 9.50568
5.64641 6.75661 11.3564
5.07975 10.0714 18.5086
9.98141 5.41039 8.0607
3.99615 3.4393 6.07599
8.54346 8.4307 13.6405
7.36707 7.85437 6.93462
2.8135 3.50928 7.57876
1.14244 0.729673 0.470967
1.86579 7.66907 13.3816
3.95832 2.45545 5.28056
8.72822 6.83914 6.9351
8.24502 8.96422 9.2456
7.12242 9.86268 13.2192
1.87376 6.19255 9.28092
7.00364 9.90818 21.5256
10.6879 8.59398 7.1736
4.80779 6.37097 13.2013
1.01911 4.1081 6.13383
5.10433 5.89995 8.9301
2.44392 2.51849 5.36353
4.99711 2.97191 4.91264
6.11715 8.58114 16.4133
6.30139 8.02388 7.63947
1.06177 3.11762 5.46717
2.64898 7.61545 13.699
2.80387 4.05374 7.68312
8.43263 6.30069 4.53753
2.25231 6.47881 9.9456
7.39812 14.8375 26.0436
13.5626 17.0168 29.2677
2.84757 2.55747 4.77123
3.76906 1.83302 5.16076
5.81873 7.47951 12.4145
2.84021 4.25444 5.863
4.02026 6.43707 8.12913
1.28521 4.04085 9.30059
4.21504 4.16223 10.0233
4.11676 2.82272 7.81139
11.0818 9.39498 15.1674
3.92482 6.0266 11.8698
11.4016 7.51361 5.26751
4.26433 3.62666 4.18433
8.44116 9.93041 18.9367
5.12276 6.10141 8.77001
3.55639 1.59805 4.49299
6.87062 10.3362 15.6258
11.2361 10.9024 15.0024
4.13013 8.5764 24.2743
9.30748 7.23502 9.34854
5.83689 7.30289 13.1347
6.59046 5.29164 5.79665
3.74928 6.74103 12.4297
9.58964 10.1848 10.5006
2.90263 6.19616 8.20773
5.26346 3.18808 1.65291
7.1651 12.3642 18.6049
2.07548 5.27005 6.98637
1.52083 3.66162 10.287
5.08448 1.99962 1.89768
3.75022 4.0525 9.08055
7.0386 5.4379 5.7918
8.32599 11.998 16.8715
4.88923 8.25243 20.6939
5.70778 6.99002 11.7411
0.831842 3.91592 13.461
1.84078 3.46772 10.0563
5.62594 3.35969 2.9467
7.07526 8.6965 11.9423
3.03511 3.93257 7.93627
3.62 5.29678 9.49999
4.86815 7.51173 9.34008
1.86307 5.55989 12.7369
8.64804 10.7913 21.421
3.5257 3.10003 2.76319
6.2521 9.81425 19.4573
7.3414 7.8296 12.1466
3.8448 10.9258 17.2027
3.53152 4.013 12.0602
3.43518 6.45372 7.63364
1.41372 3.83121 10.1877
7.99276 8.37185 10.4908
1.80362 2.98303 12.3338
4.5174 4.66717 5.9357
5.34639 5.26753 11.966
3.84282 5.7284 7.75821
3.83847 5.81642 6.22022
1.19632 2.12592 5.87882
3.83376 6.58659 13.4842
9.10249 7.54037 8.59296
4.19098 10.293 22.4392
5.24777 9.54646 16.718
1.66437 3.05274 10.625
6.30402 10.3462 22.2704
5.0215 4.99678 3.41926
4.58873 6.29194 15.7497
1.96582 5.37628 8.5818
8.00079 9.54556 22.5399
9.16236 18.9712 27.9942
1.88463 2.94522 13.9752
6.52534 9.22 11.4843
0.461093 1.69334 3.15233
4.24911 6.89069 15.228
2.87804 8.33221 21.2772
4.27296 3.4331 2.31666
2.76447 5.87268 12.4773
5.15612 8.51518 14.3226
5.39478 14.4869 29.196
6.65883 4.62263 3.86626
1.30235 4.47807 18.4362
11.8828 21.4516 31.8987
8.22702 11.5491 27.9661
3.76281 8.14153 15.9547
3.06757 5.29672 22.7505
9.54889 12.5628 9.27539
4.07843 6.17403 15.9981
2.9826 6.62643 13.7532
3.089 4.84015 6.20456
2.98154 4.38117 8.65927
1.92127 6.5919 9.79652
2.79002 6.96703 21.6016
5.94538 3.64283 5.53303
3.2438 7.95349 10.7565
2.84699 7.16793 21.1394
5.0209 7.07443 7.75772
0.781531 3.56692 9.1788
5.2965 2.66385 2.35076
5.45456 11.6689 25.954
1.92184 1.9834 10.5168
3.036 5.01977 3.99253
2.26782 3.43578 9.11586
1.71523 2.69024 7.15068
2.15939 4.53635 9.48892
1.39752 4.14819 12.9907
5.63466 13.1802 16.6503
1.80862 5.43915 12.3764
4.23191 2.92522 4.25993
1.7268 2.51625 9.19711
4.70814 6.393 10.4293
1.37762 4.85727 11.9372
7.57699 16.0259 32.6032
5.21366 5.12451 10.3578
1.16754 3.58748 7.03138
0.342355 1.58621 8.05934
4.44928 11.5551 15.2928
2.1775 6.26905 17.619
5.40719 5.90135 16.6388
4.69389 12.3199 16.3303
3.24375 4.75131 11.6497
1.14508 1.59198 5.09696
1.10959 0.923249 3.01771
1.92972 3.62942 6.30982
0.844769 6.015 26.081
7.10357 5.38126 3.33044
2.78611 6.80037 13.1329
2.84887 0.861016 4.15453
4.072 10.645 29.4287
8.90869 8.41406 11.5839
3.28544 5.41265 12.4261
3.64735 3.2024 8.44064
4.46776 4.00992 6.30357
1.88357 2.40547 5.93592
0.173651 2.97928 7.10619
2.32455 2.9725 6.18068
3.9477 7.06894 16.0053
5.14023 9.00394 23.841
3.636 1.47828 9.0318
9.2335 15.5238 18.4146
4.86964 12.1163 31.2939
2.79896 6.94274 10.2479
0.823134 1.72817 6.90478
1.15902 5.55675 22.8681
6.1021 3.44496 2.2481
1.09009 1.81533 7.02936
3.87189 8.74417 21.5967
5.42339 8.1788 21.7922
7.86711 11.708 12.7406
1.78493 6.63455 21.4147
4.65036 6.28271 12.2008
3.99296 2.56446 3.4106
2.08143 1.39334 2.1066
3.31595 5.83732 14.3952
1.6151 3.90777 8.52785
1.39179 2.8618 13.2869
3.35048 3.23322 9.23109
4.99285 9.96696 26.6232
2.59582 3.34995 6.37737
2.89544 9.92238 16.6439
3.00318 2.29561 8.52746
3.45374 5.76 9.1827
1.26161 3.91004 14.7536
2.83698 2.25289 10.9906
2.55961 6.04086 15.6134
5.57177 3.51627 4.541
3.80971 2.84653 7.13481
3.55251 6.93499 21.5788
5.60006 8.96988 12.0784
7.56935 15.9887 25.6756
1.94383 4.16654 19.8082
6.45736 11.5904 21.1818
3.21655 2.64569 11.3224
2.22425 5.76971 12.0489
3.25047 4.27779 6.78141
3.04846 3.74866 4.60996
0.807516 6.68782 38.8865
14.7735 14.2673 13.9209
5.96519 12.1361 21.7013
2.41657 3.34492 5.08248
2.78852 9.14283 33.9498
5.30858 6.81637 7.69974
2.47349 7.46954 22.1129
5.94239 7.18287 17.3374
5.50627 8.33747 29.3479
5.21877 4.93995 7.83911
5.52527 13.9182 27.71
4.08591 11.5162 20.4279
2.14648 5.02104 14.6885
4.46321 12.4193 30.1507
5.24501 6.0677 14.0025
2.03479 4.59681 11.3847
1.42564 4.0524 6.21206
1.46476 3.86121 17.4397
3.07871 5.26328 11.787
2.00956 5.65739 14.5395
3.82156 4.08327 9.70845
2.5833 13.21 33.7419
6.71889 5.28657 3.3975
