# pn-170911/RbIIR-59-USNO-1280-1959.psd
# Power spectrum* (dif=0,1,2) (really just |FT|^2)
# NOTE: only the first half! (symmetric)
# weeks: 1280-1959
# 11 clock-days, 0 excluded
# PSD: 1441
291.465 0.0875497 0.0185003
6682.81 0.111485 0.0252444
40295.6 0.767764 0.019759
16274.1 0.803443 0.0191375
23321.2 1.76477 0.0224847
6139.51 0.81574 0.0146086
3285.24 0.667491 0.0233245
2628.33 0.58817 0.021808
2127.09 0.925476 0.0190692
1563.17 0.522258 0.0224155
1109.75 0.441645 0.018981
783.189 0.510808 0.0241858
1151.85 0.676867 0.02175
706.28 0.73409 0.0119461
724.788 0.662124 0.0264867
614.966 0.698317 0.0192557
564.032 0.627133 0.025165
269.734 0.511049 0.0239657
475.13 0.673573 0.019565
437.206 0.73375 0.0295089
504.416 0.939992 0.0177241
617.625 1.28548 0.0251138
407.124 0.915037 0.022103
313.526 0.835168 0.0214192
407.625 1.15926 0.0334362
153.851 0.567829 0.0239673
248.292 0.924511 0.020954
305.177 0.88657 0.0299769
276.971 1.06631 0.016067
317.618 1.1851 0.027544
133.453 0.717229 0.0209704
217.206 0.993587 0.0167683
266.619 1.33786 0.0268531
351.177 1.59012 0.0186424
181.382 1.09085 0.0268457
250.517 1.34901 0.028308
152.857 1.0416 0.0171879
253.073 1.72604 0.0413934
168.195 1.40496 0.0267201
177.384 1.19284 0.0353238
133.468 1.06065 0.0302461
192.457 1.40485 0.0307985
283.288 2.13046 0.0459564
232.152 1.89549 0.0386979
336.639 3.04752 0.0557625
145.607 1.71413 0.038139
163.38 1.85976 0.0387602
126.748 1.49098 0.0436646
178.74 2.03381 0.0308187
175.122 1.7728 0.0518774
156.254 1.63991 0.0517842
167.909 2.24813 0.0371443
240.317 3.38577 0.0696179
165.292 2.52209 0.0565029
94.9136 1.24636 0.0357101
173.288 2.2846 0.0562156
228.344 3.40907 0.0698008
179.471 2.8196 0.0601584
107.377 1.81382 0.0480328
105.325 1.87694 0.0455081
151.814 2.42916 0.0801994
179.956 3.25812 0.0742829
207.114 3.39527 0.0690821
241.613 4.63856 0.0739505
178.25 3.49446 0.066834
292.26 5.99916 0.130717
110.042 2.67792 0.0701369
239.449 5.23905 0.147564
177.241 4.11226 0.113696
175.406 4.12079 0.097181
123.367 2.95322 0.102803
306.049 6.93974 0.138593
244.494 5.32314 0.139529
123.275 3.19363 0.115873
180.855 5.02391 0.164393
161.437 4.22647 0.151579
176.413 4.43018 0.149443
231.694 6.65783 0.190954
150.396 4.33957 0.15537
168.48 4.92078 0.168258
105.773 2.95943 0.155378
126.806 3.64264 0.102714
261.603 8.50123 0.30207
130.411 4.19128 0.161142
229.344 7.6748 0.292256
134.571 4.75886 0.221756
175.493 6.14594 0.230992
134.187 5.07691 0.207339
125.252 4.65573 0.234738
113.273 4.728 0.241599
99.5046 4.2359 0.213634
195.321 7.92656 0.368016
194.499 7.23501 0.305475
95.7419 3.53915 0.200666
169.064 7.05305 0.301767
241.367 10.141 0.512937
182.776 7.87312 0.399368
195.12 9.23156 0.492195
135.354 6.24807 0.278531
174.227 8.03358 0.358754
218.28 10.701 0.504907
179.664 8.75103 0.46832
83.2717 3.9212 0.145999
271.868 13.392 0.654008
200.994 10.1998 0.634199
68.2519 3.35926 0.187407
188.557 10.0416 0.552549
67.5649 3.55077 0.230268
201.701 11.1219 0.640923
113.351 5.68866 0.371465
171.38 9.65224 0.552732
104.962 5.72919 0.356367
146.11 9.23595 0.630175
119.975 7.13582 0.434002
117.815 7.27497 0.516704
99.4328 5.65587 0.343976
212.346 13.471 0.819737
198.435 13.1358 0.841405
275.465 18.1615 1.23486
103.766 6.69652 0.518227
178.063 11.4803 0.799822
120.481 9.04203 0.667342
239.416 16.8095 1.16541
184.374 12.7804 0.857964
203.483 13.8649 1.01557
159.584 11.6367 0.954158
126.269 9.58159 0.780707
196.134 14.6502 1.06552
122.607 10.284 0.780595
130.194 10.2763 0.915782
128.527 9.4762 0.797065
116.464 9.16932 0.779052
120.23 9.49914 0.824252
91.0603 7.43186 0.721545
124.46 10.6359 0.895912
130.733 11.3021 0.989444
93.9031 7.66037 0.5589
71.0617 6.36446 0.620477
95.4036 8.58035 0.822662
161.647 14.0959 1.28085
113.433 10.5645 1.03312
87.7483 8.13653 0.749596
98.6035 9.52661 0.887649
103.583 10.8301 1.10007
215.518 21.5152 2.02689
138.691 14.2928 1.55186
128.433 11.9061 1.21701
151.709 16.3354 1.63026
99.1442 10.4047 1.05422
143.159 15.9559 1.67074
77.5384 10.3565 1.27431
143.411 14.938 1.48821
158.625 16.7157 1.88028
145.765 15.6929 1.72485
94.6399 11.9439 1.50141
111.172 12.31 1.39104
133.072 14.9111 1.74361
100.345 11.3837 1.29372
54.6245 6.83922 0.898042
108.305 13.7257 1.79038
105.482 12.169 1.4057
164.998 20.8679 2.84374
102.074 12.4107 1.53659
88.0916 9.7959 1.183
89.6692 10.6302 1.32928
120.596 14.9573 1.87214
107.236 13.7435 1.63277
64.6299 9.4409 1.4651
87.2035 11.8993 1.53022
100.515 13.415 1.97656
136.546 17.997 2.45017
95.1898 13.1069 1.8461
80.7459 11.3853 1.56942
133.775 19.4262 2.85499
99.0862 14.9273 2.40081
83.7941 10.589 1.55993
155.095 22.5113 3.16105
89.6638 12.4521 1.84798
69.4165 9.81542 1.59126
179.376 24.5603 3.23916
119.467 18.2779 3.04658
144.733 22.3351 3.23733
132.024 20.719 3.06723
107.863 16.6386 2.70248
102.332 17.1616 2.73612
104.988 16.8558 2.79123
128.506 18.0451 2.56091
130.626 21.9994 3.45832
105.777 19.3993 3.44915
92.85 15.0748 2.34483
76.5431 12.6657 2.27163
61.7831 12.0223 2.28547
136.571 22.6975 3.75302
128.968 22.3501 3.95702
64.8682 10.6719 1.78508
79.2772 14.5425 2.55123
68.4252 11.9196 2.20093
90.8578 15.8658 2.72472
76.5502 14.6843 2.79333
78.583 14.5775 2.5989
104.381 19.9704 3.6986
103.818 20.9708 4.13918
86.4825 14.9249 2.7204
117.372 23.0376 4.6009
71.3702 14.9149 3.21058
76.2774 14.9106 3.05247
48.5516 8.12085 1.27749
72.023 13.5052 2.61339
83.1581 17.7887 3.65109
115.428 25.544 5.44633
86.1781 15.9662 2.96049
64.8139 14.2648 2.90672
95.2349 21.0236 4.56679
121.345 25.2518 5.31442
38.3917 8.6558 2.06618
72.3541 15.1194 2.91869
85.428 19.8569 4.55391
91.6966 18.822 3.89945
79.8637 19.7507 5.00322
105.243 22.6635 4.8497
66.9236 15.56 3.75254
110.93 24.2858 5.27034
74.1466 17.3241 3.73466
124.391 29.8649 7.21318
85.8527 20.5079 4.68463
50.8326 12.1772 3.20795
118.504 28.7268 7.0975
74.9198 16.4166 3.76938
56.2513 14.7969 3.8756
63.0722 14.5651 3.4791
73.0499 17.8858 4.48905
73.4953 18.1189 4.30942
62.9506 16.0838 4.11135
81.1696 20.4292 5.3607
62.0169 16.7954 4.53575
82.2383 19.9482 4.97424
66.1967 18.1965 4.60476
96.1902 25.094 6.38076
67.3556 18.3123 5.18564
55.4091 13.8518 3.78997
103.509 28.4201 7.8688
64.0679 15.4237 4.04362
73.9781 20.4585 5.20081
47.4925 13.6679 4.11626
56.6724 15.6038 4.19781
93.835 24.4633 6.07429
60.4245 18.9008 5.52636
82.5561 23.3249 6.38884
109.928 30.1205 8.07983
63.3555 20.2372 6.55405
92.2229 25.8061 7.16773
59.7398 17.6275 5.44593
137.788 39.9615 11.8474
86.6231 25.1692 7.37781
82.2017 27.0466 8.96947
55.576 16.3237 5.01497
92.7445 26.9434 8.14649
88.3028 23.0987 6.18338
60.7156 17.4263 5.01867
62.3083 20.9546 7.15519
93.5224 30.2233 9.46917
65.5326 20.1547 6.36779
87.0555 27.0186 7.81854
40.475 12.5329 4.10114
70.7134 25.6406 8.84643
87.9775 27.5313 8.33498
49.9908 15.6423 5.11068
43.0184 14.8376 5.66726
53.3467 16.9302 5.13285
68.2261 21.9342 7.04062
61.3196 21.3222 6.89415
68.5682 24.8283 8.85781
71.8311 26.675 9.76806
63.3634 20.0958 6.45347
40.1264 14.4472 5.34318
50.6622 19.0689 7.10497
38.7121 14.3244 5.29282
88.6651 33.9021 12.2786
70.0174 22.1159 7.42115
34.1051 10.4276 3.43354
82.8552 31.1437 11.6976
100.179 35.7477 12.7122
84.445 31.5336 11.5311
68.9288 23.4971 7.9082
54.4931 20.7746 8.08468
36.3228 13.4902 5.26644
31.2828 14.7938 7.76715
78.943 26.3234 9.64627
121.436 45.7093 15.6802
37.9814 14.669 6.11951
85.9526 31.3261 10.6487
54.9496 20.5237 7.96981
64.3879 25.3824 9.73201
74.2434 34.3585 14.9266
32.7252 11.109 4.50289
53.9288 22.9784 9.95427
71.8278 27.7603 10.1357
30.1845 12.4841 5.39215
53.1968 18.9986 7.38473
80.5472 32.0227 12.7603
42.2055 19.7839 9.06973
38.888 15.0826 6.41946
40.6301 16.7398 7.30087
40.7784 16.67 7.4343
49.7304 20.0954 8.00836
48.4423 18.7811 7.65908
60.0767 27.7799 12.9614
32.9024 15.2568 7.68278
47.8293 18.0398 6.89944
32.9489 14.5469 5.99653
67.7788 31.0582 14.0955
46.7409 23.1228 11.4211
27.3229 10.0267 3.94083
23.7666 14.0398 8.61378
67.2485 25.3074 10.0879
82.9431 36.7094 14.5543
30.7599 17.6189 9.92932
65.4206 25.343 10.2317
60.1311 26.424 12.1435
47.1616 20.8594 9.497
59.7526 27.3905 12.0771
56.7238 26.7135 11.5636
45.7852 23.3983 11.2908
29.3403 13.7591 6.33561
25.2736 13.512 7.26439
54.3214 28.588 14.7094
57.3027 29.561 14.9752
45.2847 20.3088 9.35832
62.7151 32.9132 17.187
50.7225 22.7665 10.4295
54.1897 26.6901 12.3377
60.7049 31.3143 15.2688
44.0773 20.5279 9.50472
39.4591 19.9364 10.3253
47.2772 26.7835 14.261
31.7356 15.9796 7.89263
29.1671 17.9386 10.4627
27.5184 12.22 6.11192
31.5612 15.5144 7.87609
42.5694 22.888 12.0526
28.0779 14.7625 8.31463
49.8367 25.2308 11.7461
28.9592 16.1395 8.6757
38.1538 22.1589 12.2887
32.0882 18.0908 10.4136
36.3891 17.8016 9.0153
41.8713 26.1273 16.1571
42.7559 20.668 9.9002
21.6505 12.4911 8.12837
68.813 37.2801 19.5023
43.4621 26.8609 17.2249
49.1611 23.6359 12.5548
34.2782 16.6686 8.71964
53.3163 27.7395 13.4189
28.5793 20.0617 13.5953
47.8373 25.9816 12.7901
31.5169 25.9249 18.9649
35.5213 14.898 7.53423
40.8058 19.4907 8.9868
38.7581 21.1916 10.5693
38.9742 26.8327 17.4845
27.3035 15.8451 9.45449
29.2321 18.4745 12.194
40.8667 21.7734 12.301
48.1575 30.0748 18.3901
42.3097 24.0534 14.4177
41.8012 21.859 12.0152
36.141 23.2844 14.9917
48.1433 28.1365 16.5633
18.8411 11.5688 7.81568
24.5889 16.7409 11.503
27.2787 16.4412 10.8043
42.6389 23.1322 12.8705
39.5903 23.2359 13.4528
41.9295 28.0479 17.7282
33.9833 23.4711 16.5127
41.2967 23.7328 14.2996
43.4791 28.1938 18.0581
29.2816 18.3238 12.6576
41.6097 23.0911 12.2755
37.7555 23.8298 14.4003
35.1924 23.8301 15.8941
29.5678 18.5441 11.8436
37.9087 25.7378 17.8544
37.0346 25.4015 17.5163
54.9556 34.5998 20.7751
39.4208 28.026 18.768
13.1121 10.7405 9.77699
44.5397 28.1144 17.37
17.6353 10.6419 7.50536
23.0024 15.1321 9.49175
15.7444 10.9704 8.25177
33.8926 23.3087 14.6844
21.2574 15.8688 11.6698
35.8109 27.5958 21.1897
40.2519 26.8653 18.6936
31.4617 17.9493 10.8429
16.4388 11.5432 8.45336
22.1541 13.2961 7.80872
29.3187 20.9674 13.4403
44.1729 34.7257 25.6325
40.5495 30.0634 21.0101
21.8759 17.6413 13.7745
41.1573 30.7704 22.4764
22.9786 22.797 20.5709
27.4259 18.296 15.3818
40.1167 23.693 12.9893
28.0659 24.5938 20.1221
36.1747 26.2662 18.7751
21.5886 16.5813 13.8495
36.4912 27.2763 21.9737
44.9544 32.0761 22.3402
41.4135 36.0542 29.6386
41.6225 25.6719 15.9101
32.7003 24.2725 17.2416
29.0114 22.8313 18.4188
29.1594 22.58 16.1225
14.4341 13.3616 12.3907
29.4816 20.6571 14.1372
20.9337 17.6785 12.9323
6.81024 6.96023 7.55123
21.1899 16.7075 14.5304
32.0654 25.2503 19.9092
36.3835 25.9113 18.7999
46.3116 37.3237 28.0668
32.377 28.9365 24.6642
40.7342 30.3038 21.3106
20.0853 18.6553 17.1668
36.0285 32.0743 28.1341
22.7823 16.0562 12.107
9.18052 7.63934 7.99749
16.3363 13.755 12.1143
28.5457 25.1149 21.9153
29.2454 21.3257 16.1402
23.423 18.8295 15.4043
13.5322 11.5574 11.6746
26.2496 18.0482 11.0321
25.4063 24.5649 21.1363
36.482 30.5731 24.2455
18.5779 16.4294 13.8928
13.1694 14.2073 15.079
18.4335 16.2392 14.9629
17.1118 16.6292 17.7769
28.3436 22.3163 19.3999
28.3373 22.7337 19.4942
34.9137 28.0626 20.9909
18.8877 18.6035 18.8515
27.1268 24.069 20.9201
26.8596 20.9421 16.6902
25.9776 23.2624 19.4586
28.0821 27.8935 25.8405
22.5001 20.181 18.801
18.4267 15.589 14.3594
23.4989 20.883 18.6131
22.0153 19.5045 18.407
17.7565 14.9771 13.9271
22.1864 19.8726 20.153
29.4315 25.3516 22.7498
25.2379 20.6493 16.8405
20.5233 18.4777 17.4011
29.5647 28.4726 25.3786
25.4962 26.0519 26.1616
20.4624 14.5715 11.5578
23.9902 24.4496 24.9056
41.698 35.9529 28.4299
26.7757 26.0568 23.1651
24.6376 28.6588 32.5683
30.448 21.3779 13.4797
21.2732 24.3569 22.36
17.1842 19.768 20.8979
14.6761 16.4063 19.622
29.5157 25.9871 24.4672
26.5058 23.8792 21.287
35.4135 37.984 38.1708
31.645 28.0243 23.997
27.3871 27.1643 25.7621
23.6976 23.5915 23.3422
23.8215 24.3219 23.4351
22.0344 25.3613 26.0821
13.3304 16.8277 24.1088
28.9518 19.8684 13.9228
29.608 32.6768 33.0179
20.0886 22.2405 24.6664
16.0852 16.6012 21.874
37.025 32.0003 26.7739
36.9446 41.06 38.9777
20.5817 20.9451 21.9166
20.2359 25.3668 30.5333
24.5637 22.8094 22.4709
24.9287 31.0814 39.2467
44.5893 40.6344 35.9933
15.6392 23.0903 39.0172
80.9954 78.4501 66.0543
31.349 36.0591 37.4799
12.5258 12.5942 13.4127
10.533 16.8746 27.5028
30.565 25.7631 21.8914
16.3929 17.3144 18.2945
19.5341 22.1745 22.4716
16.2489 19.5026 22.9663
23.8842 23.3549 20.6081
12.9166 20.4678 31.229
20.4314 15.0328 12.0872
12.7469 12.7411 12.5359
16.1986 22.2336 28.2694
17.7202 17.969 18.3831
12.1136 17.4172 25.9707
23.4413 22.918 25.1545
20.2529 15.8174 14.8325
18.9732 20.4024 21.9477
16.6072 16.6777 18.4044
28.7109 30.5123 30.7483
15.5397 19.2031 23.3909
20.191 24.4325 29.7025
34.1408 35.7956 34.4397
20.2117 26.8606 31.0007
18.1486 21.6476 28.2709
23.4115 24.436 23.3596
10.8833 20.12 32.3002
18.2176 17.529 23.091
21.8777 19.8485 20.4098
26.1685 26.8557 24.0089
18.6039 27.8687 38.5103
19.3811 16.3827 15.1543
19.6759 25.0053 30.6789
20.9821 21.7965 21.2351
20.6529 28.4981 35.49
20.6305 23.4414 26.7323
23.8185 29.3706 32.3758
17.8316 23.4234 27.8078
17.3785 23.1036 30.1358
21.7315 29.4468 38.4171
20.1421 21.4999 25.4124
13.0695 15.9264 21.5848
21.0934 27.0435 33.9864
16.0646 14.1589 15.3175
24.3689 32.0407 40.0207
15.3016 14.7244 19.5232
21.0856 20.6496 17.3324
13.3746 18.1011 19.794
12.2231 17.6593 23.9179
14.0141 16.8062 17.6495
12.8359 21.8166 34.0821
22.8845 28.6425 39.9482
28.7764 28.4123 27.332
8.21684 12.4678 23.304
27.3662 30.4802 32.5408
33.7922 47.0583 57.5575
21.6462 23.1078 26.4134
21.5238 29.8329 40.252
18.7252 21.8004 27.1774
13.1231 12.8956 13.578
17.1127 24.1185 32.3009
21.9679 27.8454 31.3114
11.4564 16.067 21.5848
13.1199 15.2967 19.95
12.8852 16.8956 21.7319
12.7175 17.3041 24.0411
16.4626 23.035 30.3215
8.07271 9.00272 16.5308
18.8181 21.4465 22.6845
22.2711 32.4634 39.1861
19.26 30.5828 45.9172
26.2684 34.6848 46.0195
20.88 26.9574 37.5014
22.2058 25.2343 27.4342
8.49114 12.2037 21.6846
22.2554 30.7674 36.7258
14.1814 16.5755 20.2622
20.0451 27.1804 32.3189
11.5588 21.1553 37.008
13.7639 14.6196 20.5729
19.8727 27.2082 30.4409
14.0282 23.733 33.5774
8.91444 11.1871 17.8838
7.7564 10.4536 21.5234
31.8151 40.5983 45.9968
8.83525 10.6877 15.5321
14.7956 21.2418 27.926
14.6235 20.1143 25.4385
12.4236 19.6943 28.9027
15.5105 22.3815 32.4968
15.9553 23.7716 31.9978
12.4284 19.0743 31.7999
14.8341 18.2873 26.7909
17.9979 21.5739 21.4402
11.6792 22.8955 35.5233
14.7831 23.6885 36.7477
9.00098 10.1696 19.5888
26.8236 44.5251 64.6748
15.4045 17.7305 28.5022
20.1998 23.6005 27.3199
12.0751 19.1192 33.4198
17.5941 21.4936 24.6553
16.2772 26.4661 38.5433
20.8395 33.1632 48.722
18.9435 25.6956 33.1886
12.9134 19.2086 30.9958
15.1503 23.7336 38.3467
17.4592 26.594 43.6569
20.2289 26.0716 33.8224
10.9047 15.0263 23.2712
17.8235 29.4945 43.6946
14.2731 16.1768 18.422
15.635 29.3328 44.8366
8.13086 10.8702 20.8891
19.0957 29.2734 35.5949
6.77609 13.5841 28.6262
16.3165 23.5435 31.2806
7.65279 11.6815 20.5608
8.90915 12.2923 21.2575
14.0369 23.0862 34.2804
10.6338 17.8059 34.6384
17.1991 23.7191 37.6753
21.4641 29.7029 33.4053
8.92253 20.0932 41.5892
17.6677 25.7812 37.3883
17.5955 27.8598 39.1658
12.9816 23.4146 38.8753
10.4661 16.5746 29.3411
10.9612 19.3036 39.288
19.8206 25.3892 36.6961
15.0974 21.4853 27.8287
8.84135 17.85 38.3442
15.4439 16.5877 20.1952
13.8192 22.3332 29.4205
9.67676 16.0119 25.5051
10.239 18.4585 35.9202
13.6716 18.3494 32.4109
26.5809 38.0029 42.6114
6.79018 15.921 31.1887
13.9286 22.8038 36.2261
10.092 20.2548 41.3936
13.7744 17.112 24.4022
13.1785 22.4941 36.0429
16.547 28.6358 44.4474
10.0495 18.5338 41.1976
23.0354 34.2654 48.5098
15.9708 25.7979 40.0297
9.45597 12.5942 19.5115
9.90985 19.102 31.8959
7.14907 10.0702 17.0098
7.20717 10.3913 13.9497
9.05913 22.8511 49.0962
14.111 18.2254 30.2811
15.5637 20.0261 22.1864
10.1116 19.6932 33.4219
12.3149 20.5751 28.5987
5.44971 13.904 32.138
10.8723 16.9758 27.6459
8.75684 14.8193 27.4467
12.5865 20.6073 31.9861
7.88283 12.9954 21.7705
10.8665 20.5076 33.3651
6.39879 8.81769 17.1381
11.2805 24.8247 47.7207
12.7399 16.7097 23.8174
11.0964 23.0357 45.0978
15.0311 26.8778 47.6825
9.60084 19.0307 46.192
15.4299 21.0527 31.4792
12.6117 21.2946 34.2401
11.4641 21.0636 34.0676
6.0648 9.87854 27.9047
17.6272 27.4298 36.0295
10.118 19.1622 33.7044
8.65585 13.8872 25.6791
12.3657 23.2377 34.2574
12.7402 25.3942 42.2287
7.4936 16.4172 40.44
12.6326 18.2064 28.1814
8.89013 18.9482 41.0336
11.9444 14.3434 22.0901
11.2153 17.6979 26.9667
8.89947 13.7854 16.7382
6.68202 14.4954 23.359
4.69603 12.0916 27.8779
8.3401 17.339 36.0446
9.57843 14.8582 25.093
11.8007 20.7229 29.9897
6.5432 15.504 33.9335
8.01998 16.4335 37.64
10.7448 18.0701 34.8943
11.318 21.5525 40.5402
9.89908 15.4872 25.8585
7.41853 17.6623 41.0244
12.7854 19.1504 33.4303
16.3955 32.2482 50.6801
7.18223 12.7047 30.2602
10.7836 17.5087 29.6982
12.7177 24.9161 40.329
9.53528 19.1354 36.1342
6.06777 12.6757 33.2858
9.58553 16.7004 38.7194
17.4038 26.0639 29.8672
8.33127 19.5647 40.933
12.6415 24.939 45.4185
14.6057 26.5818 41.1973
6.4868 16.3174 46.1183
13.3452 19.4433 29.305
7.02105 13.0167 27.4348
11.2507 22.8076 40.823
10.6411 18.8285 29.643
5.94585 13.8341 27.4468
4.99182 14.038 40.084
10.3385 16.8033 35.3648
10.0446 17.9376 33.1835
9.54965 16.949 30.4473
5.74889 10.1008 21.0008
7.79584 20.9317 56.3982
16.3279 21.8605 26.0044
8.56552 16.0931 24.9778
7.81464 15.7237 19.3481
3.55735 13.529 33.5509
6.82016 11.7261 24.2105
8.099 16.0922 28.92
5.34976 10.1891 21.2375
9.34748 25.345 55.6283
9.80977 14.7281 26.7233
9.61494 19.6087 32.5798
8.55268 22.4826 47.6075
7.59703 17.4311 48.1554
11.0729 15.5461 26.2513
10.6058 23.0119 45.8372
10.0123 21.6278 46.5574
10.6262 16.978 22.8152
6.51852 18.143 37.6204
7.89909 15.7451 34.4907
10.7738 22.262 37.8957
6.62395 16.1313 38.4103
8.76349 15.5332 23.3011
4.63827 13.1352 34.3358
10.1627 20.4468 34.9072
6.08164 12.671 23.3702
5.87356 15.3273 30.7416
4.93198 12.6698 31.9692
6.64866 14.0969 32.1463
5.88592 9.57552 21.3817
6.4439 14.1264 30.7378
6.69624 14.6815 35.4898
9.96998 25.0593 53.7715
9.30166 20.3298 55.8155
11.5783 13.9927 17.8337
5.84022 16.9025 44.821
9.68487 12.3965 23.1031
11.0239 24.0793 44.6259
10.521 24.645 51.6659
9.027 15.0962 25.5029
8.21084 21.8994 48.7598
6.04251 9.3451 18.2322
6.55499 17.6772 39.3813
5.99508 12.7802 31.5655
5.31537 6.76452 14.1474
6.78833 16.669 38.8007
8.39585 18.4142 38.4741
7.77453 17.7406 41.0974
6.21412 10.9343 31.2653
8.99626 15.2924 22.667
5.14456 13.3634 33.6126
9.48357 22.8334 48.0761
6.94955 14.8035 40.8864
9.79764 18.8416 36.6747
7.53611 16.07 34.026
7.38215 16.6123 43.2091
8.62864 13.7315 23.4198
7.15336 18.1881 38.5744
6.71058 17.5374 47.1434
8.39493 16.5327 56.0221
18.9577 35.0437 50.2275
7.69501 17.5793 36.3727
6.97927 15.5636 29.5323
4.40596 10.4633 23.29
5.46792 14.4594 41.1066
9.67859 21.0576 42.9242
6.92113 11.215 19.0379
5.96104 18.1358 48.4063
9.6507 19.9369 42.78
10.6776 24.7327 52.9345
7.38942 12.9351 29.7053
7.5506 16.3048 31.9332
5.05275 11.4838 26.5805
7.98247 21.9057 52.7691
8.88384 19.059 42.4984
7.77541 15.1095 30.5408
6.98979 17.2509 36.4093
6.40099 13.9144 30.8684
5.11039 11.0677 22.5
4.40471 10.3855 20.4013
3.25089 12.3989 39.1765
7.17369 14.2256 28.6367
5.83847 15.6012 37.4456
4.57295 10.8474 37.0534
7.86046 12.9715 24.077
7.26241 18.5216 35.6235
5.18602 13.0652 33.2966
5.31723 10.4477 24.8976
4.4598 9.36293 24.8263
7.61074 21.2605 55.5111
11.5775 25.0539 40.1193
2.14555 3.56057 17.2741
7.64539 21.152 42.8486
4.39633 11.4617 34.8254
5.31048 9.43419 24.3233
4.60516 8.15354 17.1102
6.20085 16.6015 31.2438
2.7917 6.16936 19.3967
6.44237 17.2669 36.1052
5.21432 13.4576 33.9673
6.13411 18.1541 42.5277
4.62546 12.1604 37.095
5.31179 9.90986 29.3318
7.74702 17.5732 44.7844
8.44619 16.9291 34.9416
5.71737 12.2927 37.6565
10.1686 21.9927 35.3093
3.95433 11.7789 31.717
5.46221 16.3581 49.7805
8.6704 21.4144 61.1552
10.1088 17.8183 43.1059
10.3773 22.818 44.8353
7.5563 15.8401 26.8972
6.63743 23.2155 56.3886
6.95178 17.4007 47.774
6.67628 15.2972 40.4469
6.53463 14.5221 39.5385
8.51814 20.9033 48.7701
8.46249 16.9083 25.4565
