# pn-170911/RbIIR-51-PTBB-1280-1959.psd
# Power spectrum* (dif=0,1,2) (really just |FT|^2)
# NOTE: only the first half! (symmetric)
# weeks: 1280-1959
# 8 clock-days, 0 excluded
# PSD: 1441
930.566 0.0353945 0.0215351
37530.3 0.811022 0.0204238
84897.2 1.38805 0.0223016
31961.3 1.48044 0.022455
47444.4 3.32229 0.0204791
6572.6 0.800304 0.020942
5673.59 0.800513 0.0216333
7895.61 1.24925 0.0232638
5320.73 1.04942 0.019587
3027.01 1.03037 0.0186321
3958.77 1.7007 0.0200487
2167.39 1.05912 0.0242737
1923.92 0.954936 0.0210092
6141.68 3.8787 0.0203569
2980.42 2.41663 0.0264533
2299.44 2.14994 0.0208313
2145.11 3.12729 0.0260425
2161.07 2.89644 0.025841
1057.8 1.32794 0.0250919
864.368 1.37207 0.0260452
1344.77 2.50102 0.0293476
1264.06 2.14835 0.0274699
896.158 1.28079 0.0196318
1319.5 2.93576 0.0279738
1356.2 3.06537 0.0222586
648.874 2.07003 0.0402709
1478.55 4.27168 0.0173869
1311.01 4.52963 0.0442153
1320.73 5.37336 0.0340915
1152.7 3.91438 0.036128
1143.19 3.98183 0.0375927
724.28 2.55824 0.0256423
1093.71 4.45341 0.0407212
729.407 3.29606 0.038747
970.172 4.95142 0.0414578
735.621 3.58119 0.0517031
1098.32 7.43487 0.0510444
381.435 3.07855 0.0444604
996.593 6.09464 0.0593727
497.301 4.08256 0.0471163
1042.15 7.09085 0.0778756
551.707 3.51632 0.0464617
1541.88 10.7644 0.134012
462.278 3.83317 0.0637772
664.732 5.53449 0.0822013
520.962 5.82571 0.0933609
1313.9 10.3843 0.110148
787.639 7.28906 0.0821907
946.657 10.1068 0.103187
764.252 9.80779 0.123843
1071.35 12.0765 0.148413
1006.33 11.444 0.119477
451.754 5.96244 0.112588
909.016 9.63431 0.0957691
446.738 6.8707 0.0704044
533.973 8.94451 0.141701
435.128 6.2485 0.109295
513.699 8.04403 0.157804
822.721 11.7911 0.18365
908.683 12.6027 0.249102
783.163 12.7469 0.233906
688.493 12.6921 0.297795
202.923 3.5238 0.070763
664.554 10.7955 0.226703
414.563 7.6242 0.180252
513.057 9.42887 0.200893
814.379 17.3046 0.324616
290.49 7.01458 0.142372
431.07 9.42626 0.245564
1314.66 28.8127 0.549582
950.713 21.0945 0.408117
521.885 12.4925 0.349116
1284.97 31.5574 0.856916
577.554 15.015 0.352747
514.562 13.956 0.404679
711.057 19.6921 0.528728
269.332 8.05008 0.230269
931.298 27.3343 0.67006
456.432 12.8663 0.371078
896.987 25.3742 0.772991
883.287 26.2779 0.876734
364.339 12.0638 0.461073
517.104 15.4443 0.449958
450.396 13.9142 0.443535
581.22 20.7696 0.768395
424.809 12.2077 0.472307
198.29 6.46084 0.200959
464.881 16.7318 0.599969
566.174 22.8271 0.949161
324.494 10.9778 0.432996
390.944 13.482 0.481528
294.451 10.8902 0.484013
450.212 16.5379 0.69691
284.195 13.2637 0.624353
278.036 9.82832 0.43068
284.203 12.1769 0.547955
254.48 10.4196 0.379298
364.255 15.5404 0.797271
994.352 49.552 2.35442
378.818 15.5258 0.783972
373.867 17.7384 0.835531
340.099 14.9689 0.690102
415.257 21.1934 1.21509
237.341 11.8736 0.503893
619.541 30.5181 1.66225
475.256 21.1047 1.17393
268.12 13.6449 0.794164
296.84 14.8325 0.932635
337.671 18.8063 1.15793
337.322 20.0238 1.45851
392.989 20.5784 1.1072
327.165 19.2279 1.24885
233.78 13.4469 0.778006
441.453 26.4108 1.48234
237.76 14.5282 0.89658
125.484 9.7154 0.71126
440.985 27.187 1.58567
224.389 12.1563 0.766396
375.551 22.464 1.48122
268.254 17.7941 1.32772
201.981 16.3206 1.22863
272.179 17.6941 1.20712
297.321 23.8593 2.02659
345.532 22.8822 1.53384
281.721 19.8493 1.49861
386.061 27.1948 1.87916
298.17 21.4582 1.50658
132.459 10.4867 0.811814
353.579 28.9745 2.14256
330.519 24.1523 1.93363
132.889 11.0372 1.03824
225.468 20.6186 1.66673
169.497 14.6778 1.26739
189.321 14.3093 1.11988
200.908 17.4005 1.59928
294.418 26.2678 2.27568
197.156 14.9488 1.18642
232.758 17.9625 1.46202
235.478 20.9057 1.83478
128.686 11.226 1.20956
285.23 27.9043 2.62831
176.911 15.9667 1.43131
130.233 12.0574 1.30811
331.156 28.4164 2.6336
261.381 24.5441 2.53609
100.443 10.112 1.17759
396.947 38.5954 3.97048
266.161 25.9943 2.37134
60.5342 5.52418 0.614594
212.88 21.8316 2.28142
105.302 11.3011 1.09907
100.735 9.16725 0.965011
187.91 19.0857 1.9934
204.846 22.1995 2.52698
93.0158 10.0507 1.1351
123.328 11.5727 1.33315
182.207 20.3218 2.40225
121.262 13.5761 1.63699
84.4769 11.5711 1.71753
402.741 43.4137 5.13811
151.25 16.7312 2.01565
118.338 16.2232 1.99261
285.659 31.521 3.80287
123.8 15.2917 1.97814
137.591 16.4029 2.28431
60.325 7.72001 1.22352
127.101 16.9418 2.43585
117.623 16.3238 2.32592
70.2767 9.97153 1.47561
180.035 26.4359 3.78985
158.834 18.1955 2.22265
85.4977 11.8816 1.65668
90.5431 12.1547 1.62644
73.4432 13.3011 2.15424
159.35 21.6629 3.09989
91.411 11.5994 1.52351
101.098 13.0352 1.78768
114.685 14.6039 1.88142
129.935 19.9641 3.1664
113.289 18.1026 3.06758
98.5551 14.3556 1.87105
140.683 22.179 3.81771
122.478 18.9303 3.14238
130.381 19.9232 2.85263
107.825 15.5683 2.30591
117.636 20.2361 3.21775
62.6651 10.8564 1.94359
116.357 21.4767 3.78128
148.189 22.6409 3.7631
120.226 17.5986 2.59417
83.7321 12.9087 2.24959
83.7971 14.0014 2.47692
71.6658 12.5177 2.46572
119.1 19.8113 3.27102
77.9043 12.7849 2.55389
51.5307 9.46738 1.82003
63.7898 12.235 2.40088
50.8287 7.95211 1.28286
145.494 25.424 4.5759
139.988 23.9272 4.28964
157.973 29.0767 5.29803
73.7775 13.7907 2.63969
135.438 28.1697 5.63582
61.094 13.7576 2.97991
146.546 27.0096 5.24195
80.583 13.0672 2.41908
90.8369 18.2148 3.82936
134.734 23.5951 4.35429
123.758 25.3585 5.43056
133.525 27.4833 5.77872
53.4765 9.18016 1.81533
62.6953 13.2109 2.87837
104.822 21.9132 4.39567
70.4963 12.7429 2.31117
74.0614 16.081 3.52456
129.125 27.5725 6.20647
92.5728 20.3138 4.11963
58.7472 12.2469 2.9026
64.6608 12.6501 2.79485
69.8491 14.131 2.90238
65.2281 14.9306 3.70425
68.6871 17.0294 4.13803
52.5126 11.2556 2.84391
44.9748 11.6845 2.6319
29.1659 6.33541 1.53995
53.4297 12.7509 2.97364
94.4317 21.4515 4.65401
31.1651 8.54067 2.21488
92.8987 21.5044 4.99112
62.1588 15.5804 3.73116
80.6538 18.4848 4.66852
103.933 25.0213 6.12925
81.3011 18.8534 4.54973
55.6744 13.3409 3.13321
45.7456 12.4673 3.61198
70.7998 16.314 4.14924
41.899 11.3145 2.97424
76.7199 18.3508 4.80167
57.8308 13.0996 3.27665
43.123 11.3829 3.33688
51.4347 11.8792 3.35017
73.3514 17.8076 4.53613
94.6875 27.8589 7.67846
26.599 8.82392 2.79237
31.6465 8.31253 2.38521
70.2796 19.6934 5.84507
53.6098 15.3216 4.13282
75.0559 19.6556 5.71133
101.4 27.4686 7.66365
75.9256 24.1822 7.28316
92.0499 25.1468 6.53005
67.9948 21.2484 6.60373
48.8024 11.4536 2.97248
65.9227 20.3834 6.7672
57.3064 16.6195 4.99009
67.5537 21.7652 6.98536
60.9213 15.7648 4.42528
94.5129 27.2844 7.61163
57.1411 18.6329 6.30774
34.3643 10.4304 3.39843
54.9765 17.4157 5.75055
74.1436 21.0922 6.08268
65.5324 21.2385 6.37988
32.3331 11.0943 3.89298
54.0454 17.7684 6.12851
59.7584 21.0179 7.42252
45.1532 12.8318 4.20079
80.8903 26.4127 9.01739
71.6086 21.5637 7.30588
73.5205 23.3951 7.06033
58.6415 20.7722 7.14588
36.5943 12.883 4.73128
47.0684 16.9386 6.29952
58.2978 18.6314 5.57961
67.6023 21.4561 6.70287
36.4017 13.5959 5.2498
60.7156 22.4994 8.10323
26.6058 10.4798 4.37974
32.3774 10.0394 3.19659
45.1424 18.2288 6.7762
54.4774 18.3188 6.23976
30.9473 13.6695 5.1423
71.609 28.0282 11.355
84.9115 25.3736 8.09905
58.9293 19.6568 7.17421
48.2244 15.5208 5.39154
49.5732 17.6071 6.63052
41.9973 17.7433 7.47129
55.1339 18.8172 6.47386
31.807 9.49213 2.81235
63.7151 24.9152 9.76668
36.5265 16.9256 7.34331
72.4223 26.7655 10.6122
44.1427 18.2213 8.22991
49.9187 17.1419 5.87999
34.545 13.6863 6.11195
36.0033 14.5132 5.69874
62.4481 25.5036 10.0267
34.0666 13.3996 5.67477
22.25 7.35285 3.09957
47.5968 17.3044 6.82962
41.0326 21.1069 11.1461
74.4615 27.4198 9.71525
16.2959 6.89189 2.50575
34.2611 18.0856 8.8211
47.3991 15.8066 5.65651
47.9355 22.5493 10.2882
43.9559 19.888 9.65073
37.6142 17.6817 9.09873
37.0262 16.1567 6.69177
34.2988 12.4654 5.03166
50.7711 20.2837 7.69252
66.7266 31.4611 13.7688
49.1297 25.9906 13.2104
47.3244 16.7738 6.50014
50.3308 21.0136 8.13126
31.6388 15.2059 7.04808
53.1842 25.1146 11.8867
62.6721 26.5603 10.6324
78.8732 39.1868 18.375
62.0816 30.402 14.2759
31.7396 15.1789 7.26363
24.8699 12.3627 7.0308
31.9402 13.6013 6.39421
36.1124 17.2097 7.78802
41.6117 22.8918 11.4068
30.2213 15.6823 7.7504
31.7561 14.2798 7.6871
87.2188 43.2432 21.1742
33.0389 14.961 7.19701
35.8556 16.6743 7.89746
26.0098 8.08863 3.33266
32.462 16.3544 8.02194
27.367 15.3726 7.62726
41.0062 27.36 17.478
52.8257 19.0793 6.98396
48.4316 20.4553 9.61256
36.4459 17.2743 7.71904
32.7325 18.1804 9.55083
24.5761 17.5976 10.9748
46.1684 24.2265 13.2292
40.625 20.086 11.094
37.528 17.0685 9.25424
69.2878 32.4282 13.5528
38.6861 28.1894 17.4824
29.9633 16.6801 9.05721
23.3605 12.7402 7.30176
28.0643 12.8035 6.93122
33.7621 19.3271 11.5233
38.8625 23.4722 12.5976
44.5608 23.9778 12.2377
19.7008 13.1246 9.46908
48.2611 21.4917 9.11889
35.0366 23.2569 15.6238
44.5106 22.5637 11.103
26.1477 16.8647 10.0922
16.2229 10.5036 7.48294
50.8161 27.8044 15.8525
31.4616 13.3958 6.23686
46.6363 24.3177 12.7978
33.1522 21.0198 13.0318
20.2574 10.7576 6.46244
25.0009 16.5691 11.3955
39.2861 21.1294 11.045
23.1972 13.3857 8.58952
23.614 15.6297 9.90917
42.2395 24.0236 14.0663
22.8895 14.0835 9.35103
38.0806 25.7537 16.5943
39.213 23.3089 15.3314
53.8636 31.5091 17.0352
37.5849 26.9774 19.2037
66.3816 39.8848 23.9829
35.302 21.6505 14.251
27.4051 17.1502 12.1688
24.178 16.263 12.1405
30.3125 14.8041 7.61917
17.5507 12.2021 8.7262
17.2388 8.84293 5.86275
50.2796 33.5142 19.321
20.6285 12.2862 8.92346
19.7038 11.8789 8.45051
57.4718 40.7759 27.3906
56.3345 31.2273 17.5679
39.2692 29.0171 19.8985
18.0142 9.11587 5.71381
27.9522 19.2995 12.5756
22.7857 15.3912 11.6928
31.1109 18.9957 12.0247
27.1802 17.6445 11.4161
18.9997 9.39032 4.65588
22.5781 16.4726 10.8364
20.4335 15.4253 11.9392
37.4555 24.5289 16.9104
27.6668 16.8697 10.6168
28.9181 21.496 17.9857
50.8348 33.0254 20.1991
21.6321 16.3691 13.1095
35.0299 22.4467 15.7161
11.7367 6.76201 5.06876
32.7953 26.5525 20.5077
19.2526 12.4004 10.345
29.8414 18.3885 13.8283
59.1494 40.0593 25.4896
19.3965 12.5577 8.5893
24.9893 17.8149 11.3173
25.2969 23.3826 19.3871
23.8975 15.1757 9.31639
21.4968 18.0736 14.0626
33.5031 26.0679 21.9421
26.1277 17.513 11.591
13.8872 9.46873 5.96438
22.9883 19.8574 16.4768
26.1039 15.6028 10.0169
23.0542 19.7808 15.8236
27.7442 24.4877 23.231
18.9056 9.54331 4.92498
30.2236 28.2576 22.134
22.7912 13.3423 9.26258
33.0637 24.6385 18.0239
18.6727 13.4459 10.379
7.18898 4.96795 4.99701
13.192 10.2761 8.62832
28.9098 25.2676 20.9498
15.9936 11.4607 10.2806
21.3653 15.0916 12.3289
37.8005 29.8151 22.19
20.5309 17.5025 16.4577
44.429 30.6927 19.087
13.8492 16.037 16.8089
33.2482 24.3891 19.1519
19.6632 15.4324 13.4832
20.1364 14.4576 11.292
18.6783 20.0572 19.4292
23.1625 16.4113 12.5242
32.167 28.7979 26.5801
58.151 43.7024 33.8295
27.3249 19.6088 16.9045
45.4537 38.9522 30.3551
17.7588 14.4202 13.9972
21.0883 17.6477 13.7006
10.3063 8.83803 8.20637
20.7821 14.6395 12.1985
35.4436 28.9771 22.6206
25.1572 23.8287 21.4328
18.4975 13.4054 12.9803
37.3767 33.7234 28.4158
13.2792 11.2109 11.2189
28.8684 22.7994 17.9371
18.0334 16.2248 14.0014
13.3486 14.7733 14.8722
14.9306 11.1195 7.76499
25.154 28.9993 30.4786
32.4053 24.6395 17.4072
10.1707 9.86259 10.8222
21.7678 21.6101 18.2201
18.6646 19.2928 20.8378
21.9941 17.8506 14.313
13.2313 19.5719 24.9106
40.1586 30.5609 24.0589
19.3776 19.9231 19.4669
14.186 10.8864 10.9895
45.2544 41.4653 34.1755
10.4496 12.5229 15.4746
19.6678 16.7552 15.4265
16.1889 13.4863 11.8222
8.01201 7.85968 9.56203
18.2671 17.2054 18.8268
33.2433 28.0057 21.4232
18.6343 19.3766 20.2233
27.8694 23.0159 19.8006
22.186 20.729 19.8009
25.8875 29.7793 33.2931
30.6205 27.014 27.1647
33.1845 27.9109 22.8743
21.1965 23.6509 25.7669
26.5653 22.1488 19.4487
15.9308 13.0559 12.2892
24.2426 19.5232 14.6114
12.0471 13.9485 14.7005
8.86992 7.86752 7.53423
14.9018 17.9896 24.0016
19.6582 16.2445 13.4938
19.9143 21.3896 22.6292
19.5109 16.4937 14.3462
20.3254 21.918 20.1184
12.7245 15.0009 17.0631
12.2437 17.5869 26.2057
25.0666 18.5295 13.2307
12.5291 14.8702 18.1233
20.0433 19.1771 20.1541
34.745 33.1049 29.4697
14.2105 19.4967 23.668
12.2677 12.94 19.3563
22.6764 18.6737 15.6348
29.314 31.2346 29.1723
16.6673 18.3683 20.289
17.8641 20.2759 22.3858
11.1768 11.9794 17.2025
20.3625 17.7122 14.876
16.5315 15.8387 13.3156
7.72724 11.3862 15.079
18.2549 22.5475 25.4555
15.851 16.3889 23.0407
29.5561 25.837 21.1707
21.9546 26.0706 28.3444
11.6125 12.0073 14.3061
17.9595 22.5954 26.7162
15.6023 14.5682 16.2882
21.4042 18.6539 16.0867
5.01604 4.85486 5.83521
13.0709 14.4124 15.0061
11.4898 16.2905 20.1128
16.8534 14.9876 13.5956
9.54767 11.4988 13.6462
15.5767 18.3346 21.1942
12.5996 16.6875 21.9828
28.4369 30.114 28.7918
12.3406 15.0904 15.5187
18.3738 29.229 36.3133
9.76192 11.0703 15.6928
9.01003 8.99233 9.23457
9.04561 16.9739 29.7005
22.5354 23.9122 24.6343
10.9713 7.02635 6.29753
16.7879 21.3371 26.2098
25.8939 26.9431 26.233
8.80748 11.7205 16.234
22.9732 32.3716 41.7299
21.7224 22.4657 24.4822
23.3511 30.6513 38.7939
20.6807 20.989 22.6301
12.9305 19.2151 33.5789
27.0362 19.5455 11.5475
16.8331 26.4613 33.2374
19.8986 20.5182 23.4599
8.04075 11.1384 17.1548
19.1001 24.338 29.5102
14.853 16.0368 21.4564
20.6062 20.6294 19.758
8.0733 9.48572 11.183
12.359 19.2285 27.4836
14.6293 18.5078 23.5587
17.5376 20.3064 26.0751
16.2583 14.6322 13.916
8.00225 8.3124 7.68169
11.1922 15.8241 17.2346
10.1797 15.5755 19.7613
12.145 18.2999 27.357
15.236 21.1282 29.1248
12.5341 13.9691 18.722
16.3822 22.7832 30.8076
15.0377 19.9564 26.6754
17.3277 20.8217 26.9249
6.16187 9.17791 16.9671
13.06 12.9304 15.1628
7.59235 7.39283 7.45738
11.5825 21.9448 33.77
14.3469 14.2463 17.3441
12.3824 15.4917 20.8649
13.1802 16.6241 22.4786
21.6933 19.7741 18.7323
7.93453 11.5672 17.1864
11.9441 15.6522 20.6238
10.9719 12.6959 16.3274
21.9745 34.3098 43.8715
9.86137 10.9377 17.2627
14.2041 18.7248 23.0861
9.50808 11.943 18.3407
13.7776 18.8537 27.364
22.4262 25.4832 22.5864
8.9681 15.3475 22.1194
9.41751 16.2551 28.2705
18.8337 21.694 24.0333
14.8164 19.9553 23.7956
2.9606 4.39217 12.5723
20.9578 30.9025 38.0236
10.5979 12.9395 18.3494
9.9446 11.0903 13.4063
10.8469 16.2928 17.6398
8.88928 16.4899 28.1821
17.2438 25.404 33.3505
12.6819 19.5423 30.0896
16.5912 20.944 25.8189
12.5213 22.7535 38.5472
43.3934 64.3622 80.7574
41.2148 81.1015 135.797
29.6564 35.2773 62.3851
29.4951 29.5763 32.1079
13.5422 15.8416 20.2632
13.7094 17.9528 22.9295
8.89178 12.0607 14.584
6.97476 10.3016 18.4379
11.9151 14.988 18.3145
11.1563 21.4287 35.3804
9.46389 13.852 30.3415
19.5805 23.3469 28.5169
13.6799 18.2474 24.9817
8.00786 7.15871 10.7911
16.541 23.13 25.5693
5.44358 6.95181 9.15594
13.8121 23.5906 37.5397
11.164 15.8867 23.2756
10.8566 16.647 25.44
7.23649 8.97743 11.5521
12.0731 19.1955 25.6779
9.08359 16.3585 27.9238
11.9479 20.8885 36.1738
10.7819 13.4983 18.0887
5.98315 11.3939 23.8808
17.9235 21.7306 21.9285
11.5051 25.4514 44.9256
12.7908 16.4403 21.6392
11.7642 20.0933 31.9788
12.5098 20.5935 33.7207
11.6717 16.4545 24.7649
6.63577 13.366 28.1233
11.5268 12.0576 15.7419
6.69464 10.4025 17.7298
11.205 19.8484 34.1523
7.16431 8.60631 18.8089
12.1689 21.5635 37.2435
16.1853 17.8412 20.5369
13.0242 25.1425 40.5103
14.9311 20.4631 27.787
11.3172 23.0545 44.0904
10.6623 11.1813 14.5012
10.1718 19.5122 34.5746
11.5879 14.7876 25.8294
18.2028 26.011 38.251
14.1347 22.6229 35.8104
12.5048 19.4642 29.5972
8.98929 15.1306 23.058
8.32561 13.5097 21.009
4.58969 10.7821 27.5004
11.8316 18.0069 31.1241
15.3649 22.8289 34.3414
11.6486 16.1724 20.2983
7.0584 13.0421 20.0248
4.89071 12.3067 34.3908
16.775 18.4664 15.6548
9.05751 17.3117 33.6174
12.1899 19.3829 31.2236
15.0972 22.8924 30.8932
7.06839 9.85293 16.4186
11.4093 19.994 26.6352
8.08625 13.7034 24.9351
10.8802 22.1265 38.0945
8.06584 10.9752 16.8241
8.62942 18.5784 34.6871
10.9978 14.1752 22.5567
9.80402 15.4919 23.9027
8.06156 15.8997 26.8721
7.2252 15.568 33.8916
13.7251 17.3601 23.9314
8.97366 15.6467 26.9272
8.65977 18.7672 37.4892
10.9278 18.3852 36.8676
18.3726 26.5459 39.2185
11.0236 13.8627 18.4602
8.47197 18.7708 36.7637
11.3819 15.0505 22.0744
10.6866 16.4753 18.4083
6.14163 16.2758 35.3493
10.0137 12.657 18.3741
6.06557 13.4421 26.89
7.0465 12.4123 24.9948
8.62808 10.4632 15.2961
9.93277 15.7433 21.0662
3.19002 9.38894 25.0989
11.3951 18.703 31.4001
6.04968 9.20567 17.9296
16.5923 30.4183 47.0204
9.74078 22.3899 41.2379
6.65922 11.1589 28.3715
12.3172 16.7301 22.4557
7.94213 16.492 30.1406
7.55357 16.7987 36.6256
5.69613 8.82834 22.121
11.0802 18.6586 26.9267
10.0945 23.8512 46.1655
10.283 17.556 39.9728
11.6389 14.2167 19.6699
6.84219 10.8018 15.6451
5.20039 16.2955 47.0427
24.9592 39.7111 59.85
6.87431 10.0407 22.7845
8.08167 8.14139 6.92156
7.80495 18.5947 32.554
4.23171 9.06071 24.9565
7.50917 14.1869 26.3328
8.08323 15.5985 36.2363
7.30712 11.0607 24.0963
12.039 22.5016 33.6724
4.19123 6.54819 17.3748
3.63009 8.04371 25.6508
11.8759 16.4363 22.6446
5.43892 10.6833 23.2765
7.08708 10.9167 14.6901
7.61371 22.1555 58.1668
17.5961 27.3085 40.9415
8.78263 13.7487 26.3371
11.0794 23.8072 51.3597
11.9051 14.1716 16.073
8.81607 20.7503 35.5379
3.96611 5.92028 16.01
9.79503 21.4068 35.02
6.7139 15.2825 37.1639
5.69508 6.34845 13.7499
8.73727 17.3479 28.6846
4.60845 9.26163 18.8094
6.95582 16.3848 35.3503
7.39482 10.7479 18.0408
7.37425 17.3046 35.0958
6.27805 9.05688 13.662
6.13432 16.4611 38.7566
9.87553 19.6499 41.1757
8.56444 13.0985 20.3277
4.88487 8.0977 17.7595
6.56045 13.7865 25.45
6.35896 10.4354 19.1323
13.2766 35.5035 70.1901
6.86262 7.81219 12.501
4.12717 11.4166 29.8256
7.25204 18.0969 50.1779
13.2344 16.1326 17.1951
5.05104 9.38875 18.1959
6.6624 13.6105 25.1842
5.02891 11.0054 32.0318
11.9482 19.3924 29.0555
7.03262 16.0579 33.9201
11.4769 27.9264 60.8829
10.0849 17.1357 27.8676
7.80584 17.8543 41.6286
7.22889 11.6678 27.3195
8.00101 16.8887 32.5858
6.85709 12.8057 21.0755
3.75406 10.5638 29.3657
8.02464 13.7415 27.456
5.18342 9.3844 19.5654
5.06363 9.33218 24.0775
8.75913 16.0137 23.2863
6.85695 16.4222 26.9316
2.26739 5.47057 14.4239
4.30429 13.1162 35.037
6.51772 9.26005 20.5792
6.19469 10.7085 18.504
4.37821 9.67042 19.6598
5.2016 15.2955 38.9753
9.06976 16.4001 33.1528
7.8489 14.7366 28.1633
4.90384 11.574 32.9227
6.76978 11.3878 18.6432
5.19603 10.9229 23.8119
5.77085 16.4792 42.1863
7.0265 9.32683 10.0603
2.31443 4.76685 9.80949
2.66159 4.61047 7.58736
4.54408 13.2486 25.9365
2.43058 3.98071 11.6265
3.69128 10.9042 33.2843
9.46316 19.6869 34.1856
8.13524 23.0368 60.0691
11.7307 18.8597 23.6951
3.43104 14.2754 40.9704
5.64564 10.3426 23.1683
5.06868 7.81837 17.1366
7.06863 19.0126 39.3285
4.37959 10.0236 32.7953
6.0988 14.3406 31.412
4.40443 6.48977 14.0179
4.95714 16.7857 43.94
8.1897 13.772 29.0215
5.82572 9.02494 17.8362
4.90332 11.022 27.2417
7.1425 16.0188 36.3868
8.82733 20.0913 42.7095
6.75767 10.9913 17.1707
3.4424 8.77157 22.8114
4.49045 10.6893 39.885
10.3767 18.8313 37.7194
11.1279 24.9209 36.1561
3.35087 12.3 36.9009
6.68382 12.5992 32.0505
4.93092 9.25279 22.2905
6.68149 16.4248 38.3259
5.16442 5.72295 11.6627
7.3908 26.7646 63.343
7.61855 10.1818 22.4626
5.78168 10.3228 21.1448
3.89706 7.17915 15.2641
4.00114 9.87278 30.8583
9.17195 23.3881 48.2742
9.718 21.4637 36.0376
5.30807 18.064 50.8602
5.251 8.15155 18.8431
2.90635 4.59244 11.1705
2.79788 8.66402 20.8271
1.58862 6.9241 41.2349
10.2448 13.8426 17.3815
4.70052 12.7981 31.9428
3.85326 7.40228 20.4328
6.85735 16.2372 33.7521
5.18111 10.9251 31.6612
8.224 14.4484 28.8045
10.535 23.7382 41.8812
9.33861 25.5114 48.7976
3.85625 13.2738 44.042
5.93349 14.4666 37.2841
7.22258 15.261 31.5418
7.02994 16.6721 31.9914
3.02568 8.56527 26.3594
4.0991 9.53249 27.6607
7.06948 23.1166 68.4389
9.28969 11.459 22.2284
4.97944 10.6858 25.2571
3.98442 9.49446 30.1511
5.67369 10.2767 23.0398
5.32153 12.9343 24.522
3.61668 5.02077 9.31155
4.11664 13.5015 36.4216
4.40559 9.02472 22.3733
4.65482 8.45355 14.6929
2.99198 7.18501 15.186
2.38132 6.5083 18.1687
4.48426 14.7363 33.3015
3.07044 6.35391 25.3559
8.69247 20.478 40.5864
4.56613 9.21327 23.9815
