# pn-170911/RbII-av-RbIIR-1280-1959.psd
# Power spectrum* (dif=0,1,2) (really just |FT|^2)
# NOTE: only the first half! (symmetric)
# weeks: 1280-1959
# 179 clock-days, 159 excluded
# PSD: 1441
26024 0.605389 0.0189377
1.04982e+06 21.1934 0.010231
2.00412e+06 40.8728 0.00958125
450490 11.9523 0.00969184
272416 13.8649 0.0102271
135505 8.08842 0.0108742
97643.1 8.18761 0.0122393
69061.8 8.01636 0.0115805
62921.4 12.4628 0.0146147
44293.2 9.95301 0.0144256
33607.5 9.33162 0.0133018
30851.3 10.6917 0.0163437
24645.7 10.4203 0.0184791
22155.5 9.77558 0.0200105
18573.5 9.75579 0.0193795
15162.3 9.31344 0.0204225
12348.1 8.01651 0.0182546
11657.4 8.74661 0.0222035
9135.59 7.82684 0.0238364
8484.34 7.66388 0.0232994
7359.82 7.0747 0.0244676
7164.99 7.71395 0.0267672
7514.96 9.07408 0.0297332
6087.94 7.50006 0.0283836
5209.06 6.84547 0.0269874
4732.35 6.99363 0.028641
5175.99 9.46432 0.0374373
4077.81 7.11739 0.0349775
4014.81 8.67294 0.0420335
4187.37 8.61937 0.0429299
3395.21 7.83761 0.0420377
3418.77 7.99524 0.045786
3412.24 8.95348 0.0533647
3180.46 8.81926 0.0560951
2854.68 8.24129 0.0560994
2616.92 8.07625 0.0568917
2435.08 7.65894 0.0587981
2256.69 8.40494 0.0603349
2385.95 9.73514 0.0740174
2144.42 8.40756 0.067679
1943.22 7.46884 0.0654487
2197.95 9.47799 0.0816201
1904.74 9.52754 0.0911095
1608.72 7.46209 0.0773124
1768.4 8.95387 0.0924184
1570.9 8.03467 0.0896348
1517.27 7.92708 0.0880468
1521.82 9.31465 0.11299
1509.04 9.73983 0.122378
1379.83 8.60915 0.113642
1248.47 8.23656 0.106572
1400.72 8.96747 0.124417
1202.4 8.92904 0.127279
1181.57 8.90136 0.126088
1149.13 9.78858 0.147514
1081.24 8.62021 0.133805
1091.9 8.81918 0.141232
1032.43 7.97531 0.137464
1084.12 10.7778 0.181781
988.437 8.84493 0.160876
955.837 10.1249 0.175532
948.801 9.1783 0.158007
983.677 8.96106 0.166576
867.568 9.66457 0.196493
942.684 10.8551 0.222292
874.447 10.1707 0.220796
778.461 9.47981 0.20222
887.839 11.485 0.261252
729.703 9.19019 0.207648
750.743 9.61521 0.226997
779.688 10.921 0.26564
740.799 10.8853 0.27396
692.384 10.3127 0.274058
736.301 10.5956 0.278375
656.088 9.71364 0.261867
627.189 10.5825 0.284611
635.026 11.3082 0.334786
718.968 10.7329 0.322612
575.173 9.18018 0.279696
646.252 11.3699 0.344819
636.082 11.0495 0.349679
557.52 11.0384 0.340767
583.073 11.8866 0.389955
593.541 11.1895 0.391193
569.419 11.0597 0.375846
593.367 12.2272 0.434827
566.3 12.6385 0.46083
525.686 12.7529 0.464183
487.034 9.79455 0.367231
537.641 12.2861 0.48893
492.546 12.5573 0.500928
460.183 10.6696 0.414305
491.862 12.8964 0.51468
466.767 11.306 0.451619
428.657 11.1631 0.481946
486.127 14.6344 0.650829
483.91 13.4054 0.587224
447.913 12.9896 0.558606
434.815 14.5354 0.684399
479.061 13.5826 0.632991
447.877 14.5433 0.696616
387.84 12.0189 0.605735
414.759 13.2164 0.665744
395.663 12.513 0.614852
412.267 13.8124 0.713648
366.092 13.2077 0.702841
380.257 12.5715 0.664218
379.853 13.6881 0.751391
332.329 12.1102 0.695067
350.369 13.0628 0.761276
405.588 14.811 0.842917
380.229 14.2053 0.869898
361.845 13.6225 0.803961
363.028 14.7852 0.907678
324.89 12.8557 0.806673
319.797 13.0995 0.841708
357.998 15.9948 1.04697
338.211 13.9319 0.903323
363.188 15.3874 1.03582
315.221 13.8179 0.959405
306.021 13.6989 0.945439
375.714 16.5212 1.15406
315.612 14.4685 1.03644
301.382 13.986 1.05624
324.944 15.7516 1.13504
300.697 14.5566 1.09615
295.449 13.7328 1.02717
317.671 15.5476 1.18707
303.797 15.5885 1.20426
264.393 14.6931 1.15997
261.393 13.9823 1.12199
301.54 16.7691 1.39491
238.384 14.2534 1.18709
255.066 14.0851 1.18927
252.594 14.5832 1.25002
245.767 15.541 1.34848
262.783 14.5793 1.28348
251.012 15.4665 1.38639
255.014 15.8442 1.4395
243.69 15.2037 1.37812
227.966 14.8097 1.38331
229.503 16.3562 1.54269
244.4 16.1259 1.55002
232.839 14.8441 1.43372
228.914 16.9987 1.67089
254.173 17.3597 1.69868
235.86 16.6707 1.70217
236.084 16.4677 1.72913
220.867 15.2799 1.59733
237.392 15.1337 1.56757
223.548 16.2562 1.72711
196.488 15.3023 1.68257
218.465 15.8372 1.7136
216.986 18.1608 2.02205
219.58 16.1328 1.87636
221.894 17.3963 1.9356
209.218 17.2158 1.96879
204.629 15.1766 1.78833
213.229 17.6503 2.05071
189.293 15.506 1.84373
158.255 13.7564 1.67963
212.587 16.962 2.09457
195.691 16.646 2.02846
201.233 16.553 2.12451
182.862 15.712 2.02126
190.664 16.2773 2.10544
207.362 19.3683 2.47334
169.637 15.8107 2.13042
183.61 16.6294 2.26164
175.194 16.5148 2.19564
173.867 16.1958 2.18721
159.79 16.6649 2.36816
163.232 16.2441 2.25917
180.595 17.7058 2.56396
170.432 17.2241 2.47305
160.287 16.2853 2.38022
178.552 17.4518 2.5371
166.164 16.866 2.47656
180.504 18.4984 2.71674
151.733 16.2368 2.50612
153.398 16.7234 2.48707
169.499 18.2905 2.87833
151.375 15.2767 2.3837
172.758 19.4105 3.05501
164.922 17.1814 2.74151
161.67 16.9217 2.73142
153.864 17.3032 2.75249
158.588 19.4162 3.22109
136.244 16.4872 2.82902
148.854 17.4644 2.91065
139.527 15.2369 2.63335
143.191 17.2612 2.94844
149.122 17.3063 3.01418
146.684 17.4884 3.06476
146.61 17.2282 3.06287
164.154 19.2898 3.40046
134.201 14.5635 2.59645
141.081 16.029 2.95928
133.888 17.216 3.1566
142.233 18.9715 3.4483
138.546 17.1231 3.1943
132.986 17.8716 3.38466
140.622 18.7431 3.62332
142.211 18.42 3.61864
138.868 18.845 3.60242
123.301 16.2952 3.2421
128.069 19.2609 3.86919
114.636 15.7733 3.22462
134.797 18.6128 3.68937
114.252 15.5304 3.2668
123.286 17.8484 3.64916
113.081 16.7886 3.50336
133.179 19.9893 4.05012
122.889 17.6013 3.78139
123.889 18.2267 3.81681
121.212 20.6049 4.45934
113.739 17.158 3.91592
117.503 19.6765 4.27978
106.155 18.3761 4.18279
131.632 18.4483 4.15037
110.404 16.5547 3.78492
123.587 18.1869 4.10205
98.5187 17.0031 3.99846
116.27 20.7898 4.7264
115.878 17.5976 4.19655
105.964 17.9129 4.1768
104.35 18.1227 4.34046
112.263 19.4029 4.65594
94.841 16.8749 4.16441
110.731 19.4763 4.78927
110.607 18.7617 4.64765
100.69 18.5797 4.67401
96.4555 18.3168 4.55226
104.906 19.5433 4.9608
100.881 17.364 4.31985
84.7057 15.6049 4.10301
99.9628 18.3006 4.80792
101.767 18.0994 4.78796
91.728 17.0363 4.48753
100.967 20.859 5.47227
88.0127 17.407 4.80136
95.0612 18.3923 4.98482
104.364 18.341 4.98925
100.255 19.4531 5.13323
103.863 21.1514 5.86707
87.8773 17.5861 4.91337
94.0361 19.4205 5.5698
90.6239 16.8547 4.64606
86.85 19.7496 5.88329
99.1307 22.5603 6.39439
98.5459 20.9794 5.94071
94.6159 18.7996 5.65546
101.928 22.3379 6.51001
92.8008 18.6468 5.52251
88.9504 18.7797 5.57817
93.669 18.9298 5.73059
82.6435 16.8953 5.20065
88.8157 19.6446 5.97895
98.8204 21.9283 6.73104
83.5818 18.6111 5.82062
87.7636 21.3997 6.69498
74.9748 16.4364 5.16247
85.3821 19.3365 6.28546
86.6773 20.5204 6.45836
83.6546 19.2729 6.11329
80.1801 20.6215 6.66096
88.507 19.7422 6.52777
84.1429 20.0442 6.54814
86.6015 20.3567 6.88235
66.2744 16.3246 5.46603
69.5419 16.5574 5.66038
83.0292 20.3237 7.01915
86.0201 19.9541 6.76596
70.3028 17.8046 6.1935
75.6749 17.1521 6.10442
67.9344 16.1216 5.59452
68.5461 17.8175 6.22645
77.3896 21.282 7.62013
77.5888 21.2289 7.59595
65.5065 17.0357 6.13998
72.8969 18.9114 7.05324
70.4574 18.9884 6.80364
71.2927 18.0781 6.81405
68.7173 17.2173 6.39642
63.88 17.2761 6.56027
65.4642 14.9941 5.61134
71.879 20.744 7.89656
65.2236 18.0102 7.10213
72.9946 21.2238 7.85006
66.7868 17.3392 6.73446
68.6344 18.9451 7.08815
66.4936 18.3001 7.31839
75.811 22.7356 8.87524
64.4819 18.2293 7.05865
67.7358 18.2108 7.27408
69.4191 17.4811 6.88928
71.0098 21.1944 8.74607
62.9905 19.2892 8.00473
66.3598 17.4657 7.45939
59.4894 19.1695 7.78549
61.7036 19.2332 7.85865
58.778 16.5563 6.88991
65.2027 19.0505 7.97189
64.0628 19.4263 7.93473
62.2686 21.0039 8.89313
60.397 18.2225 7.68081
59.3481 18.9082 8.31256
60.6185 19.0458 8.12237
54.2078 17.2837 7.40934
65.6674 19.2989 8.49501
60.3484 18.138 7.85936
58.6809 18.0906 8.19029
60.9065 19.4716 8.70524
59.2342 18.2342 8.39483
65.8306 20.8391 9.04191
55.2756 18.3781 8.44964
66.0972 20.5181 9.4777
58.4294 18.3769 8.7032
66.3272 20.4954 9.31512
62.7403 20.4913 9.65073
59.6983 18.3666 8.65295
56.7702 18.5394 8.54178
54.494 18.2605 8.7921
60.3334 20.0863 10.0544
53.123 18.9098 8.95233
58.3096 20.5782 9.85822
56.7168 18.9328 9.02758
53.7188 18.9664 9.35038
56.3019 18.6476 9.17092
49.9518 19.1977 9.52914
58.3593 20.1783 10.0641
53.4204 20.0633 10.2457
51.6123 18.3805 8.68556
50.9228 18.9462 9.64453
48.0665 19.1634 9.84316
58.1565 21.0256 10.5298
55.9404 20.329 10.4282
44.3008 17.4194 9.04367
50.5795 18.3224 10.0181
60.4369 20.3444 10.4349
50.2214 19.6503 10.1125
48.7043 18.7094 10.0086
49.841 20.4707 10.8116
51.1067 19.599 10.289
46.4855 17.3527 9.25822
43.6329 16.7017 9.04762
49.9656 19.1691 10.8047
50.02 17.1163 8.90817
53.2474 21.5516 12.2268
49.9205 17.675 9.49718
47.9229 19.6309 11.2806
49.0432 18.554 10.183
45.6744 16.1287 9.29217
50.6826 20.8415 11.59
46.602 19.8609 11.2148
44.935 20.1797 12.138
46.5061 19.1923 11.0826
46.242 17.8691 10.2544
40.1722 15.4613 8.63463
44.397 19.6411 11.7232
44.5705 19.7165 11.1057
40.6231 18.0837 10.5988
46.3673 18.7811 11.312
46.1946 18.5961 11.5349
40.0519 17.7587 10.7012
46.2171 18.3027 10.563
40.0792 18.6824 11.5521
46.1062 18.3492 10.9886
42.8506 19.3392 11.4699
43.6168 19.5934 12.1979
35.759 16.6717 10.6721
47.0485 20.322 12.379
40.5263 17.7535 11.4304
46.5785 20.4304 12.2558
41.2038 17.6551 11.6367
42.7446 20.7113 12.8435
45.6529 20.8113 13.0439
43.3796 19.9036 12.5315
38.7444 16.1775 10.1664
37.1464 18.0043 11.4302
43.1486 17.7254 11.9363
39.2607 18.1707 11.6655
37.3744 18.6578 11.8257
37.1468 17.7765 11.9979
39.9624 18.9066 12.5825
36.9636 17.8305 12.0842
40.1328 18.578 12.6985
36.8971 17.9136 12.1611
41.0375 18.2142 11.9156
36.0262 17.3525 12.4351
38.8779 19.31 13.1176
41.0164 20.0584 13.8259
44.6628 20.452 13.6011
34.1819 17.543 13.072
42.8547 20.4322 13.9445
33.6984 18.2261 12.6551
34.4708 17.8293 12.9618
38.9673 18.9241 13.5442
41.2305 19.3813 13.4591
34.1348 16.3971 11.637
31.6625 16.5425 12.1109
34.7186 18.0104 12.7342
42.8929 20.7856 15.2869
36.6119 19.7777 14.471
36.3074 18.4818 13.6583
33.732 17.8398 13.4169
35.7235 18.4074 12.8218
38.8908 17.9207 13.1969
35.6527 18.4988 13.8362
33.2664 18.0802 13.4628
39.7881 19.1572 13.8901
33.6407 17.925 13.3191
32.3307 17.6514 13.5167
34.0149 18.5946 13.88
33.0184 16.3749 12.4753
32.006 17.5913 13.5362
30.3009 17.3444 13.6127
39.2832 19.4447 14.8775
38.229 17.9078 14.1006
33.6876 18.3205 14.1631
35.6969 19.9437 15.3042
37.8231 20.9363 16.9052
34.2169 17.8738 15.0948
36.7838 21.2642 16.4279
36.5277 20.7014 15.8751
28.0241 16.7948 13.561
30.5137 17.7175 14.087
29.7702 17.3733 14.4138
31.9041 18.3659 15.2599
32.6274 17.5333 13.7054
27.3799 15.344 12.6467
31.2628 17.3584 14.323
33.3462 18.9317 15.6984
32.8648 18.708 15.4371
34.3125 20.141 16.23
30.8963 19.3077 16.4339
29.8652 17.6926 14.8761
30.1985 16.6192 13.6587
31.6708 18.5519 15.6227
28.6445 21.3525 19.9087
33.2714 18.2945 13.9539
29.8094 17.2896 14.9688
31.8889 19.302 16.5069
29.9981 17.7489 15.2845
35.6681 20.1524 17.7254
26.7372 17.4955 15.0752
31.4479 20.082 17.9159
29.2935 18.826 16.0104
28.9294 15.7683 14.0787
28.5357 18.6175 17.1633
30.3325 17.8072 14.7999
29.4356 19.5875 17.1837
30.8418 22.1777 19.8123
28.186 17.2446 16.1227
24.6176 18.6873 16.1378
28.5052 17.9245 16.1262
25.5358 18.2216 18.2907
32.8944 17.7753 15.3717
28.4529 18.103 16.5162
27.9031 17.3784 15.9548
26.4405 19.4562 18.3053
30.7769 18.6201 17.3316
24.2793 16.1999 15.0422
34.7618 20.5451 19.2871
27.4562 17.3087 15.9504
25.9537 16.1606 15.0565
24.4435 16.3704 15.8364
25.9061 18.5952 18.0405
26.215 18.4258 17.0023
29.179 18.2123 17.9894
27.0169 17.5257 17.5257
27.1799 17.1364 16.5708
30.814 20.0874 19.0388
26.1537 19.0836 18.3924
24.3028 16.9142 17.8761
25.0561 17.1125 16.4228
29.0556 17.0581 16.0131
26.7011 18.9116 18.3125
25.5508 17.9101 18.776
26.6237 15.3987 16.275
26.7256 20.7985 20.2032
26.6953 15.6576 15.1354
24.521 17.572 18.0086
26.068 18.3455 17.6781
25.9793 18.1122 19.5615
26.0413 18.9711 18.8627
25.2044 19.7989 20.3461
26.0894 18.7087 19.0701
25.7942 19.9939 19.7858
22.1725 16.0031 17.208
24.2429 19.1125 19.6726
26.3203 17.8263 18.141
25.6268 18.416 19.3844
23.5303 16.6413 17.1074
22.1161 16.0799 17.1156
27.5415 18.0215 17.6491
18.8846 14.1929 15.6166
24.8878 19.3838 21.668
26.5264 16.463 16.6914
26.1215 20.3428 21.0585
24.8413 20.8311 24.2958
24.4605 18.9584 20.3687
23.3132 18.9497 20.0622
23.6435 16.4428 19.273
26.8209 18.2941 19.636
23.9997 16.199 17.3609
22.0351 17.3636 18.7719
20.2367 15.4143 17.1512
19.0742 16.2106 18.4736
25.2005 17.0357 18.5237
20.2543 15.3138 16.8093
22.7107 16.8039 18.6073
22.6938 17.8968 19.3591
23.1058 17.5226 20.9254
23.3699 18.4615 21.0003
21.5804 18.4221 20.9968
21.326 16.8907 19.387
22.8623 16.7213 19.8017
22.4235 17.9892 20.6665
25.0866 17.2823 19.9616
18.5901 15.9791 18.662
23.0397 19.2633 21.8666
21.5006 16.6465 19.2334
20.1058 17.1389 19.5049
21.9477 17.3447 20.9659
21.0429 15.5826 17.8319
22.7247 19.4498 23.767
21.0981 14.9414 17.5466
19.1633 17.0767 20.0282
21.8681 17.2127 18.42
21.9319 18.7406 23.4061
19.4232 17.3684 21.6804
21.0293 18.3882 21.4337
19.7911 17.1919 21.3006
20.1433 16.5523 19.9961
22.3205 17.6341 21.1089
19.1544 17.2363 21.8296
21.0222 17.1407 20.5369
18.9041 15.8638 19.293
19.7659 16.3064 20.9253
20.3576 17.6446 20.7513
19.8009 16.1972 20.729
20.531 18.4681 23.2272
19.8883 16.866 21.3542
18.3357 15.4049 19.1597
19.2371 16.3469 19.546
19.1824 16.3539 20.8968
19.7315 17.653 21.083
20.6362 16.8956 21.3648
16.8591 14.1697 20.0965
20.6123 16.8101 21.4372
20.6232 16.8084 21.0218
19.3465 17.962 21.3993
16.967 15.9581 21.4871
19.3642 17.0722 22.6304
16.6542 15.0649 19.2619
21.604 18.867 24.7442
19.794 16.7693 21.4915
18.6875 16.8283 21.4201
18.5981 17.0164 22.9284
17.1709 15.7038 21.0684
20.9689 18.1308 23.7563
19.1614 17.0446 21.9437
16.503 17.7007 23.9875
19.4796 17.3249 22.995
18.7446 17.8123 24.1251
22.4986 18.7636 24.9256
20.5875 20.7197 28.724
21.7302 20.0785 25.4616
19.8037 18.4938 24.484
19.3878 20.5988 28.3919
17.7059 18.813 25.4781
19.9796 16.6457 23.2804
17.8544 18.7709 25.3771
16.6533 16.2107 23.1916
17.8103 17.1638 23.9692
19.4828 20.3929 28.2142
22.162 19.2258 25.0786
16.2345 15.8493 22.8872
17.1813 14.6171 21.2105
18.6281 18.2204 25.3681
15.3599 14.2952 19.7209
16.825 17.0719 24.2568
17.6613 15.1163 21.2063
17.1971 17.1671 24.6811
18.0267 17.1925 23.7254
18.2745 16.1409 23.6358
14.3099 14.1752 20.6608
16.8358 16.1242 23.887
17.8374 16.9064 22.6171
17.2049 18.0075 27.2051
15.9133 15.8781 22.3605
15.4433 14.6852 21.4013
16.327 15.3797 22.9196
17.1665 17.2098 24.9402
14.9541 15.9858 23.7869
18.1577 16.8309 25.2375
15.7244 16.0655 23.1615
16.4455 14.3267 21.2923
15.2827 15.4145 23.2861
14.0226 14.6631 23.2524
18.8649 18.1458 25.4107
16.0068 16.983 24.7441
14.974 17.3885 27.5641
19.7949 17.8914 25.3289
15.405 16.0688 23.586
14.7154 16.0766 24.2823
18.451 17.7006 25.2568
15.5285 17.5727 26.4818
14.0043 14.1925 23.4543
17.6491 20.5442 32.2164
17.4924 16.8734 26.9741
17.2642 18.0457 27.998
16.939 18.1143 28.2614
16.2602 15.919 24.3621
16.5802 15.3357 22.8481
15.4863 17.3206 26.6155
14.2687 15.5292 25.514
14.5336 16.4636 26.0924
15.4848 16.8859 24.6891
16.952 14.787 22.4692
15.9941 15.8113 23.8654
15.5259 15.7687 25.4279
15.7291 16.3982 23.9457
15.353 18.0216 29.3637
15.7465 16.8604 24.8769
13.8952 15.5537 25.3828
14.7996 15.9645 26.171
19.0045 20.5634 32.4617
14.3373 17.5948 25.9382
15.0405 16.7893 27.7914
15.435 16.2535 26.1549
13.2213 15.862 28.1212
15.2501 16.0572 25.5589
14.7234 16.7749 27.4227
14.8284 17.3626 28.1945
17.4329 20.1862 31.8141
13.8249 16.9916 25.6922
13.9913 14.9446 25.2506
15.0378 15.4927 27.0625
13.0665 14.9813 24.0131
16.3082 18.1757 31.0144
13.8354 15.2982 26.7669
13.872 15.8764 25.794
14.2032 16.3893 27.2208
13.5801 15.6636 26.7989
14.183 17.4053 28.9396
16.118 16.1453 27.6448
12.6738 13.7613 24.5466
13.4583 14.1731 24.2786
13.9235 15.9108 26.9939
14.2004 16.3068 27.9634
14.7867 15.4121 28.5372
13.3686 15.5186 25.6975
15.5327 16.5581 30.9311
15.8299 17.8672 30.4346
17.2562 18.4472 28.0001
13.313 14.1877 25.7807
15.5552 16.761 27.9533
14.307 17.374 28.6281
15.9934 16.0271 26.9031
12.3354 15.2458 28.2353
14.8559 15.2131 27.4104
14.9137 18.3831 31.7995
15.4329 17.1719 27.8738
15.237 16.3609 28.2317
14.114 20.7058 36.8525
12.65 15.2354 27.2862
15.7847 18.1055 30.8647
11.7017 14.6553 27.592
14.0288 15.2019 27.3498
15.4724 15.3316 27.4007
12.7551 15.738 28.4925
16.5284 16.6651 26.526
12.3846 16.2441 30.3157
14.2557 17.7511 32.5293
17.2282 20.209 38.1755
15.1032 17.3243 29.2355
14.8392 17.9717 32.255
13.3647 16.9903 32.9507
14.8424 20.9387 38.3794
17.1844 20.5099 40.5857
17.0641 22.9858 40.7726
13.2514 16.7445 30.2114
14.6447 17.1452 33.6118
14.0901 20.1993 36.5205
16.1178 20.5108 39.9807
13.5129 18.4469 37.6268
13.4803 18.276 32.4041
13.4336 15.898 28.2998
13.5589 18.8167 36.3515
13.4223 16.9628 34.6062
15.1748 17.829 28.9489
11.562 17.843 32.268
15.1571 17.4808 33.2086
12.672 14.8829 26.7855
11.6027 13.7852 27.7606
12.4483 16.2865 30.1236
11.4857 15.5938 31.7564
12.7001 18.088 34.9075
13.0605 15.3763 31.0904
13.5575 18.9346 36.9451
16.299 22.5927 40.3142
15.3363 18.2806 34.0908
13.5099 18.4094 36.6295
14.8505 21.3641 43.9777
16.0214 22.3137 38.3257
13.6214 16.2066 31.8376
11.9 15.3437 29.1814
11.5871 15.3316 30.4737
12.2156 15.353 28.7853
12.7574 15.6715 31.0123
11.1815 15.6071 29.7937
11.5375 13.3374 26.5546
11.1735 15.5929 30.9745
12.0918 15.7972 31.5233
12.5037 15.0053 27.8206
10.9834 16.0214 34.409
11.9961 15.0558 31.1849
12.0496 17.814 33.6405
11.808 16.5648 32.864
12.1769 17.2872 33.7861
10.9574 15.8566 31.4774
12.565 15.2185 29.1189
10.7514 15.9608 31.3233
10.5048 15.8474 32.9396
12.461 15.9258 31.3499
10.9683 13.4977 30.1381
10.6275 16.3955 34.6484
12.2719 15.6154 32.5539
10.9918 15.2671 30.2456
12.0349 15.2591 28.7058
10.8896 14.3468 31.3557
10.5666 15.9422 34.4204
13.062 14.6834 28.2594
11.3063 17.1976 37.3264
10.6124 15.2055 32.5565
12.7032 15.717 35.022
11.8565 16.2135 33.4394
11.8465 16.6818 33.7371
12.304 16.4558 32.1408
10.2821 15.7359 33.1247
11.4508 14.144 31.7766
11.8317 16.9243 35.8086
10.5614 14.9266 31.6221
11.8495 13.5688 28.3061
11.0253 16.3847 32.5278
10.812 15.7894 30.999
10.237 14.4995 30.0365
9.91059 14.081 32.1982
11.0847 14.5194 29.568
11.1257 17.2298 41.3874
11.1141 13.736 31.6088
11.3502 14.632 29.4092
10.0211 14.9536 31.0872
11.5684 15.1145 31.4506
10.5498 16.8279 35.5963
11.7464 18.0264 41.8376
12.3581 17.3181 36.5588
11.5423 15.2278 30.7526
9.92442 16.9695 39.0847
11.1311 15.9232 32.0066
8.42989 13.9298 32.8414
10.4504 14.7584 32.0726
10.5784 14.137 32.6963
11.3746 16.7559 34.304
11.8628 13.6564 29.2878
10.6923 15.0389 31.817
8.6863 13.6432 30.7546
11.3 15.7005 34.5129
9.4673 14.5795 36.2598
12.3741 16.9065 35.4312
10.8186 15.2465 32.1928
9.30859 14.2011 34.0649
11.1109 14.7441 32.1516
8.95293 12.6767 29.0227
9.67648 12.9734 30.0609
11.4663 17.0631 37.8405
9.64485 15.4296 32.2183
10.2567 13.5593 31.7889
10.0462 15.8049 35.2038
8.28043 12.0963 27.0126
9.27604 13.5507 31.583
10.9631 15.9112 33.2076
9.91156 16.0967 36.3241
10.6906 15.2363 35.6397
8.74887 14.216 34.7569
9.46514 13.3416 31.083
9.51084 14.5605 30.073
8.40059 12.8068 30.5408
10.5871 15.0195 34.1258
9.9714 14.6381 32.9151
8.87645 13.7293 33.5471
10.0931 14.7595 34.9543
8.22943 11.394 27.2399
8.8906 13.8337 33.4207
10.0132 14.5213 35.2339
9.13369 15.5309 34.5162
8.65287 12.417 29.4615
9.06851 13.5204 29.4836
9.47473 15.7628 36.6996
9.88896 14.6605 35.0677
8.82686 13.8465 31.1695
9.24969 12.7183 31.1425
8.8577 12.9546 35.6127
10.7606 15.2777 33.2197
9.9517 16.2762 37.6095
9.09369 14.0574 36.9802
10.9061 15.8515 36.519
9.61181 13.4692 32.4516
9.0476 13.9647 30.5159
8.70771 13.5448 31.4998
8.33988 12.5175 35.0903
10.329 13.4639 30.4285
8.79116 14.2698 33.4167
9.05517 14.0069 30.8678
8.4274 14.4163 33.1988
8.99827 11.3864 29.6866
8.35322 12.2264 31.0058
9.63299 14.1913 33.5556
9.34259 16.0114 35.834
8.39957 13.6062 33.8102
10.0161 13.7755 34.0317
7.79184 13.8707 32.7452
8.27642 13.3711 36.8519
9.9407 15.2581 37.3468
8.17636 13.9501 34.7477
9.11106 15.2067 38.4466
9.85036 15.6284 40.6397
