# pn-170911/RbIIA-35-RbIIR-1280-1959.psd
# Power spectrum* (dif=0,1,2) (really just |FT|^2)
# NOTE: only the first half! (symmetric)
# weeks: 1280-1959
# 1433 clock-days, 488 excluded
# PSD: 1441
31094.9 0.550774 0.0202687
3.00315e+06 69.6352 0.0129188
5.21002e+06 83.8569 0.0147988
1.38683e+06 33.6581 0.0128727
575519 21.872 0.0136588
344627 14.4754 0.0130869
199660 10.9498 0.0131856
134701 7.7401 0.0150467
106012 7.26484 0.0139545
82018.5 7.0175 0.0140384
61034.7 5.76797 0.0146324
53849.4 5.6096 0.0152894
43775.7 4.84633 0.0151997
35554.4 4.49765 0.0162532
32208.7 4.6325 0.0152514
26231.6 4.11273 0.015811
24328.2 5.0441 0.0192749
19854.7 3.07351 0.0167154
18292.3 3.2855 0.0168756
15879 3.16272 0.0175919
14576.1 3.33605 0.0184308
12906.4 3.1852 0.0184154
11781.4 2.73826 0.0187799
10725.1 2.68773 0.0178643
10261.8 3.10059 0.0203121
8938.89 2.63511 0.0204501
8600.39 2.95863 0.0210361
7979.39 2.81988 0.0226268
7390.64 2.83264 0.0222288
6751.09 2.76423 0.0227106
6312.83 2.4506 0.022525
5883.53 2.4444 0.0237648
5727.58 2.83979 0.0258009
5177.02 2.67467 0.0257088
4933.43 2.66214 0.0263345
4556.39 2.59548 0.0265982
4418.58 2.68687 0.029681
4186.49 2.77201 0.0303886
4035.95 2.89218 0.0316529
3847.31 2.72142 0.0306779
3680.29 3.16526 0.0359765
3460.31 2.92171 0.0348481
3238.12 2.83651 0.0363084
3081.47 2.72197 0.0359444
2966.1 3.05252 0.0390705
2883.78 2.95569 0.0423681
2724.24 2.99367 0.0419896
2621.87 2.94135 0.0429793
2579.71 3.48392 0.049639
2492.96 3.22044 0.0491232
2272.76 3.11767 0.0492678
2262.92 3.45788 0.0552934
2162.91 3.26376 0.0525137
2107.63 3.72711 0.0626522
1975.41 3.5275 0.061577
1908.49 3.4014 0.0613162
1840.5 3.38822 0.0619124
1814.47 3.47611 0.0676716
1723.45 3.53639 0.0678115
1692.36 3.79741 0.0760805
1624.24 3.73177 0.0767619
1639.96 3.82408 0.0801417
1543.14 3.83584 0.0813048
1508.66 3.95717 0.0862093
1466.91 3.92467 0.0885646
1427.75 4.06245 0.0958239
1373.83 3.80669 0.0909095
1322.18 3.98104 0.0956345
1344.77 4.30819 0.105312
1262.64 4.51939 0.114452
1241.7 4.2034 0.114436
1225.91 4.64903 0.122748
1160.01 4.47731 0.12266
1166.21 4.51138 0.124524
1120.11 4.51355 0.131567
1103.06 4.69846 0.140419
1078.53 4.71183 0.141107
1053.96 4.81427 0.147211
1002.66 4.78591 0.153873
1003.26 4.91661 0.155041
965.485 5.38642 0.17761
938.512 5.3015 0.176799
925.354 5.25767 0.17581
931.811 5.38888 0.194212
886.965 5.25101 0.193182
874.252 5.35975 0.195264
840.907 5.11183 0.192077
835.389 5.38077 0.207184
823.97 5.45936 0.214044
807.722 5.81705 0.235735
750.135 5.84947 0.239453
758.582 5.92349 0.245998
742.044 5.98125 0.252646
737.234 5.8078 0.249365
749.317 6.16899 0.274701
703.406 6.29663 0.285718
707.357 6.66812 0.302808
677.698 6.21768 0.290019
687.096 6.45391 0.313128
663.061 6.50786 0.313491
659.216 6.55832 0.328535
630.53 6.53365 0.331029
637.215 6.74795 0.344813
608.683 6.53796 0.342662
606.422 6.80484 0.358165
605.377 7.04684 0.381035
589.406 6.91983 0.380079
598.607 7.19042 0.406346
574.242 7.18152 0.407974
555.835 7.24899 0.424047
539.141 7.23432 0.425379
550.754 7.20251 0.4347
535.447 7.69268 0.470249
522.471 7.30883 0.451575
529.448 7.73804 0.492156
522.553 7.71535 0.497355
505.725 7.76532 0.51386
495.473 8.32355 0.550978
487.353 8.10602 0.544749
501.03 8.39848 0.576298
483.9 7.60165 0.524875
466.731 8.22744 0.586005
466.029 8.5499 0.616097
449.43 8.52499 0.626079
468.705 8.92672 0.667152
445.97 8.99725 0.684613
438.247 8.97458 0.684197
429.221 8.61248 0.665609
437.431 9.19652 0.722935
417.966 9.41581 0.744122
420.742 8.81493 0.724703
416.087 9.35662 0.767655
404.805 9.80085 0.815191
405.274 9.48578 0.810106
403.993 9.49641 0.821384
397.723 9.63599 0.842695
381.177 9.694 0.862724
382.958 9.3857 0.844267
380.327 9.97376 0.91543
382.658 10.0639 0.935469
368.182 9.94018 0.93932
371.218 10.223 0.973754
351.531 10.124 0.965363
358.984 10.211 1.00791
368.899 10.4674 1.03448
358.615 10.6626 1.06845
343.798 10.0491 1.02063
350.576 10.2918 1.07902
331.516 10.8077 1.12758
336.744 10.6522 1.12077
325.604 11.1294 1.19367
334.77 11.279 1.22864
316.431 11.1897 1.22803
327.478 11.2098 1.26284
317.765 11.3398 1.28212
303.472 11.5943 1.32292
303.404 11.3883 1.32196
305.358 11.0938 1.31263
302.037 11.3279 1.33038
310.089 11.8494 1.42591
296.974 11.4961 1.41315
288.524 10.828 1.32532
292.928 11.2319 1.40614
293.641 11.7388 1.47758
283.822 11.8129 1.51772
281.694 11.8093 1.52694
284.021 12.389 1.6301
293.18 12.2998 1.62447
271.516 12.1804 1.62742
280.845 12.0975 1.64978
267.768 12.2623 1.6659
267.538 11.9014 1.67085
261.628 12.5542 1.75482
262.599 12.48 1.77088
262.819 12.5622 1.81391
250.654 11.8326 1.71573
259.794 13.0146 1.9089
252.968 12.8411 1.90815
243.859 12.5809 1.89876
246.707 12.9019 1.94142
238.288 12.9153 1.99371
245.706 12.8823 1.97869
241.587 13.0626 2.05766
236.945 13.0953 2.07545
234.101 12.633 2.02362
225.228 12.3017 1.99375
230.05 13.3506 2.18966
229.621 13.7503 2.27404
222.024 13.7353 2.32699
228.451 13.944 2.34089
234.342 14.0603 2.40176
221.83 13.6305 2.35359
217.524 13.662 2.39943
227.678 14.5293 2.52846
220.339 14.5742 2.59164
219.33 14.5942 2.60943
220.366 14.6763 2.65185
208.54 14.1987 2.58364
205.117 14.2294 2.64444
212.257 14.5496 2.70814
213.946 14.97 2.83251
205.937 14.461 2.7425
206.738 15.7186 3.05718
199.521 14.9891 2.9003
202.561 14.546 2.84947
198.546 15.4452 3.03704
201.583 15.4323 3.12734
198.18 15.3001 3.07262
198.264 14.9757 3.0306
200.381 15.628 3.19715
186.761 14.5995 3.0143
191.049 15.1216 3.14452
193.215 15.1286 3.19737
185.795 16.0415 3.40814
186.539 16.2278 3.51792
191.359 16.4118 3.55403
182.016 15.0231 3.27096
176.464 15.5581 3.47208
178.682 15.6053 3.49847
182.481 15.6147 3.48429
174.918 16.0853 3.67343
177.71 16.1539 3.70745
174.552 16.3133 3.76347
173.653 15.3038 3.60168
172.617 16.1309 3.79593
170.992 15.9702 3.76653
173.968 16.0548 3.86779
167.631 16.541 3.96833
165.776 16.1575 3.9188
166.228 16.4629 4.04798
167.746 16.661 4.11105
165.371 16.8096 4.18935
164.669 16.997 4.27256
161.104 16.2437 4.11756
154.678 16.828 4.33328
158.97 16.8505 4.33576
162.83 17.3227 4.51298
157.975 16.7498 4.41338
152.393 16.9967 4.48558
158.339 18.0034 4.76866
157.742 17.2297 4.61401
154.639 17.007 4.62539
149.607 16.4979 4.56326
150.472 16.8151 4.58641
152.309 17.172 4.73411
150.022 17.9226 5.0766
148.498 17.8543 5.03818
143.891 17.8148 5.07888
141.943 16.9808 4.86956
149.122 17.8719 5.18275
140.421 17.3854 5.03485
145.102 17.9285 5.31777
145.122 17.5448 5.19138
144.269 18.325 5.41032
139.7 17.8197 5.35943
149.534 18.9302 5.67856
137.164 18.2773 5.63817
141.492 18.9824 5.81348
132.398 17.5868 5.38159
140.243 18.5569 5.78596
133.152 17.648 5.61349
139.97 18.7525 5.95021
137.009 18.943 6.0391
130.902 18.2723 5.82505
136.501 19.1932 6.21368
130.936 18.3085 6.00672
126.005 17.4991 5.73223
127.997 18.9004 6.27077
124.641 18.2745 6.10897
127.115 17.5154 5.878
126.178 17.9289 6.06812
132.374 19.1524 6.4526
127.507 19.5001 6.74055
124.656 19.1602 6.58126
124.982 19.7135 6.89874
120.662 18.205 6.37829
125.631 18.3014 6.51633
127.752 19.1532 6.71415
125.257 19.4467 7.06321
117.991 18.8484 6.7508
124.051 18.8456 6.81446
118.976 19.088 6.93071
121.143 19.0613 7.09279
118.179 19.7521 7.23075
118.046 19.1762 7.24083
115.38 18.9974 7.11926
117.441 19.1851 7.2215
115.414 20.035 7.66204
114.653 19.5268 7.38657
114.679 19.6628 7.5815
116.145 19.2639 7.40143
116.875 19.7686 7.76114
113.835 20.0805 7.83831
113.964 20.2696 7.91128
109.864 19.8503 8.02643
111.284 19.248 7.81797
110.783 19.7809 7.91733
112.688 20.0382 8.06437
104.769 19.5698 8.02463
104.877 19.8526 8.2411
110.925 20.2108 8.33881
104.972 19.9441 8.35488
105.216 19.0193 8.04993
110.035 20.7993 8.7143
108.495 20.4965 8.68716
103.927 20.3241 8.67958
100.018 19.4743 8.329
101.781 19.6047 8.45127
99.299 19.1765 8.31536
100.864 20.5831 9.09236
102.357 19.7275 8.64573
101.918 20.3282 9.06171
103.705 19.9955 8.85549
100.908 19.6567 8.9489
101.217 20.0773 9.05864
97.0639 19.1315 8.76089
100.24 19.9627 9.13979
95.2863 19.9931 8.99599
96.5868 19.9504 9.26935
95.0587 20.2517 9.4195
94.2938 19.5758 9.27933
94.7966 20.123 9.40651
96.0315 19.4382 9.23359
89.887 19.8953 9.57652
90.2813 19.0341 9.20794
95.2172 20.759 9.81448
90.9222 20.4236 9.98457
92.7539 20.5419 10.1732
92.7926 21.1551 10.3481
86.1931 19.8797 9.9138
89.2358 19.6694 9.73508
87.7268 19.1801 9.62937
88.6375 19.3718 9.70875
89.2846 20.1952 10.254
84.3105 19.5432 9.90887
84.2851 19.4121 10.1273
87.4396 20.2465 10.3405
89.2715 20.0339 10.2736
86.3908 20.0518 10.2367
84.8607 19.9067 10.5951
88.1458 21.3934 11.1413
81.9228 19.3087 10.1446
85.7057 21.5468 11.4446
86.6061 20.9316 11.2154
82.899 19.4984 10.72
83.0818 21.0424 11.287
80.761 21.3157 11.5917
86.2551 20.9629 11.4835
81.8765 20.4063 11.3154
83.4119 21.2958 11.8436
81.3764 20.4269 11.421
83.4659 21.7545 12.1291
78.9729 20.7527 11.7224
80.3083 21.6254 12.0801
80.7075 21.1104 11.9437
78.8991 20.5686 12.0022
80.711 20.9241 11.8118
79.139 21.849 12.7076
78.729 20.4179 11.8813
78.0436 21.3133 12.3813
78.8646 20.9079 12.2214
77.8173 20.8227 12.2912
74.4951 20.672 12.2615
78.1933 21.182 12.5606
75.2116 21.8647 13.0376
77.1379 20.8828 12.5588
74.8296 20.2215 12.2927
72.6253 21.4519 13.0312
74.6828 21.5949 13.1774
75.2215 21.1529 12.9323
72.0696 20.3899 12.6026
74.0451 21.7542 13.723
74.0642 21.4073 13.2184
71.9366 21.286 13.3883
71.9991 20.9766 13.164
72.1949 21.5909 13.8112
73.2847 21.2837 13.4401
70.5726 21.4046 13.8452
71.0206 20.3083 13.1139
71.5077 22.058 14.0667
69.5832 21.7401 14.3061
70.2764 22.1165 14.2765
70.8318 20.598 13.3168
67.8637 21.4294 14.0158
68.7923 21.0039 14.0142
68.904 21.5822 14.4129
71.0231 21.7685 14.7921
70.6023 22.3378 14.8661
70.4277 22.4944 15.3164
69.0003 20.9023 14.1854
70.7318 22.7667 15.6818
69.3499 22.4874 15.2719
69.9739 21.2759 14.8536
68.4591 21.3465 14.6065
63.5727 21.4462 15.0022
64.6159 21.2346 14.5702
63.4889 21.212 14.8304
63.4728 20.7616 14.7608
65.9043 21.4063 15.196
63.9629 21.0028 14.8914
65.0949 21.8418 15.5226
65.5995 22.3118 16.182
62.8522 20.9487 14.9588
63.1832 21.2132 15.4307
63.8704 20.7175 15.1523
61.6831 20.6824 15.3996
63.4836 20.6113 14.9586
63.9116 20.7756 15.2796
62.5098 21.4926 16.1331
61.4784 22.6236 16.6057
61.1735 20.9505 15.6793
61.2204 20.709 15.4377
63.8666 21.3948 16.4472
61.0818 21.2419 15.9455
61.7196 20.8187 16.1344
57.1048 19.8933 15.436
60.1674 20.0737 15.4222
58.9974 21.0436 16.0909
57.7021 20.3658 15.9011
57.0845 20.6653 16.2178
60.9269 22.0887 17.192
57.5059 20.9143 16.484
56.7017 22.0326 17.2219
57.9101 21.8413 17.3531
57.3017 21.3384 17.0697
56.768 21.1693 16.8913
57.0537 21.2039 17.0954
56.7518 20.9588 16.8991
57.2245 21.8388 17.6544
57.1392 21.3984 17.4363
56.0308 20.8856 17.1006
55.3884 21.4409 17.3581
55.5656 20.442 17.0102
52.3715 19.5796 16.3697
54.8879 21.0312 17.1145
53.2632 19.9957 16.8276
53.2716 20.9606 17.4821
53.8876 20.302 17.2108
55.3658 20.9302 17.8143
52.1372 20.296 17.2174
55.3957 20.9781 17.8998
52.9914 20.9374 18.0184
53.8241 20.5751 17.8465
50.6755 19.9904 17.1519
51.7026 20.4104 17.862
51.6108 21.0875 18.2188
49.8747 20.4004 17.7222
50.6953 20.2902 17.9508
50.2284 20.6408 18.4799
49.5635 20.2889 18.2252
51.4529 21.0059 18.317
49.6962 20.5423 18.4487
48.9521 20.1782 18.2183
50.9928 21.1787 19.011
50.5715 20.4656 18.6385
49.4799 20.6202 18.5184
48.0459 19.7855 18.0219
49.1437 20.3426 18.499
49.6108 21.3589 19.6452
48.5364 20.7326 18.9523
49.2465 20.7711 19.2815
50.0525 21.5579 20.0766
48.814 20.5774 19.4093
49.3369 21.2782 20.0118
48.8178 20.7529 19.8129
47.3164 20.4619 19.1597
47.5141 21.4445 20.6829
47.3825 21.6714 20.819
46.1958 21.5968 20.7237
48.3949 21.7675 20.6876
47.1998 20.4274 19.2962
45.7526 19.6688 19.3626
46.4322 20.4008 19.4665
46.9355 20.4762 20.2403
45.7866 20.0713 19.5331
45.1043 20.0623 19.6944
46.9538 20.8752 20.145
43.3378 20.2655 20.0381
44.6965 20.6875 20.5156
46.3262 20.3486 19.9906
43.5647 20.5795 20.8932
44.4449 19.3335 19.4853
45.7809 21.3289 21.4126
42.4733 20.6086 20.6539
43.113 20.9931 21.732
42.9111 19.9945 20.5254
43.6637 19.5536 20.148
43.011 20.3142 20.7747
43.3208 20.8468 21.6349
42.1809 20.1614 20.3988
43.8494 20.1721 21.0306
43.2034 19.8054 20.664
42.4897 21.0113 22.0958
43.0953 19.8719 20.4917
41.4158 19.9518 20.8644
41.1175 19.8238 21.6993
42.2825 19.2962 20.5278
39.6172 19.645 21.3251
42.0711 19.823 20.869
40.4097 20.2599 21.5497
40.8888 19.5998 21.2102
40.4521 20.8612 22.336
42.2051 19.9699 21.3489
40.244 19.5788 21.428
41.0144 20.3275 22.0263
40.0551 20.6322 22.4074
41.5492 20.7432 22.806
40.5985 20.7498 22.7018
39.6481 20.0242 22.5297
40.5053 21.1212 23.5297
39.7991 19.7091 22.0876
37.4681 19.3778 21.4734
38.9645 19.5131 22.0777
40.2012 21.1791 23.2175
40.3784 20.1181 22.9773
40.23 21.1287 24.2445
37.2917 18.4621 21.1378
38.7357 20.7778 23.6999
38.2795 19.4866 22.5612
38.1574 19.9316 22.5184
36.7315 19.0041 22.148
36.8477 19.7365 23.155
37.7052 20.1554 23.0145
37.3932 18.9523 22.5952
37.4204 19.7148 23.1749
37.0366 19.5043 22.5981
37.2582 19.8119 23.4975
38.0748 19.6588 23.2032
38.3167 20.1106 23.7808
35.8319 19.3624 22.8096
35.8458 19.1095 22.8983
37.0809 20.049 24.5998
38.0593 20.9085 25.1661
38.2872 20.4513 24.1989
35.4221 19.9103 24.2192
37.7321 20.3431 25.0169
37.9375 20.5498 25.2986
36.9665 20.241 24.7801
35.8228 19.4735 24.1921
36.6302 20.4079 24.751
35.2995 20.0511 24.7462
35.6359 20.1151 24.9408
36.3327 19.7082 24.2993
36.0062 19.7003 24.7391
34.7636 19.5031 24.6459
35.1489 19.7823 24.7358
35.6554 20.3168 25.6424
35.2532 19.8084 24.8798
34.2345 19.9485 25.5631
35.6898 19.4447 24.9242
35.7957 19.5474 24.53
34.3817 19.3842 24.3392
35.0463 19.7231 25.3042
34.6251 19.1987 24.7883
33.6285 20.4367 26.4409
32.9862 18.6273 24.2954
32.7465 18.5315 23.8836
32.226 19.2642 25.3545
34.3339 20.1931 26.1559
32.6732 19.3825 25.4997
32.1645 18.71 25.1534
34.1223 20.5323 26.9007
32.3173 19.3253 26.1722
34.807 20.1672 26.2263
32.952 20.0251 26.5277
33.0007 19.8188 26.3144
33.0697 20.0438 26.7785
32.0804 20.0597 27.3873
32.216 19.3006 25.4107
32.0718 18.6346 25.7099
33.6407 19.6837 26.3005
32.0523 18.4355 26.0622
32.7144 19.907 26.6193
31.5662 18.9579 25.9993
31.674 20.051 27.3694
30.9492 19.4143 27.14
32.5401 20.1686 27.9921
32.3279 20.918 28.503
30.5812 19.1492 26.7124
30.324 19.4026 26.901
30.2957 18.9885 27.3468
32.19 20.012 27.9651
31.3382 19.3827 27.8037
32.3498 18.8158 25.8255
30.2354 18.2499 25.6725
29.7107 19.4352 27.6425
31.3229 18.8521 26.812
31.106 19.7482 27.9913
31.1684 19.9876 28.4041
30.1732 19.496 27.8069
30.241 18.95 27.898
30.1358 18.5709 26.7615
30.082 19.1154 27.5812
29.8861 19.6972 28.8119
28.7195 18.0413 26.5449
29.2393 18.5036 26.9013
29.936 19.0664 28.0296
29.172 19.1293 27.5766
29.1342 18.8264 27.8725
28.4654 18.8268 28.1461
28.711 18.4131 27.3884
28.5444 17.314 26.3885
30.2083 19.3411 28.0489
28.0699 18.686 27.9661
30.0122 19.016 28.4068
28.6156 18.6198 28.0623
28.5725 18.8074 28.2225
27.9368 18.4315 27.7788
27.8742 18.2044 28.0432
28.1869 18.4925 27.8884
27.8093 17.1801 26.0216
28.7478 18.7563 28.2772
28.287 18.1754 27.6829
28.0479 18.0973 28.1202
26.7131 17.6202 27.0511
26.9071 18.3759 28.7627
28.1833 17.9619 27.9417
27.4397 18.1387 28.2135
27.6052 18.2945 28.3224
27.8696 18.4349 28.799
26.3125 18.1585 28.4744
26.8314 17.6621 27.5145
26.4613 18.8245 29.1328
26.1627 18.8815 30.0355
27.459 18.2399 29.345
27.1798 18.3787 28.7946
27.6506 18.6414 29.7174
26.8606 18.4698 29.5324
26.4009 18.1183 29.7412
26.98 18.4284 29.1221
26.9588 17.7316 28.723
25.243 17.357 29.007
27.212 18.4598 29.65
26.1365 17.6487 28.0606
25.9104 17.8076 28.8836
25.0016 17.1623 27.9944
26.9131 18.6576 30.5576
26.4868 18.5854 29.9685
26.266 17.6776 29.5991
25.1087 17.9695 30.0771
25.2252 18.1418 29.1106
25.2964 17.951 30.0624
25.4787 18.0405 30.3355
26.2495 18.7171 30.278
25.5733 18.0912 30.879
25.3398 17.7809 30.2199
24.9955 18.3642 30.7424
25.3829 18.0835 30.0605
24.3164 18.3469 30.7584
24.49 17.897 31.012
25.6966 18.2981 30.1676
24.7805 18.9315 32.1422
24.6513 18.2274 31.3304
24.5062 18.196 31.0129
24.6042 18.6218 31.7213
24.8806 18.4557 32.093
24.2349 17.9104 30.9747
24.7829 18.1609 30.9019
24.5346 18.1714 31.5855
24.921 18.6184 32.528
24.2938 18.0501 31.3529
24.2891 17.8344 29.949
23.7803 17.1611 30.4626
23.8002 17.3658 30.3418
23.3058 17.6486 31.5296
24.04 17.3752 31.0535
24.1677 18.5754 32.6744
23.9647 18.1272 31.6352
23.5244 18.0313 31.854
24.0391 18.8636 33.8997
23.9305 17.4676 31.0292
23.9985 17.7042 31.0499
23.2451 17.1877 30.7432
23.1112 18.1201 32.9308
23.8251 18.3554 33.2489
24.5953 17.9972 32.1544
23.9695 18.8373 33.6721
22.8922 17.2405 31.8983
23.0911 17.918 32.6585
23.0169 17.6115 32.7086
23.4558 17.7422 32.6668
23.1516 17.6902 32.3737
23.603 18.2186 32.7905
22.4062 17.3333 32.0511
23.5675 18.0177 32.9841
23.2098 17.8983 32.9078
22.5278 17.8356 33.9056
23.5856 17.6712 32.7297
22.722 17.8667 33.5863
23.1437 18.1552 33.3747
22.6971 17.2561 31.5128
21.8467 17.761 34.4755
22.3473 18.0194 33.6102
21.7764 17.1628 32.7799
22.3667 18.4623 34.3984
22.5429 17.3261 32.3865
21.6278 17.7249 33.8873
21.4627 17.4479 34.2916
22.6481 17.9024 33.5648
21.1478 17.0365 33.0359
22.3793 17.3444 33.1919
22 18.0126 33.3
22.162 16.9619 32.0073
21.8637 17.7926 34.508
21.5715 17.9445 35.3266
21.9437 18.0557 34.6896
20.7586 17.5237 33.7666
20.9373 17.5792 33.8654
20.9462 16.7624 32.6225
21.1689 17.3784 34.2479
21.2773 16.9776 32.9445
21.1147 16.8771 33.6542
21.5377 17.986 34.6085
21.8604 17.4264 33.7835
20.994 16.2829 32.5715
21.0571 16.7549 33.8768
20.2585 16.7396 33.5068
20.0545 16.5803 33.3433
21.1601 17.5398 34.6069
21.0249 17.6655 35.093
20.8655 16.8533 32.9501
19.8299 16.9558 34.5518
20.9737 16.9775 34.2174
20.7889 17.3807 34.1068
20.1529 16.3749 33.1674
20.2392 17.2101 34.9593
19.9673 17.4859 35.0071
20.0587 17.9301 35.5992
20.4408 16.9365 35.0955
20.3223 16.7796 34.3641
20.7806 17.8227 36.9314
20.0306 17.2042 34.273
19.6582 17.025 35.243
19.8126 16.2551 33.562
19.4046 16.2313 33.8124
20.1038 17.1851 35.5817
20.9968 17.9836 36.808
19.3961 16.1966 33.7412
19.5641 16.7908 35.6688
19.7331 17.4821 35.7157
19.4617 16.1378 34.2573
19.5766 16.4762 33.8354
19.4065 16.1541 33.569
19.4935 16.4988 35.482
18.9316 16.1713 33.3184
19.166 15.6175 33.4697
19.414 17.6316 37.3469
20.1973 17.4081 35.3087
19.61 17.1526 37.7385
19.4052 16.4759 34.9642
18.9726 17.3157 37.1724
19.4941 16.3676 34.4109
19.2544 16.1481 34.8622
19.293 16.1751 34.8426
18.5515 16.3147 35.4125
18.9606 16.9429 34.7226
18.8454 15.8681 34.3674
18.394 17.2613 37.1263
18.8121 15.9202 34.3346
18.243 15.8123 34.8958
19.4649 15.9992 35.0182
19.3945 16.044 34.1447
17.8258 16.7463 37.068
18.6882 15.6431 34.204
19.5667 16.2789 35.568
18.5846 16.4507 36.9531
18.0366 16.4677 36.4814
18.3873 16.4791 35.6128
18.5351 16.8358 36.8216
17.9312 16.7075 36.6099
18.9473 16.6316 37.3234
18.7893 16.5518 36.648
17.613 16.9851 38.4377
18.4388 16.4813 36.4811
17.7527 16.4299 36.4697
17.8681 14.9845 33.6902
17.6046 15.987 35.9766
17.9968 16.0411 35.2242
18.081 15.6148 34.819
17.7422 15.6071 34.7799
17.6164 16.0924 35.6958
18.3804 16.269 37.1926
17.7933 15.981 37.8039
18.1537 16.0829 36.2038
18.1772 15.8317 36.9293
17.5137 15.928 36.2582
17.6312 16.8541 37.8071
17.4062 15.3486 35.9792
17.7958 16.3081 38.0537
17.1737 16.2983 36.6006
17.7025 15.5253 35.7179
17.6273 15.8168 36.6512
16.7557 14.667 34.2638
17.3456 15.1152 34.608
17.6361 15.0316 34.7899
17.4097 15.1073 35.9866
17.2365 15.8675 37.0034
17.6065 15.7447 36.1045
17.2032 15.6455 36.664
16.8018 14.8649 35.0027
16.2666 14.8555 34.9823
16.7331 15.0121 36.162
16.7395 15.6749 35.6079
16.9085 15.071 35.5
17.5999 15.2051 35.8666
17.3029 15.8245 38.5473
17.402 15.4047 34.9531
16.8551 15.2178 35.8718
16.3533 15.0374 37.5663
16.7244 15.5112 36.7174
16.5547 14.7198 35.1166
17.0026 16.1021 36.9784
16.3255 14.7139 35.5351
16.4911 15.2755 37.9778
16.7557 15.2729 36.2762
16.3324 14.9761 36.8083
16.8304 14.6535 34.6615
16.299 15.2245 38.3926
16.5323 15.7071 37.3883
15.2789 14.9646 37.0312
16.727 15.0714 36.6778
16.371 14.9934 36.3727
16.0056 15.1605 38.0446
16.0302 15.5038 37.4082
16.1447 14.756 36.5089
15.8613 14.9832 35.7059
15.5573 15.2733 37.2066
16.5282 15.408 37.8293
