# pn-170911/RbIIR-61-WTZR-1280-1959.psd
# Power spectrum* (dif=0,1,2) (really just |FT|^2)
# NOTE: only the first half! (symmetric)
# weeks: 1280-1959
# 19 clock-days, 0 excluded
# PSD: 1441
292.713 0.0543167 0.0181386
10664.2 0.342206 0.0244519
44626.9 0.991774 0.0217165
18166.2 0.857189 0.0229657
20774.1 1.57641 0.0292428
9772.87 0.928326 0.0259623
4444.32 0.520136 0.0259566
3457.52 0.654915 0.025879
2134.94 0.642788 0.0256516
2255.48 0.605093 0.0267259
2249.86 0.977416 0.0222597
1175.24 0.417908 0.0198276
1264.67 0.877714 0.0223104
721.28 0.591498 0.0244202
1386.07 1.13373 0.0235873
576.179 0.59147 0.0249591
616.187 0.784452 0.0238887
547.959 0.593533 0.0290669
769.386 0.898862 0.03
594.726 1.05944 0.0245507
551.426 1.1624 0.0303452
613.078 0.80175 0.0266317
471.829 0.939012 0.0267609
409.978 0.859072 0.0267075
317.217 0.734635 0.0198886
309.778 0.828305 0.0266665
307.425 0.937787 0.0286272
383.631 1.05875 0.0276537
314.359 0.939291 0.0286388
241.094 1.05286 0.0299256
311.423 1.11402 0.0332556
379.873 1.48488 0.0329211
264.262 1.3338 0.0344087
210.421 0.979973 0.0342651
308.74 1.46766 0.0399702
269.137 1.29516 0.0337861
255.502 1.35584 0.0319611
260.504 1.62283 0.0368716
202.39 1.31153 0.0300693
233.512 1.48694 0.0304097
266.674 1.851 0.0451029
164.441 1.08828 0.0396037
152.431 1.31495 0.0438231
266.45 1.75512 0.0379288
204.681 1.6165 0.0454957
163.329 1.34716 0.0414684
167.159 1.52593 0.0365079
187.066 1.73705 0.0417198
177.257 1.76922 0.0469696
149.979 1.87419 0.0461132
178.852 1.98302 0.0622077
263.377 2.84692 0.0666924
149.355 2.44936 0.0475459
152.974 2.10673 0.0641899
230.399 2.94801 0.0378973
175.75 2.50041 0.0537399
104.695 1.54694 0.0482973
211.112 2.98422 0.0776543
208.414 2.79747 0.0652807
102.609 1.82136 0.0541904
178.385 2.85192 0.0746692
173.141 2.59872 0.0772141
183.515 2.97219 0.0972396
106.911 2.33536 0.0840158
122.168 2.36879 0.0835316
175.794 3.34053 0.0738476
139.941 2.36001 0.0671327
117.525 2.70776 0.0787588
118.994 2.58611 0.0809098
243.402 4.51375 0.107316
89.8084 2.10122 0.0685858
144.51 3.55858 0.117631
132.194 2.99037 0.107291
106.273 2.58791 0.0934709
136.051 3.10512 0.1069
119.526 3.01547 0.0956709
197.707 5.27866 0.224973
102.149 3.00805 0.0978167
114.716 3.21652 0.104213
130.621 3.57027 0.11869
157.815 4.70794 0.199446
74.0511 2.02476 0.093477
98.3055 3.45192 0.128798
141.294 4.47359 0.16688
92.4339 3.47062 0.136915
94.4783 3.21284 0.141086
128.499 4.02205 0.172078
167.164 5.94811 0.187176
153.173 5.20616 0.143098
150.125 5.06997 0.188962
95.7398 3.61943 0.176843
173.001 6.7068 0.316807
91.5125 3.38918 0.153668
145.726 5.74342 0.247985
81.361 3.51932 0.17136
146.791 5.49615 0.255146
93.4929 3.93952 0.21462
153.722 5.7912 0.274298
116.508 5.15741 0.26175
104.105 4.45124 0.221555
123.962 5.38073 0.337539
115.119 4.90181 0.220014
113.614 5.33574 0.301297
134.088 6.25926 0.347239
93.6338 4.65277 0.264489
133.854 6.83966 0.371611
94.3252 4.55022 0.246275
87.0751 4.12541 0.252019
100.365 4.94663 0.289364
66.8434 4.0146 0.287173
154.45 8.96046 0.486117
87.8552 5.44472 0.378299
137.66 7.97916 0.423639
93.4953 6.18109 0.41373
138.374 8.07543 0.447169
122.167 7.03147 0.478339
107.277 7.04923 0.459631
76.4216 5.25014 0.354115
98.5624 6.71455 0.462124
94.7643 6.84898 0.449059
116.352 6.89887 0.561694
85.1319 5.79955 0.4027
105.805 7.33235 0.507521
108.235 7.47128 0.541223
82.3877 5.92064 0.514333
75.5052 5.92994 0.523228
75.6251 5.70569 0.489111
69.8937 5.2434 0.419504
80.6636 5.9694 0.467987
117.488 9.88752 0.843489
88.1993 6.29471 0.553811
110.505 8.55131 0.6275
94.1181 7.9733 0.633726
74.5603 6.12522 0.528447
95.1561 8.76889 0.765059
128.17 10.7431 0.980303
96.9161 7.5427 0.665715
50.7339 4.60881 0.420597
108.952 9.14719 0.750146
88.4439 8.35016 0.842125
117.217 9.65034 0.902129
107.081 10.1783 0.924006
80.7731 7.9166 0.749554
80.4669 7.76442 0.836375
99.2027 9.33726 0.85797
128.093 12.6353 1.28286
102.59 9.78698 1.01613
60.7243 6.50095 0.757786
64.9178 6.79513 0.750122
78.9299 7.89565 0.887221
72.764 7.44527 0.792961
70.2121 7.45255 0.843548
95.8045 10.8785 1.22559
92.4708 10.1641 1.08458
53.6467 5.77633 0.724591
102.633 11.4465 1.33129
97.1962 10.3528 1.1527
50.2428 6.37043 0.741794
104.837 12.7589 1.5198
101.411 13.125 1.53117
78.7152 9.09098 1.07127
80.9245 9.27122 1.20795
94.0584 9.97723 1.22483
94.4727 11.0297 1.35487
124.652 15.2429 2.06155
124.672 16.5107 2.13774
85.0953 11.0529 1.42769
100.152 11.8011 1.43188
76.8693 10.7705 1.47417
47.702 6.5237 0.928092
78.333 10.967 1.59763
74.49 9.80355 1.33691
69.8452 9.66516 1.33979
105.588 14.7495 2.09244
59.8261 8.1851 1.29446
49.4518 7.31269 0.996262
70.921 10.1474 1.43871
77.9641 10.6887 1.57341
79.5808 12.4645 1.95354
72.0748 10.1942 1.4353
87.2845 12.9632 1.95462
54.9338 9.38839 1.58649
79.3916 11.2068 1.62164
71.427 10.4127 1.68504
71.2464 11.1686 1.8343
81.4412 11.8043 1.84975
109.129 19.7371 3.33445
73.5571 11.5114 1.78159
65.1541 11.1729 1.84211
69.9337 11.8231 2.05729
56.4767 9.23464 1.58696
46.8102 9.55234 1.82847
103.984 16.8249 2.73168
128.121 21.5608 3.51326
56.9532 10.1419 1.83108
52.002 8.73383 1.37952
67.0398 11.5761 2.05726
70.1942 12.7243 2.35032
77.4414 13.5101 2.5113
67.1429 13.0578 2.27741
55.1047 9.62653 1.63206
63.4166 13.2959 2.44316
66.2494 14.0716 2.8454
50.5718 8.85712 1.82096
54.1964 9.95747 1.80166
47.0214 9.1901 1.94609
73.7354 12.4708 2.46682
86.2929 17.0388 3.3972
64.9536 12.1434 2.36456
67.4521 13.4302 2.71739
51.7116 10.1951 2.11893
113.079 22.5739 4.73317
53.0736 10.8008 2.36356
56.1214 11.5621 2.62244
49.5207 10.7594 2.34743
65.2045 13.8309 3.07106
77.0895 15.9193 3.51668
60.8569 13.0599 2.81769
50.1347 11.6815 2.65733
72.2529 15.6062 3.44865
57.0659 11.8112 2.72745
36.4649 7.70647 1.73808
56.3652 12.8646 3.20835
69.9913 17.167 3.77467
51.8914 13.4184 3.16661
38.0489 9.41091 2.54808
78.6527 19.6106 4.96779
63.7497 13.5611 3.101
61.9973 14.8277 3.6634
38.8148 8.73455 2.09358
71.1129 16.7834 4.11453
40.049 10.3287 2.67862
47.553 10.8525 2.61483
59.6657 16.1755 4.38335
56.4838 13.2749 3.20741
52.7876 12.7872 3.12146
62.1442 16.4414 4.43826
64.1654 16.5651 4.3917
45.8902 10.9299 3.03574
83.94 23.9438 6.53951
47.8655 11.9591 3.34133
77.4317 21.6832 5.90906
86.0117 20.4947 5.08986
65.7628 18.4559 5.0535
58.5688 16.7912 4.52203
54.5945 15.3037 4.13271
55.8628 16.0442 4.62254
41.0658 11.4562 3.40552
52.4256 14.1205 3.9258
34.5335 10.4608 3.36615
61.9282 16.6714 4.43139
62.6806 18.9992 6.1357
61.6694 18.9232 6.14183
68.0045 18.6455 5.00622
88.504 26.1659 8.00429
57.7547 16.9927 4.51562
51.6234 17.808 5.73225
70.3453 19.7772 6.00571
42.1573 13.9375 4.79045
48.0277 14.8048 4.85243
56.6054 15.4081 4.45325
68.0974 20.5979 6.45586
60.3477 21.0418 6.85589
51.5426 15.8876 4.96436
36.8056 12.2081 3.89572
49.086 14.3395 4.3097
44.3453 16.2169 5.36466
54.4728 18.1832 5.95557
64.8146 19.8466 6.46935
39.1694 13.2971 4.68703
68.0432 23.1185 7.59411
47.1267 16.3254 5.39149
51.2497 17.4078 6.19184
48.146 18.8229 7.17113
76.0457 24.7348 7.6287
49.4628 17.4407 6.28821
54.3421 19.3278 6.38372
29.6618 12.0752 4.7092
48.6714 18.8107 7.39034
40.9957 14.3576 5.13226
71.8806 26.0486 9.75173
57.748 19.5582 6.70273
48.6143 17.0464 5.76084
48.0855 16.7525 6.1788
59.7044 23.0939 8.54403
40.8834 14.1177 5.05504
48.5038 18.1032 6.98996
42.0707 18.321 8.01139
68.0917 24.4361 8.42819
49.3107 19.3892 7.53647
46.7498 18.2624 7.59666
73.5889 30.6398 12.3396
52.4106 19.6128 7.60887
34.4946 12.7728 5.43617
44.1126 17.1151 7.06951
35.0648 13.4664 5.29962
61.5528 22.9233 8.21299
63.6802 26.7176 10.6864
44.5355 17.9855 7.22325
36.9978 14.361 5.68373
33.881 13.0233 5.08557
34.7205 12.8582 5.09771
49.2506 22.99 10.3769
43.0383 18.9807 8.13464
41.7085 17.0291 7.38783
54.5495 21.9748 8.79535
40.4587 18.5073 7.8447
40.1115 17.7142 8.54449
44.9276 21.1057 9.30445
30.1124 14.5978 7.18318
46.4555 20.3183 9.08302
42.4516 18.2452 8.39492
44.3533 16.8884 6.7153
48.1756 22.0266 9.72036
35.8292 15.6492 6.35325
49.2821 21.0155 9.36462
48.1552 21.8344 10.2622
33.667 15.4736 7.22666
48.539 23.8991 11.329
43.1949 20.3407 9.77807
38.337 18.2898 8.95975
53.0862 22.8199 9.45754
41.732 20.0684 9.4475
54.6255 28.1988 13.6089
35.5212 17.2746 8.45207
19.5082 7.84634 4.41609
37.6088 18.2064 8.46832
41.6315 18.3235 7.48131
40.5982 23.9889 12.8201
29.1929 12.0848 5.46272
47.907 23.4681 11.1496
34.7694 20.4032 11.587
46.4837 22.2518 11.0357
39.0459 17.5613 8.31994
26.8896 13.6231 7.34607
51.2836 24.5287 11.7241
37.5301 20.9381 11.5169
32.0487 16.3885 8.87693
41.7603 24.0031 12.8637
45.8177 21.9629 11.0444
49.4919 26.1516 13.5443
41.0851 21.3847 11.357
35.3742 18.6992 10.5058
46.2682 21.4983 10.4167
37.6185 22.4503 13.3629
22.2339 9.72579 5.45106
29.4235 16.1165 9.31655
48.9622 27.2617 15.7923
29.3843 14.0278 7.11229
32.8335 18.3649 10.2312
33.1528 15.8107 7.89815
23.9831 13.8943 8.19442
24.0276 14.2794 8.01631
29.44 15.0663 8.47092
51.445 26.7264 13.3669
35.43 21.3919 12.9462
40.0427 21.928 11.4981
41.7851 25.291 15.0008
45.2235 26.214 15.4725
25.9882 14.6175 9.03208
35.3633 21.9547 14.6591
62.1217 33.9038 16.9086
35.1652 21.5227 12.5343
38.3794 23.0765 13.48
24.6024 17.0869 11.0704
30.235 16.876 9.68688
31.9706 21.1025 13.9417
37.6236 19.3045 11.42
27.9026 16.674 9.80565
26.7111 16.3596 10.0541
37.4641 22.4087 12.1975
36.3279 23.7632 14.173
34.5641 23.5681 16.0266
31.6706 19.101 11.4942
34.8959 22.3325 13.8823
23.1057 15.1942 10.561
25.1319 16.0603 11.0749
31.0666 20.4823 13.0944
27.6979 16.4334 10.6957
29.052 16.9351 10.2743
35.3032 22.8758 15.0132
29.5195 20.031 15.0277
34.1048 23.3996 17.0314
39.5103 22.7358 13.6614
37.8669 22.8366 13.9943
43.5436 29.6999 18.9458
42.1607 27.224 17.7392
27.635 17.7124 11.8572
23.7618 15.566 11.0019
45.2473 31.6197 20.5734
31.1667 20.4259 14.4041
40.3711 29.9015 21.5971
24.6518 14.0843 8.70526
29.3254 20.384 15.1571
28.5202 19.3547 13.6717
39.7622 24.3577 15.1366
31.0567 23.813 17.2986
19.1181 13.0986 9.80192
24.6522 16.8714 11.4735
25.2687 19.9862 16.8449
29.3798 20.1278 14.7515
34.0507 22.2736 14.9046
29.8218 21.4476 16.9653
29.0671 18.2951 11.8598
40.4892 27.2765 17.8044
26.3195 20.3344 15.0798
33.3022 26.9501 19.3368
29.2667 20.4551 15.1721
26.8313 20.4685 15.9145
28.9739 18.7349 11.6862
23.9582 18.601 14.1699
26.824 19.805 15.3401
28.8137 21.1829 15.3588
17.0559 12.5465 10.1798
32.9391 25.5022 18.798
23.0479 15.3534 10.4805
22.0495 17.5226 13.5565
25.1766 20.6462 16.3467
23.0052 18.1811 14.8179
29.54 22.0929 16.5984
27.1357 20.069 15.2827
18.4365 16.7495 16.0848
39.962 31.0792 23.6546
24.9944 20.0198 17.0917
24.7266 17.1963 13.5436
29.4797 22.2578 15.9752
21.026 19.0881 16.4782
27.6192 22.5286 18.3361
26.7707 21.8264 18.7409
26.6485 19.5767 16.0506
28.173 21.8011 16.8678
23.9401 18.2425 13.3201
19.834 18.1364 15.3115
24.5296 22.8574 19.7379
27.7578 22.4603 20.0933
26.1586 18.5711 14.5364
25.2291 21.1091 16.8394
31.7157 28.8776 24.0472
18.3611 15.412 14.2407
22.8235 19.0989 15.5048
16.1534 16.4569 17.8514
28.9506 21.9619 16.1022
15.902 13.4766 12.7898
31.3331 26.9885 23.1848
26.0442 20.9558 16.4958
15.9719 14.8909 13.375
24.9982 24.0645 21.5183
13.3497 11.7592 12.3637
27.5697 22.678 18.3336
19.9185 17.3915 15.6384
20.4413 16.7186 15.6627
32.342 27.816 21.6679
16.3139 17.8128 19.152
24.9876 22.3736 20.0403
24.4798 19.5656 16.5529
22.6965 19.9878 18.7212
28.4215 25.1491 19.9559
20.5986 22.8906 24.2119
24.5044 22.214 21.5472
23.8838 19.307 15.8282
22.3427 20.845 20.2109
27.1731 24.6396 20.6993
21.4544 19.9892 18.6764
21.5521 21.8539 22.4082
20.4409 18.9225 18.3641
14.6746 13.8046 14.5278
17.8656 16.1416 15.4715
16.7744 14.7561 13.5721
16.1871 15.8249 16.1083
27.9426 26.1425 24.9818
26.4379 22.8847 19.9076
15.0682 17.609 19.067
24.4795 24.7762 25.3066
20.041 21.7308 24.4151
25.3027 19.4742 15.3546
22.5866 22.9788 21.8927
15.724 16.139 16.3815
23.8431 23.4464 23.3302
23.4115 21.9597 23.073
13.8134 10.8077 11.7158
25.4509 23.6816 19.9064
21.22 23.4774 23.8394
18.3664 19.8268 22.5589
34.2922 34.0676 31.6172
24.3546 23.5077 22.6862
17.981 18.8225 18.8581
19.2415 21.231 22.6296
16.1037 19.2403 23.0378
15.5055 11.7957 9.49842
19.4999 21.915 22.9383
18.1418 18.5978 19.6714
13.1276 11.9923 11.2546
14.9538 17.9786 21.627
19.2827 18.3307 19.9422
17.3049 19.5704 22.3537
18.9928 19.0918 21.7772
13.3978 10.4142 10.4836
15.3044 16.2883 17.2667
12.9864 12.3575 15.4429
28.9593 26.9559 22.4304
24.1416 26.8224 26.1712
16.6181 21.1756 24.5273
14.9977 17.1889 21.4895
19.6024 21.5035 22.563
15.6935 15.7155 16.3018
15.3381 16.7785 17.9206
15.1511 17.8502 19.6856
18.6506 21.0991 25.3586
19.3752 20.4109 21.8329
15.9497 17.2417 20.0627
24.8548 26.9216 28.5353
17.3339 19.3196 22.2441
14.3403 16.1856 20.5166
32.8861 33.9802 31.4892
15.4053 19.8616 22.8767
13.1249 15.021 17.8096
14.332 16.0081 19.717
16.8689 17.0604 17.1129
12.499 14.1449 16.3365
16.7171 20.8394 24.1627
20.5359 24.6752 28.1331
12.7676 13.2912 16.7595
14.7953 16.3689 20.4673
18.5467 20.1424 22.2318
11.7878 13.5354 17.9591
20.0488 23.2286 24.4011
12.4346 16.3591 23.0771
16.373 16.8314 19.1653
13.5371 16.0092 21.5547
25.361 26.2412 25.6667
13.1628 15.2625 16.9476
15.0184 21.5381 28.1185
16.7544 17.37 20.5233
16.345 16.6085 17.7998
15.3729 18.0524 20.0673
14.982 18.7302 23.6217
19.0979 23.7188 26.572
15.7993 19.055 23.7547
13.8797 18.2864 22.8067
17.5395 22.6598 31.9413
14.8079 16.0567 19.5248
11.1447 12.9543 15.6889
15.9032 21.8924 30.1294
15.3352 17.7867 21.1078
17.2679 20.9469 26.8909
19.3634 24.787 31.441
19.0663 19.8823 20.8532
16.0672 21.5032 27.6896
18.8936 25.2447 33.6668
16.2744 18.6558 22.2041
15.2387 19.599 25.8326
16.6231 20.573 27.794
22.4109 25.9499 25.9469
20.6086 34.3085 53.578
42.2292 51.8567 63.6896
45.1389 59.2853 66.2886
13.6773 22.3376 36.9815
14.6494 19.5284 31.5911
22.3662 24.3772 26.401
13.1848 16.3353 20.9122
13.9468 17.6709 22.5411
17.9927 22.9422 24.5078
8.36885 12.3793 18.288
17.0686 24.769 34.151
15.1212 21.7864 30.5137
17.1096 23.476 29.9132
11.7654 15.0011 21.5154
12.1615 16.4071 20.1255
11.043 20.1837 33.9951
15.6733 18.6399 24.9406
14.6213 17.9097 21.2734
12.8377 16.7074 19.155
6.16601 7.96443 10.9495
8.818 13.075 18.5916
10.1551 15.3613 21.9164
14.551 20.9364 28.0964
10.3386 15.9236 25.9754
13.1849 13.5782 16.3846
13.5347 18.933 23.0329
9.04925 15.959 26.6887
12.6979 19.0449 31.3926
14.0004 16.5686 22.4085
12.7677 15.8361 20.2603
8.48568 12.6239 21.0301
14.0959 18.4279 23.6248
10.6386 13.8855 20.8931
19.82 28.7781 39.2874
17.3337 25.7516 38.382
18.5754 24.8349 31.2419
13.8725 24.0657 41.0473
13.9099 14.808 20.9744
16.3131 20.737 24.171
12.0803 17.0416 22.1236
10.6968 17.3222 28.4121
14.3524 21.976 29.9667
13.6601 20.7221 35.1234
12.9856 17.8552 24.0411
12.0909 18.742 28.7619
13.4548 18.8913 26.9054
15.656 25.0084 39.799
16.1474 19.9426 21.6142
9.58591 17.0417 30.1869
13.4033 19.667 32.5853
18.1556 23.2823 29.1886
12.2216 16.1185 19.969
13.4932 23.0711 32.9638
7.60606 9.4441 17.174
12.701 18.319 25.8772
17.7783 29.7152 45.3913
12.1145 19.0372 29.9788
12.2239 17.255 26.3205
13.4735 20.244 29.8773
15.376 27.0839 40.372
11.5145 18.5868 27.8701
12.6796 21.3076 34.8828
10.7147 16.7787 27.4597
8.58334 11.1866 19.8718
13.4157 21.0757 32.0688
10.5796 13.5305 20.5941
10.4874 16.3109 25.0015
12.4367 20.8345 29.3904
6.26212 9.72115 18.5773
10.7531 15.2943 18.7037
7.43539 14.2183 24.0539
9.16555 16.5336 27.4654
9.66689 16.1209 27.2564
12.2802 21.5758 36.5099
10.6052 17.4205 33.6293
13.7956 18.0692 28.3988
13.5996 20.042 29.0555
12.2953 16.8484 21.4514
8.98136 20.2556 37.9882
13.7611 18.7782 28.7465
12.2172 22.7038 39.52
12.1104 17.0709 27.5777
11.2356 18.0244 29.8723
13.0282 21.6356 36.6922
13.1298 21.2195 36.8207
12.4442 16.8482 26.5505
11.4136 16.2634 22.8495
8.80889 13.952 22.4261
10.7657 16.912 24.0083
10.5831 21.43 36.1232
7.72673 11.7375 21.4613
9.34291 13.6242 18.4069
9.46562 21.3003 40.8215
10.0593 14.2477 24.5069
7.2961 12.0496 24.3934
11.3454 16.3551 23.4759
9.77579 16.4734 26.402
15.1991 27.7501 39.2486
10.0369 20.4315 39.3706
9.45399 16.1603 38.1586
30.5896 55.4162 80.7075
12.31 20.4243 39.9588
11.7058 16.4454 27.1518
13.7894 24.5474 42.1318
10.0097 17.9311 32.996
10.8342 21.3093 45.695
15.5036 21.5491 34.1802
12.7183 20.2855 30.3696
8.98037 14.5421 23.5993
8.75063 15.3086 29.1653
10.2974 16.6764 24.2756
6.61474 10.7133 18.3946
11.5401 23.9338 44.8849
12.2548 22.6107 37.1934
8.72375 15.5455 30.8201
9.14637 15.8307 30.0108
9.62797 18.3103 41.1496
13.3289 17.8204 28.3415
15.0448 25.9154 37.4577
22.0598 55.7766 109.295
13.5498 13.564 31.2691
13.8947 18.772 24.6419
10.56 20.6726 34.8992
9.19467 15.115 25.3942
9.04836 16.1252 27.1083
8.8891 19.771 42.1662
11.2184 18.5217 33.5781
10.3134 15.4859 24.6918
8.7255 16.5805 30.4364
7.127 13.4695 24.7701
6.46643 10.5924 24.8973
11.8137 21.3922 38.3173
9.60035 14.5474 23.047
5.67867 9.3632 20.3678
11.2689 20.1892 31.9059
9.42877 20.1026 36.9214
9.3416 17.3431 33.4882
10.4752 19.8397 30.5632
6.47797 15.8599 38.6558
12.3773 24.0917 44.2985
10.0733 18.0774 35.9142
9.68191 14.2977 25.1209
13.4778 28.3849 51.1452
7.92488 13.8003 32.8049
12.9716 24.3915 40.9707
7.32327 12.6675 25.564
7.66955 14.4612 28.8026
8.11413 15.2013 29.488
11.3865 22.5669 42.4404
9.16448 16.283 31.7733
10.3011 20.2998 39.8336
9.72911 15.3989 27.7647
10.1331 18.1527 28.8617
9.72451 24.2221 52.0408
11.9707 18.8115 30.8609
7.43607 13.7943 22.825
8.00303 18.3226 33.3892
8.08893 19.4485 36.681
6.79937 16.1086 38.8196
8.36705 17.0944 41.2436
9.69421 13.3931 25.1894
9.43708 17.7228 32.8199
7.6278 12.6205 25.5254
9.03597 16.05 29.1033
7.93246 16.8984 30.9306
7.82669 17.2034 34.785
7.72868 16.3355 36.8752
7.89013 14.8739 28.7206
5.85012 14.5633 36.7873
7.7867 14.0391 30.862
6.74849 12.5658 30.1158
9.91445 17.0979 30.749
7.08033 15.0965 32.1167
7.04519 12.885 32.1876
10.759 20.592 35.3613
8.00626 15.4509 27.5162
6.56114 14.6416 31.8655
9.31468 20.2825 38.8388
8.92914 19.9517 45.5223
8.89572 15.3492 25.7917
9.11559 34.4012 103.57
22.9895 29.2979 36.9698
8.52599 17.667 36.3134
8.88509 15.9031 34.2118
10.3025 18.5658 27.3605
5.5792 15.6831 36.5825
5.712 9.67406 22.9019
9.0946 23.071 50.6999
13.9146 36.4865 92.3114
16.9485 19.9294 23.8845
6.96443 16.4656 38.3116
10.3129 18.432 33.2315
6.96732 14.7856 30.7373
8.01944 20.9307 50.306
8.59356 12.7137 27.5025
8.02415 13.9294 26.1304
9.51985 20.9699 43.5866
15.8848 39.9351 87.9385
12.8495 26.4709 79.4857
32.2961 68.7706 111.567
11.2682 19.3885 34.1084
5.47599 12.522 34.1218
10.5386 22.7442 41.9937
6.75292 13.6582 30.4614
8.29683 20.3096 43.5073
5.63975 12.08 30.0248
4.8548 9.39912 24.6219
6.7458 13.1633 30.679
7.61165 14.5063 27.5891
8.20123 20.9914 46.7981
9.18973 18.7076 36.3288
6.17576 11.6452 25.6259
6.85498 16.1299 35.2158
8.51446 17.3234 33.2491
7.18569 18.7863 43.2392
7.09679 13.943 28.3978
5.6761 11.6795 28.1356
8.68714 18.4085 30.3666
3.89726 9.86076 23.6849
4.08057 9.03902 22.0601
5.66338 15.2081 39.2357
8.10406 15.8214 26.0362
5.08539 10.1088 16.3125
2.95956 11.8106 35.1015
7.19442 14.8207 28.9085
6.48305 21.1621 52.307
7.83498 17.2994 42.8772
6.74236 15.0922 36.6309
5.23741 11.1221 36.6648
9.34528 16.7278 25.5968
5.70822 14.5763 32.1256
7.12838 17.4613 37.5995
5.56196 14.7723 41.5075
7.28018 14.678 36.5025
6.37363 11.9745 28.4282
7.23055 17.3338 32.9392
5.91587 15.6738 42.5154
8.84711 16.0087 29.6518
5.84846 15.323 32.7982
4.91215 13.8478 40.7243
8.93095 18.2855 34.4461
4.40526 10.6328 27.944
6.64503 17.0832 40.9007
5.8878 14.5064 44.598
9.7306 18.0465 39.4352
9.54362 20.0438 35.0549
4.22404 11.4349 29.8643
6.19504 14.262 31.6296
5.12986 11.8074 27.8272
4.0232 9.01404 24.6217
5.41203 13.0834 29.3678
6.15648 17.0765 46.8881
7.40299 13.6917 25.224
5.84233 18.0741 42.4031
5.78855 10.5971 22.6395
3.99401 11.8943 34.0412
6.2866 17.8156 50.0142
8.60949 20.0604 52.1995
8.83935 19.1659 52.3215
9.95496 17.9094 34.3589
6.05926 13.3299 30.9015
5.5426 13.0754 39.0512
9.34413 18.4184 32.0333
6.22504 18.3347 47.3895
7.53012 16.2524 37.368
5.73206 15.6047 39.9944
5.5239 14.1238 36.4141
4.82478 12.1768 39.9188
7.33153 15.8539 38.6132
5.61565 11.2998 27.5914
5.77626 12.5138 33.4001
6.7722 15.0154 31.9704
6.4858 16.0806 39.6783
