# pn-170911/RbIIR-44-RbII-1280-1959.psd
# Power spectrum* (dif=0,1,2) (really just |FT|^2)
# NOTE: only the first half! (symmetric)
# weeks: 1280-1959
# 335 clock-days, 2 excluded
# PSD: 1441
64125 1.16084 0.0294297
2.14813e+06 53.482 0.0401071
2.89568e+06 49.862 0.0492557
824474 16.4265 0.041031
488849 12.8388 0.0487821
337674 9.39828 0.0449585
220893 8.70655 0.044244
160412 8.35487 0.0460705
124023 7.79444 0.0509756
100298 7.73501 0.0505757
74505.3 6.54922 0.0548238
71487.6 7.39032 0.0496045
50216.2 6.58952 0.0538046
49108.5 6.27405 0.0496344
40625 6.50158 0.0639756
40511.8 6.6325 0.0571996
29894.5 6.02845 0.0582292
29384.2 6.21858 0.0573077
27642.3 5.91122 0.0619593
23590 5.73382 0.0594606
16043.8 5.82574 0.0636202
24526.7 6.73261 0.0584764
20490.9 6.51317 0.0673001
15183.1 6.31867 0.0634275
13417.1 6.30937 0.0629261
12467.3 6.38256 0.0619789
11148.8 7.24204 0.0784827
11591 6.59905 0.0668828
10724.5 7.53611 0.076801
9365.27 7.59738 0.081245
8072.84 6.63653 0.0789757
8638.38 6.71998 0.0774459
8188.55 8.52215 0.0883414
6821.47 7.34873 0.0889981
7868.32 7.73976 0.0888466
6766.01 7.77366 0.0878758
6606.24 7.44299 0.0937865
6532.73 8.71613 0.102899
5837.62 9.07451 0.103483
5800.39 9.4834 0.123061
4963.86 8.10759 0.11228
4647.29 9.22723 0.1151
4975.01 10.1674 0.127103
4197.73 9.51402 0.152825
4020.52 10.1606 0.146437
4074.3 10.1308 0.145538
4114.4 8.78264 0.134111
4304.33 10.8147 0.168298
3500.79 11.8033 0.191321
3610.08 10.0153 0.15951
3748.87 9.89323 0.168057
3618.21 10.0365 0.168328
3218.97 11.879 0.203236
3236.03 10.5515 0.202291
3221.45 11.8567 0.207206
3249.72 10.8699 0.204569
3156.11 11.1491 0.218695
3259.43 10.7934 0.226182
3117.36 12.435 0.255184
2989.35 13.2008 0.28409
2660.72 10.3097 0.223659
2818.2 12.4155 0.262761
2646.62 12.2792 0.282666
2887.57 12.8517 0.298615
2652.36 13.4083 0.320395
2556.27 14.174 0.345258
2429.13 13.288 0.361035
2720.11 14.2007 0.36766
2283.74 12.9121 0.349953
2247.47 13.4461 0.371129
1950.35 12.4666 0.358867
1912.73 12.5218 0.381141
2024.48 14.5252 0.453832
1772.36 14.3287 0.444547
1854.83 11.3675 0.351895
1826.83 13.57 0.426695
1953.51 14.5587 0.45534
1758.95 14.3409 0.465596
1589.03 12.9615 0.435874
1651.95 14.5038 0.496889
1550.26 14.5204 0.522219
1546.41 16.6146 0.546006
1606.99 14.9457 0.552456
1495.31 15.5192 0.601116
1408.73 14.0544 0.518093
1505.26 15.139 0.579227
1218.23 17.0579 0.682464
1278.4 16.4727 0.684237
1349.12 14.9455 0.605648
1265.51 15.0861 0.627499
996.684 13.2921 0.561234
1254.36 14.7285 0.649081
1290.12 17.5624 0.790085
1110.73 14.2235 0.644372
1223.05 13.8224 0.667193
1190.57 15.6977 0.737242
1208.07 24.7173 1.09251
1104.62 15.3232 0.736331
1098.16 16.8868 0.854643
914 15.3844 0.791343
994.806 14.7983 0.740625
1171.78 16.1901 0.865578
1125.59 19.213 0.974599
1075.25 15.6076 0.80726
1047.4 18.0419 0.971081
1037.11 15.8039 0.852045
927.793 17.5328 0.953558
1025.81 15.0996 0.847809
946.714 19.3603 1.1079
942.072 17.5206 1.07787
808.504 16.3911 1.05339
964.798 17.483 1.02947
896.383 15.895 0.990043
778.823 19.6073 1.26252
869.89 19.3009 1.27433
930.766 18.8649 1.24572
702.299 17.5914 1.16172
656.889 14.9744 1.02701
779.472 18.259 1.25877
750.534 15.9938 1.12367
752.782 14.8314 1.02363
696.618 21.7751 1.58425
699.074 17.1763 1.27049
866.491 17.739 1.29751
774.598 16.1514 1.17801
740.713 18.8667 1.44546
701.527 16.2589 1.2739
639.852 19.2954 1.49736
652.199 18.3021 1.46547
583.112 16.9665 1.40549
621.513 17.8568 1.49036
670.442 20.0672 1.74603
564.824 16.8646 1.51612
641.508 18.3831 1.62503
626.012 17.0595 1.47215
663.179 16.933 1.50482
681.176 18.6892 1.70257
560.224 19.1981 1.75672
544.231 20.5764 1.86118
584.654 17.5477 1.64794
558.134 18.241 1.75272
580.459 16.5836 1.58861
499.982 17.0586 1.69722
576.936 20.5185 2.06685
586.495 19.7675 1.9849
541.188 17.1393 1.75553
442.708 16.881 1.80427
539.114 17.1272 1.78047
488.381 17.0204 1.80626
485.601 17.0598 1.89255
534.607 25.9424 2.81334
474.215 17.0869 1.89803
499.875 19.1238 2.06951
540.584 18.8701 2.09995
484.925 16.8992 1.96018
458.981 17.4909 1.97178
423.514 17.2499 2.09544
507.685 19.1356 2.18056
456.891 20.6397 2.49066
383.677 16.9542 2.03248
397.487 18.4432 2.27845
406.694 20.3017 2.58284
444.571 19.2201 2.40559
395.595 20.1545 2.61267
464.509 17.4152 2.28565
497.554 18.4757 2.38146
377.494 20.11 2.5224
363.993 21.8399 2.96795
482.454 18.0438 2.46646
364.262 17.6901 2.35128
403.572 18.7979 2.54893
315.888 16.2855 2.3095
351.571 22.7534 3.13746
402.476 20.1379 2.89986
336.805 17.741 2.53802
349.29 24.4292 3.55048
355.747 19.4144 2.81585
385.153 19.6841 2.97681
357.847 18.5753 2.83218
343.148 18.4006 2.82892
387.105 21.3917 3.31634
405 20.8701 3.40245
324.145 21.3424 3.22714
333.948 19.1051 3.12395
382.833 21.2643 3.35356
388.048 21.3896 3.54714
363.473 21.8043 3.51816
383.707 20.0329 3.38296
304.097 17.3823 2.88162
272.582 17.9137 3.04908
313.522 18.867 3.2702
353.076 22.0039 3.86714
371.68 31.8401 5.3474
341.129 18.3683 3.23043
308.045 21.5271 3.81695
294.405 18.4179 3.27248
313.864 18.5352 3.39618
354.264 20.8807 3.84472
273.766 19.3814 3.60035
289.312 21.598 4.01341
296.791 20.0948 3.79631
278.459 19.8458 3.71699
249.224 19.4815 3.73875
302.151 20.6575 4.10424
309.161 23.3298 4.67714
258.963 18.0654 3.45735
300.743 20.6047 4.14449
281.01 17.2569 3.41023
266.361 20.7862 4.32118
294.573 23.7013 4.8547
275.851 18.5213 3.80564
269.056 18.9643 3.93515
272.587 20.3953 4.40841
281.999 22.0082 4.58603
276.272 21.8434 4.65157
241.13 19.1228 4.25187
258.306 20.4785 4.51604
255.823 21.5766 4.71248
241.487 19.2401 4.30128
264.932 21.8054 5.0222
246.719 18.7383 4.27956
271.471 18.534 4.2314
263.513 19.8972 4.62986
273.72 23.7139 5.74256
277.56 20.6213 4.82378
260.239 21.7189 5.0976
259.592 23.9148 5.75398
234.161 19.7008 4.89804
225.342 18.5956 4.72841
242.23 21.9096 5.49753
249.595 20.6051 4.85755
197.602 17.8675 4.5887
243.405 19.8754 5.05229
218.805 17.7817 4.67945
223.121 19.5177 5.01929
203.59 19.0262 5.00754
195.19 20.2116 5.28738
205.258 16.9667 4.52753
221.348 21.075 5.45492
215.132 22.075 5.90275
188.348 18.7 5.01649
208.606 18.8551 5.20333
210.855 21.8982 5.95744
175.605 20.5707 5.61262
176.052 19.4892 5.31104
179.344 18.9521 5.4765
218.185 22.437 6.21816
177.076 19.0062 5.35381
184.972 20.9749 6.06196
211.147 21.1456 6.04223
190.154 17.9696 5.25378
204.904 21.0725 6.11359
174.394 22.2437 6.8585
187.276 20.8505 6.28179
210.163 23.4643 7.18554
153.144 17.8621 5.44583
196.798 21.1 6.40876
184.543 20.0149 6.45157
182.801 19.3517 5.94446
176.668 21.2107 6.7605
179.283 21.5848 6.94448
184.476 20.0467 6.01866
148.87 19.8479 6.38047
164.078 20.6114 6.61716
150.626 21.3612 7.01512
167.243 19.3265 6.37695
205.848 20.166 6.32293
178.574 18.3637 6.08484
149.1 21.5537 7.29598
173.53 17.0459 5.76792
172.35 17.1793 5.88735
171.941 22.7052 7.79801
160.429 18.5785 6.43467
156.515 17.9728 6.28431
157.268 19.4483 6.7732
177.059 20.1044 6.75356
138.684 18.2686 6.50509
166.987 19.1123 6.79512
143.786 19.8463 7.02608
155.245 19.8664 7.21631
138.383 20.2696 7.38487
144.666 20.5881 7.83214
153.155 20.6749 7.62791
141.6 19.1674 7.08693
121.224 19.5376 7.41016
109.997 18.6198 7.05057
111.262 19.6683 7.56342
160.96 20.3475 8.33838
164.963 36.6254 13.2933
103.55 19.9136 8.09805
145.257 21.6955 8.13851
115.949 17.8745 6.94079
128.569 20.7277 7.97764
141.422 21.4462 8.50267
134.993 19.406 7.79595
127.798 19.3936 7.74525
143.733 21.0431 8.85189
131.486 20.1897 7.86772
127.575 20.4057 8.34502
143.631 19.159 8.07984
125.449 20.789 8.41719
136.851 18.577 7.70298
122.797 18.7565 7.7403
136.351 18.6415 7.73028
124.328 19.3102 8.45858
124.667 18.9866 8.04894
126.333 19.0315 8.12646
109.727 17.221 7.33591
112.486 20.3442 9.12127
148.225 19.794 8.52621
144.717 19.114 8.41813
120.421 20.2568 9.15135
107.977 20.2744 8.91286
114.59 19.3966 8.9957
99.2435 18.8634 8.44951
120.739 22.908 10.3206
111.729 19.4877 9.09363
110.666 18.0297 8.48878
97.4087 17.4677 8.39608
125.01 19.3896 8.74473
112.687 20.1602 9.69439
113.318 19.3844 9.13219
126.266 21.2335 10.2316
111.691 17.2272 8.44999
110.666 19.4206 9.13016
115.588 21.0771 10.2744
103.793 16.9216 8.27274
105.85 19.3304 9.58514
107.232 18.4948 9.1823
98.7447 18.6578 8.99909
100.623 20.353 10.4828
96.1408 20.9674 10.2484
100.414 20.1902 9.79523
94.7966 19.9201 10.287
102.729 19.4254 9.56009
106.425 19.1863 10.2474
89.1211 19.8849 10.0107
94.2401 19.6057 10.0935
108.796 19.5126 10.1095
98.2284 16.5456 8.57498
89.2353 19.2648 10.6029
84.5225 17.4981 9.37905
98.8021 19.227 10.1834
98.3218 21.3472 11.2954
98.9535 19.9178 10.6709
111.015 17.922 9.75658
106.052 20.308 10.9026
103.954 20.039 11.0265
94.9589 18.7031 10.3757
106.467 19.6653 10.8559
102.608 18.5199 10.043
106.194 20.8351 11.9307
92.6876 18.1516 10.313
106.947 19.495 11.0368
108.51 20.5146 11.6405
113.951 20.4867 11.7542
104.153 20.8951 11.9742
102.038 15.8757 8.90827
91.7424 17.1211 10.2013
102.475 20.5052 11.6446
92.6412 19.6802 11.4488
79.5957 19.9255 11.6232
99.7017 20.4547 12.243
100.304 18.3956 11.0668
96.5983 18.3979 10.9518
88.7415 20.1938 11.6125
91.6347 19.3676 11.6459
90.9851 19.5807 11.9444
80.8932 18.272 11.4901
80.7025 20.2223 12.7231
81.7363 18.9609 11.3497
81.0962 19.2413 12.3472
81.5619 17.9025 11.2107
90.2307 18.961 12.075
72.3911 18.3315 11.5558
92.917 20.5563 12.5231
83.4036 19.642 12.3723
81.9968 18.4118 11.922
75.4948 18.0935 11.8639
85.6802 18.2668 11.531
82.1454 21.697 13.8852
82.7383 18.8143 12.5112
86.0964 19.7356 13.3164
78.5418 17.5029 11.9568
88.8503 30.0202 18.7344
90.967 20.8296 14.2292
79.5069 19.0697 12.3309
72.0814 17.1896 12.1492
79.3509 18.6347 12.42
91.0657 17.0607 11.6341
78.003 18.2847 12.4811
83.8779 20.0743 13.7229
79.4565 18.2173 12.719
83.0069 20.4151 13.9105
71.2979 17.4721 12.449
78.8584 19.049 13.586
73.181 18.0013 12.979
82.2698 19.1001 13.6132
70.127 18.2543 13.2462
84.3961 19.6254 13.5734
83.401 18.534 13.3551
67.454 18.0542 13.4155
73.5965 19.6143 13.7343
85.8357 19.5045 14.1132
69.96 19.4348 14.2332
61.6648 17.3798 13.0091
75.9178 18.357 13.6661
74.5025 18.7757 13.6055
74.8046 17.577 13.4904
72.6051 19.935 14.8118
74.4886 18.3957 13.9469
84.1597 17.9958 13.2637
72.1329 17.4725 13.1652
77.1359 17.4559 13.9459
72.2054 19.5568 14.47
65.8965 17.6897 13.9856
72.0809 16.7775 12.8595
67.4326 18.2047 14.1308
65.9479 17.6888 13.8212
69.6924 18.7624 14.1417
58.4001 16.6501 13.2598
65.5903 18.9967 14.7973
62.976 18.381 14.735
65.6086 21.1966 16.8164
65.1575 18.1279 14.3884
57.7677 18.5042 14.9047
58.4686 18.2429 14.3788
62.7554 18.5135 14.9775
68.6755 16.7142 13.8528
67.9569 17.6595 14.5413
56.1366 19.6668 16.1385
72.2106 21.2246 17.2122
68.5708 19.4128 16.5957
60.3186 19.6077 15.526
68.2844 21.5645 17.6823
68.064 19.9662 16.5707
62.0268 17.3884 14.761
61.922 18.1499 15.3791
63.6727 19.6597 16.3096
67.1978 21.7678 18.9603
70.6189 19.3638 16.3447
72.879 17.1664 15.3634
67.2293 17.8585 15.051
69.1518 18.9948 16.5278
59.4571 17.5405 15.7099
67.8265 19.9866 16.825
58.9987 19.4648 17.6661
60.8233 19.4499 16.6226
56.5382 20.205 17.5444
56.9253 17.7884 16.446
58.5002 17.8764 16.0513
56.8995 19.3763 16.6984
74.7049 20.136 17.7687
68.0717 19.4878 17.7933
56.2483 20.4373 18.5084
55.5736 18.1813 16.3398
76.1754 19.5947 17.8686
58.1275 19.1999 17.2438
54.4785 17.579 16.3068
49.2513 17.3475 16.1189
52.3162 19.6117 17.7827
66.7845 17.9291 16.4697
52.1958 17.153 16.1066
50.959 18.3009 17.4457
55.532 16.2078 15.5421
59.1746 17.5663 15.8221
53.5346 18.5683 17.3525
53.8765 17.3097 17.0252
57.4626 19.0714 17.8569
60.3831 19.0697 18.4361
51.9015 17.676 17.7958
55.8716 19.7067 18.8914
53.9588 18.8418 18.2342
56.2766 18.6584 17.6939
52.4045 16.7407 16.3495
59.7529 20.4164 19.5464
49.7312 18.005 17.5101
47.9393 19.6152 20.1549
57.7729 18.9463 20.1179
56.3835 18.8596 20.7062
62.9419 34.645 30.4755
55.0899 18.779 19.6847
56.8124 17.8299 17.9156
49.4377 17.9298 18.5047
57.3521 18.0582 18.5639
62.311 18.6206 18.2833
49.619 18.7888 19.3773
49.8058 19.4071 19.7034
50.2341 19.77 20.5011
48.4567 17.8717 18.7238
50.1203 19.7849 20.1654
51.029 16.985 18.9305
56.7233 17.0292 17.1834
48.9978 17.8518 19.3099
54.8804 18.6724 19.7086
51.4863 18.1074 18.8563
48.3628 17.8519 19.1835
55.5082 17.9293 18.5478
52.231 18.2339 19.371
53.8221 18.9275 19.8521
51.1229 20.2733 22.497
49.2318 18.9299 19.8723
48.6192 18.2954 20.1105
45.9275 18.2549 19.3923
46.1871 17.7916 20.1545
45.1675 16.891 18.6953
45.8541 17.0028 18.0975
48.6942 18.9708 20.2375
49.8548 18.5484 21.4896
49.5659 18.842 20.2601
42.8613 17.0064 19.339
49.0155 18.9087 21.0927
46.8918 17.7559 19.8281
45.8089 19.48 22.4087
48.6647 18.4241 20.8334
45.9647 16.949 19.2063
48.7208 17.9594 20.4914
47.8828 17.9245 20.7432
45.7897 18.6369 22.0514
48.675 18.2212 20.0235
47.7357 18.1359 21.5553
51.3802 18.3695 21.2529
44.5996 17.1636 18.8427
40.482 16.9714 20.0273
44.8852 17.8251 20.4237
46.3665 19.783 24.1872
44.8109 19.0527 21.5879
49.2718 19.0447 22.2767
42.5552 16.7593 21.0759
47.2637 17.0824 19.4526
48.8315 17.6312 20.8663
42.2744 18.4091 21.9661
43.8084 18.6671 22.9015
42.8742 16.8083 20.899
44.8373 17.7122 22.147
41.5486 19.2596 23.7364
45.2096 16.5263 20.4252
49.315 17.2603 21.5888
45.3976 15.9163 18.9842
48.7953 18.1929 21.9056
44.6081 18.595 24.1554
43.734 18.187 21.0953
40.9202 17.7699 22.6118
41.0895 18.8283 22.7406
41.6466 16.7321 21.6947
45.4026 16.6504 20.879
45.2474 17.3889 21.6305
41.9039 19.1046 24.3906
48.5522 17.4231 21.4441
40.1079 16.3579 21.9338
39.4623 18.1625 22.1732
42.4485 18.3666 23.0231
35.5025 17.1461 21.8909
36.3751 17.9912 24.892
43.2149 17.3601 21.4341
41.0694 16.8478 22.4509
36.2431 17.5819 23.3774
49.0867 17.9998 23.695
45.4524 17.2915 21.3493
40.6499 17.153 23.1083
39.8086 18.3556 24.2439
42.701 18.2668 24.1771
43.3734 19.3184 24.8225
43.2936 19.1799 25.1576
43.1488 17.1428 23.0454
41.6179 18.1282 24.7061
39.8345 18.5131 25.1245
42.7328 19.1302 24.7459
35.4031 17.3495 23.5614
43.2524 20.4354 28.0192
37.8716 18.7538 26.3083
36.2628 16.8248 23.5989
39.008 19.6553 25.8538
32.6093 18.9345 25.9829
31.1353 15.6539 22.4206
51.5542 18.6192 28.4507
42.5878 29.3081 36.0939
34.3543 19.8905 28.2584
42.8495 20.1344 27.0872
36.913 18.1455 26.2769
40.0487 18.7794 25.8324
37.2408 16.228 23.8897
38.3262 18.3435 26.2253
36.9301 17.1611 23.3057
36.7846 17.5572 23.9036
32.0769 17.4484 25.9273
36.2326 16.446 23.4129
33.2111 17.5547 24.7125
31.362 16.5536 23.7837
34.7566 15.8897 24.479
32.9186 17.4752 24.1199
35.2039 16.6621 23.577
32.6161 16.1226 24.1289
39.9031 17.7444 24.8647
31.7356 16.5342 25.3913
30.0033 17.166 24.762
32.7512 18.7365 26.2048
38.4633 17.6845 26.7648
36.0382 15.606 23.8331
37.203 16.4225 22.9643
31.6662 16.9334 25.5809
35.1424 17.9939 26.8802
33.8557 18.2111 27.2052
36.7759 17.5109 26.233
36.6827 18.9633 27.3761
31.7972 14.7175 22.7968
25.9477 16.3448 24.6161
38.5731 17.8988 26.9681
34.6714 18.0922 26.1731
36.3015 17.6681 26.8408
35.4637 17.9068 27.5722
36.4513 16.7263 26.1107
31.5647 15.0892 23.056
31.7731 16.1394 25.2457
31.6886 17.6927 27.1091
30.4983 16.9112 25.7722
30.5823 16.6041 26.445
30.9075 17.4728 27.4584
36.0021 18.4165 27.1752
29.0016 17.1563 25.4641
31.7158 18.154 28.7846
34.2419 17.4318 27.8258
32.763 18.0387 28.4895
33.7958 18.5229 29.2933
29.0855 17.5306 27.4962
31.5046 17.1414 25.6071
31.2179 15.3583 25.3307
36.2175 17.0853 28.4949
31.5916 17.8294 27.1844
30.4161 17.5751 29.3025
34.6767 17.2434 27.5498
33.6577 15.5727 25.1645
28.1711 16.0347 24.7585
31.2391 16.694 27.9268
33.7763 18.6669 30.7639
31.9152 17.4038 28.3969
33.735 18.1904 30.1721
33.9372 17.7093 26.326
33.2914 17.5786 29.8846
30.6519 16.7923 28.6593
27.4374 15.1397 26.7971
32.7022 18.3127 29.1209
32.3196 16.2501 26.9046
32.7297 15.6209 26.6636
34.1712 17.8531 29.1421
32.6768 16.0549 25.9876
30.3301 17.0406 29.3933
30.725 16.4024 28.1699
33.7173 17.292 29.3859
26.7252 16.8085 28.0366
34.4317 15.8567 27.2534
33.9732 16.6674 28.1169
31.9375 14.0825 23.5614
25.0197 15.272 28.4575
34.9727 18.3297 31.0057
31.7216 17.1652 29.5732
32.9663 15.6507 25.7136
27.4888 15.694 26.566
29.6595 17.2119 29.8104
30.8522 16.9546 28.1222
29.9274 15.2845 27.9856
30.3761 15.9891 27.8309
27.0924 16.4478 28.8976
31.0704 16.9672 30.631
32.3308 17.7875 29.497
26.7776 16.9494 28.8121
28.4991 16.1689 28.4149
30.8396 14.876 26.5035
27.8061 15.9735 28.1489
27.231 16.297 31.2234
33.5243 17.8386 33.0338
31.0343 17.9074 37.1917
34.7435 25.5257 37.1864
29.5487 18.3246 32.0507
31.5744 17.9282 33.736
26.5426 16.4073 27.5313
30.6172 16.094 30.7196
29.7785 14.9019 27.6554
27.6671 15.9314 27.4195
29.3387 16.7338 30.9578
28.3742 16.2151 29.8503
27.0947 16.7693 30.6123
28.6274 16.5901 29.15
29.2278 15.3195 28.6713
28.3475 17.7645 32.2513
29.4161 16.4419 31.3669
26.3395 17.3406 32.2782
33.4373 16.7207 29.999
32.3155 16.5808 33.1794
30.9333 16.859 29.6949
30.5502 15.2432 28.0721
27.5999 16.2447 30.2937
26.3859 17.4197 33.8307
28.6769 16.4396 29.7135
26.9079 17.3272 31.9117
25.5295 15.5409 29.0774
25.1768 13.8077 27.1164
25.2639 15.4276 29.7074
29.348 15.7198 28.4568
27.6372 15.6161 32.2817
25.6691 14.7206 28.2285
29.3256 17.483 32.6172
27.0532 15.852 30.323
27.9929 15.8834 28.8939
25.0826 15.6723 31.4778
27.0896 14.7821 29.9516
30.7556 15.3992 28.6858
27.9191 16.4245 30.5152
26.9226 16.002 31.0365
25.5305 15.422 31.4221
25.2501 17.0798 31.9007
27.3447 14.6157 30.813
26.0478 17.037 30.3044
22.1798 14.0864 26.9898
24.3883 16.3876 33.3579
25.504 15.3252 29.3403
27.4394 14.9105 31.7908
27.1519 15.7556 30.8193
21.8303 14.8176 31.2494
30.9556 15.9801 32.4265
25.6827 16.9857 32.4127
26.8274 14.4539 28.6069
26.2988 16.313 34.1871
22.6956 17.1954 32.0883
24.6393 15.9988 32.4342
23.7908 16.3344 35.4661
27.1175 16.0949 30.6591
24.5993 14.9088 28.2166
24.5049 14.7302 31.152
29.0301 15.7003 33.8565
25.9325 14.7105 29.4182
25.2891 16.4125 31.2994
25.8766 14.9122 31.2181
28.1569 14.6298 31.4885
24.5852 15.3879 31.0739
25.7582 16.6232 33.8369
25.274 14.2538 30.0615
23.982 15.1155 31.8418
26.6452 16.2099 33.1976
23.3664 16.3127 33.0385
30.3043 16.7657 33.9984
27.2808 16.1939 34.9281
21.8279 15.6554 29.6576
23.5976 16.4963 36.3975
28.8686 14.1676 31.1136
21.1463 14.4616 31.2078
23.6571 17.4966 34.1545
22.8301 15.2045 33.164
23.3159 15.0743 33.5663
21.7079 15.6283 32.0635
22.6838 15.6678 31.0162
21.4685 15.9217 34.421
18.3439 15.6067 34.2544
23.5549 15.7494 31.9283
22.4249 14.491 30.3731
20.9896 14.0714 31.7565
24.2063 15.2606 32.9213
23.0013 17.1188 36.0931
20.4696 16.5093 34.9024
22.5225 15.0097 31.5324
23.2022 14.1896 32.0141
25.3757 15.0246 32.3384
21.0043 13.9386 30.71
21.4415 14.83 31.8985
23.59 14.7916 31.2661
21.0339 13.9187 30.6603
21.2719 14.823 33.9263
25.533 17.358 46.1242
26.3441 28.505 48.9597
25.3733 16.0047 34.9391
23.7361 16.8522 41.7084
22.9108 14.278 32.618
24.0139 15.699 33.1673
25.2063 13.2477 31.3274
23.9184 15.627 34.6973
22.8777 14.9096 32.7545
21.3885 15.1585 34.4005
24.2678 15.0893 34.4675
20.3666 14.5198 32.9369
24.2742 14.8575 33.7946
22.8591 15.3943 32.8799
23.7697 15.7806 36.8558
28.0625 15.787 36.8242
27.0294 15.9635 35.0786
21.2661 13.5655 32.22
25.1557 14.8985 32.516
23.3794 14.3021 32.234
27.9126 14.0016 30.596
20.4323 13.985 33.0312
21.7645 14.4002 33.8051
22.1354 14.6984 31.8651
21.9952 14.5944 35.2816
22.5786 14.3616 34.533
22.1344 14.6834 33.7914
20.5597 15.1007 32.6122
21.2801 14.859 34.3174
20.8782 12.8614 32.6782
20.8644 14.8611 36.7806
22.612 15.8679 35.4449
21.4678 14.0702 31.7607
22.1947 15.1191 33.3521
21.066 15.4854 37.3694
23.1125 13.1913 30.5989
18.4072 12.8637 32.8495
20.7782 14.7105 35.0944
23.0222 14.195 31.6997
20.4609 14.596 33.8746
18.7846 14.1168 35.6181
19.6513 14.7692 35.3561
25.4154 13.8484 32.3884
20.2623 13.2388 31.8839
21.7939 13.8128 31.4638
20.4491 14.1363 36.0904
24.4252 14.0338 32.8461
20.9132 14.8341 34.8399
21.6694 15.7214 37.1911
23.0928 13.9582 32.9961
22.5807 13.8375 32.9381
20.5204 13.9708 33.5766
20.7252 12.9986 32.5648
20.3411 13.8901 33.1476
21.0843 13.7287 31.8823
24.6425 14.1109 33.7995
19.4035 13.2796 32.9356
19.7038 14.4377 36.8373
23.7398 15.6953 39.4588
21.4115 15.5001 39.82
25.2292 13.0904 32.2219
22.5171 15.3924 36.4731
19.2025 14.5262 34.4396
19.7573 13.9518 33.3487
