# pn-170911/RbIIR-51-WTZR-1280-1959.psd
# Power spectrum* (dif=0,1,2) (really just |FT|^2)
# NOTE: only the first half! (symmetric)
# weeks: 1280-1959
# 19 clock-days, 0 excluded
# PSD: 1441
675.02 0.196952 0.0529361
14432.4 0.535918 0.0441014
83401.9 1.65237 0.0588783
19745.6 1.13884 0.0578152
38945.5 2.88883 0.0431267
7181.79 0.693127 0.0450707
7402.54 1.12051 0.0428594
4736.6 0.982644 0.0408182
2694.57 0.981363 0.0506952
2004.82 0.587284 0.0461999
1600.13 0.798053 0.039846
2210.67 1.07733 0.0422092
2179.53 1.21353 0.0440921
1693.49 1.49101 0.0574445
1658.92 1.58799 0.0445386
1333.31 1.20366 0.0473405
1209.39 1.47893 0.0517903
1261.2 1.54947 0.0462152
893.367 1.52714 0.0532254
1118.24 2.33814 0.0628771
1980.89 3.21982 0.0408054
1048.67 2.54987 0.0589772
1352.12 2.48127 0.0518267
1233.19 3.41311 0.053087
1071.5 3.76007 0.0701753
581.724 1.79157 0.0364508
1662.43 5.54444 0.0618909
1139 3.75303 0.0581952
717.287 2.92057 0.0510085
1155.45 4.699 0.0717857
1173.5 5.06215 0.081685
1308.14 6.05549 0.0691592
968.819 4.96577 0.0643993
1049.87 5.25104 0.0940063
1146.19 6.70644 0.109525
1020.98 5.86678 0.0766028
1044.72 6.38644 0.0946387
1585.19 10.0682 0.105212
1171.7 7.65274 0.0885463
1232.91 8.66212 0.101967
1419.8 11.0122 0.127421
1219.21 9.94078 0.104638
1183.76 8.97904 0.124163
1195.95 10.8628 0.113783
1172.15 11.4314 0.147871
1129.04 11.3213 0.165482
1307.06 14.9736 0.173149
843.784 8.3116 0.0881581
1128 11.8061 0.235334
1035.11 12.1809 0.209692
1357.22 17.4027 0.220125
1382.34 16.4478 0.222737
944.662 12.6976 0.179237
1017.2 11.9832 0.192202
1279.66 16.8707 0.334819
661.086 8.91833 0.195605
948.725 14.2695 0.269584
1254.18 19.7049 0.347574
927.811 16.2948 0.228984
803.052 12.8115 0.272531
1332.71 21.1076 0.370309
1421.76 23.1766 0.424474
1013.77 19.1365 0.466769
813.835 14.6965 0.330418
939.756 18.553 0.365382
705.511 14.1792 0.306865
600.515 12.7758 0.29794
1015.78 20.714 0.500396
695.47 13.9557 0.353853
898.667 21.1645 0.477912
707.519 16.9312 0.479261
721.164 16.993 0.507419
632.395 15.2862 0.385921
731.628 19.5416 0.528306
1138.64 27.4758 0.778737
793.208 20.9964 0.626222
839.23 22.8888 0.66349
815.109 21.0277 0.67045
579.39 18.0802 0.506183
406.148 12.093 0.369512
633.003 18.0956 0.572099
641.441 19.6421 0.630565
562.979 16.5826 0.489956
915.244 29.8756 0.972284
466.958 16.103 0.574427
876.561 27.5795 0.989246
486.957 18.2514 0.614522
582.69 20.6882 0.734103
488.843 18.2045 0.659572
636.079 23.6857 1.03866
589.424 23.3556 0.947695
434.494 16.8859 0.679434
415.936 16.3783 0.79692
556.602 23.0014 0.877024
599.926 23.7726 1.04872
533.044 22.9192 0.981128
360.908 17.519 0.939834
366.841 15.6417 0.667262
488.611 22.5626 1.14746
337.93 14.9664 0.727256
583.797 27.7671 1.31816
445.979 22.1176 1.20021
511.344 24.3204 1.01538
477.962 22.7665 1.19099
677.072 35.2388 1.87731
385.611 20.0814 1.04054
320.634 16.8168 0.839618
520.763 29.2035 1.71684
261.28 14.8483 0.785913
441.565 24.7064 1.32993
328.558 17.1585 1.13162
363.824 20.0209 1.19847
532.72 29.8906 1.78704
495.063 28.4272 1.74195
409.996 26.1471 1.70311
522.603 31.1666 1.79822
289.934 19.0252 1.1996
256.395 15.8774 0.992537
309.671 19.3219 1.20987
430.2 27.3714 1.89064
256.88 17.1998 1.43191
380.574 27.0156 1.78888
227.96 15.7305 1.20726
268.654 19.4939 1.41644
305.356 24.2181 1.75196
331.737 24.2961 1.71143
298.706 21.9288 1.6355
284.42 23.2454 1.89083
327.504 22.5073 1.87637
404.914 31.4902 2.40288
268.679 21.9504 1.82206
360.832 27.0358 2.23824
182.153 14.6373 1.25874
224.752 19.509 1.79284
254.97 22.2965 1.97224
165.673 14.7207 1.25096
132.558 11.6094 1.05221
322.468 27.7348 2.63541
169.382 15.8221 1.5297
201.301 17.3002 1.60462
216.989 19.0684 1.77821
147.494 13.8238 1.40824
292.927 24.8518 2.2547
207.555 21.277 2.17649
144.452 12.482 1.18935
202.155 20.2125 2.06124
161.238 17.0338 1.88658
253.518 25.8005 2.76492
247.784 25.257 2.6457
159.961 18.7813 2.04921
262.475 27.8407 2.75325
221.453 22.5984 2.44335
205.132 19.2474 2.15542
158.253 15.7371 1.89837
154.937 15.6228 1.67145
173.065 19.4639 2.22132
174.803 18.8967 1.99871
137.129 15.3131 1.79135
130.762 13.9121 1.63201
231.082 27.4704 3.3898
162.921 19.2037 2.15672
136.284 16.8672 1.97586
172.549 21.3413 2.55898
183.96 22.0514 2.80543
181.693 22.9151 3.01622
158.463 19.6111 2.66575
159.248 21.7175 2.80671
108.446 13.0203 1.80875
147.452 19.2718 2.43604
169.265 21.4685 2.84603
167.601 22.945 2.97638
178.02 25.1455 3.69143
202.584 26.0473 3.44437
95.1564 12.5988 1.79092
180.232 26.1504 4.00187
162.739 22.4395 3.1631
104.293 16.3057 2.51284
155.304 23.3622 3.54767
120.227 15.8544 2.22948
112.593 15.1289 2.31335
180.723 24.9089 3.6225
164.392 25.2151 3.8682
177.909 26.1448 3.99457
136.783 22.0692 3.42916
140.042 22.8305 3.68957
167.018 25.9184 3.77477
104.174 16.3374 2.68124
140.695 22.8604 3.70162
120.735 17.0739 2.71374
91.8524 16.0527 2.7774
108.623 16.7101 2.92473
97.9572 15.2296 2.70125
124.735 21.2662 3.77321
119.251 20.8909 3.38885
122.141 21.6399 4.08706
133.578 23.128 4.38855
111.647 17.1276 2.64633
121.929 20.5533 3.65021
91.1462 15.8218 2.9879
103.591 19.7014 3.62059
108.718 20.5781 3.71308
85.1662 15.1528 2.79124
81.0154 15.0615 2.80945
59.9378 11.3932 2.2778
84.6586 15.5776 2.93657
147.438 31.3537 6.19624
89.4131 16.6978 3.35167
77.354 15.5809 3.10606
102.574 19.3467 3.7322
91.7627 18.0825 3.85488
134.309 28.0356 5.75949
81.2606 16.1598 3.70318
93.9413 21.2529 4.46874
128 25.7022 5.20362
71.2755 14.341 2.82332
63.5591 14.6239 3.3076
34.8462 6.65625 1.40644
62.4135 12.4288 2.67394
44.0077 8.7966 2.13244
87.2835 21.841 5.5314
102.028 22.6661 4.64405
84.7603 18.5169 3.92868
104.271 23.557 5.53046
56.7459 14.19 3.49323
89.3774 19.6557 4.52677
99.3485 24.2672 5.43865
67.2361 16.8514 4.34813
45.9596 10.1002 2.37173
72.2808 17.0097 4.01673
113.19 26.1051 6.22896
78.1411 19.2869 4.54381
121.612 30.7706 7.81595
58.1487 13.7994 3.71613
74.3953 19.7906 5.31181
79.052 19.9561 4.89203
49.6633 13.3859 3.66174
99.5323 24.0496 6.09439
113.327 28.9725 6.81456
65.1408 18.2886 5.41588
77.2839 19.0287 5.42342
103.17 25.5284 6.56301
93.8597 24.6368 6.7693
86.6473 23.7361 6.20061
62.4216 17.3656 4.76947
71.0531 20.5365 6.09117
77.6836 19.6329 5.32934
68.2067 19.3209 5.88661
76.6734 20.1513 5.43461
70.553 21.8984 6.29647
64.0507 16.5977 4.46664
90.9562 27.519 8.13967
67.7515 18.4818 5.3355
99.6131 30.1864 9.265
69.4126 21.0303 6.54349
72.0259 20.6914 5.92681
91.3643 25.4619 6.90801
78.3112 22.827 6.86901
41.9575 13.6478 4.22773
43.5631 13.0913 4.2423
50.9137 15.6328 4.73128
55.4488 16.4655 5.32963
57.7985 17.8 5.44126
72.4175 24.1106 8.1541
88.595 26.2619 7.76361
62.4784 22.1441 7.34066
74.8089 22.7235 7.72518
86.8766 28.9141 9.05112
54.6669 16.6888 5.24261
46.0958 16.9562 6.08511
43.4453 13.3868 4.69673
73.9982 24.8338 8.21616
76.9401 24.2542 7.62989
108.568 38.9803 13.0756
57.2023 19.2008 7.04091
65.1113 20.6306 6.47723
42.3284 16.0117 5.94978
56.993 19.8536 7.07111
68.1403 24.7155 8.72577
52.8107 18.5299 6.93391
93.3557 33.7897 12.0485
43.1472 16.9352 6.90068
58.2796 19.6136 6.99245
69.9966 27.4179 10.6333
108.787 39.9093 14.7224
74.5011 27.5938 10.0493
46.3907 15.9589 5.45398
68.9545 24.9867 9.39364
52.7834 18.6779 6.70152
59.0897 23.5917 9.24869
35.7121 13.7321 5.03935
47.7426 19.821 8.01242
55.1619 21.0462 7.87173
51.6793 21.0658 8.25873
44.2743 15.859 6.26463
58.7014 25.8661 10.9721
57.0796 23.9487 9.08115
67.4676 29.1766 12.5581
38.0147 16.4934 7.55842
55.5012 23.5667 10.6021
70.1835 26.1119 10.155
53.7486 20.3514 7.90106
32.1551 14.591 6.64354
45.6544 17.8364 6.64929
51.0753 21.1361 9.13225
57.8588 26.9559 12.0367
63.1557 27.9846 12.7323
57.8339 22.3316 8.92873
48.0433 20.6746 9.46697
51.299 19.4077 8.07796
59.7837 22.9295 9.88933
68.5618 29.5267 13.3927
49.2439 21.7008 8.7813
54.5538 25.698 12.3782
46.4857 17.9287 7.82105
40.3888 17.4599 8.1655
52.5052 23.3893 10.0762
37.4096 19.0519 9.93698
67.753 27.9399 11.9319
36.7529 16.7427 8.36493
71.4424 34.3879 16.0278
40.3777 19.8148 9.9184
56.5556 27.0721 12.5006
50.0744 23.4072 10.6947
51.2392 25.9918 13.8096
47.8531 19.6057 9.01645
42.6619 19.4868 7.98487
32.9766 17.4263 9.73197
54.0229 25.876 10.7664
52.6459 28.0352 13.8428
47.5926 24.1526 12.4798
38.7861 19.7113 10.7201
38.7735 18.4506 8.67924
34.4106 18.6135 10.3848
35.508 18.4629 9.98526
63.0962 31.7623 15.6091
54.364 28.1618 14.2142
52.8461 26.8954 14.4812
41.4189 19.7658 10.0881
55.3455 27.7739 13.9418
33.0202 17.3227 8.70465
41.2328 23.1159 13.1344
49.7303 25.2957 12.7472
61.2622 27.911 13.2251
30.2534 15.9031 8.98233
53.4488 26.7882 14.2573
29.8402 17.9681 10.8664
30.7012 16.5702 9.70974
34.2435 16.2982 7.43865
42.9873 25.5203 14.3654
43.3277 21.9131 11.7365
47.62 29.2091 17.017
33.7716 17.9719 9.73101
39.989 23.1954 12.2761
46.0437 28.2444 17.0644
33.6301 17.505 9.24273
28.7877 14.3733 7.77169
36.3019 22.506 13.9449
35.5535 18.0055 9.75473
22.0156 14.7847 8.90505
45.0833 29.4466 18.9881
54.4122 27.9335 14.8955
37.9282 23.4973 15.6089
54.477 27.0349 13.875
30.2245 17.0326 9.55817
48.0098 30.1804 17.4513
30.205 18.3361 11.6961
30.4747 16.4967 9.92203
40.7487 26.9839 16.4283
49.8002 28.4601 17.365
38.79 22.0502 12.2507
36.0081 23.9715 16.3328
44.9202 25.6079 15.5897
42.6482 25.8895 15.4217
30.168 19.1503 11.4266
30.8853 18.5229 10.1867
39.1953 25.7206 16.2334
23.7361 15.0957 10.1618
27.7191 18.8722 12.5928
36.5021 21.0935 12.5826
33.0362 20.9147 12.9735
36.8469 27.8699 19.1755
27.661 17.8705 13.1115
45.4052 28.3607 18.1327
41.392 24.9935 14.3939
22.6782 18.1939 13.566
31.2779 19.4269 12.4795
21.469 13.0027 8.53269
39.3229 27.4977 17.9137
25.3998 17.4015 11.8477
33.1357 25.0276 17.7307
26.2719 19.9312 16.606
43.2512 21.9182 12.9973
30.775 22.2115 15.8751
37.9379 26.205 17.6078
45.9273 33.8645 24.9358
27.1791 14.4134 9.6878
18.9337 14.7006 12.0728
38.0648 22.8691 13.5734
35.9062 24.7963 17.3489
20.3635 16.2426 12.408
47.6732 32.5165 22.7149
24.1893 16.9581 11.4934
19.8417 13.9297 10.7225
26.6585 20.2348 16.2373
31.8551 22.9671 17.198
39.2036 26.9189 17.415
29.0692 24.4219 20.5038
34.8934 22.0755 15.7338
28.5995 20.6823 15.5759
22.9898 15.6644 11.9631
37.7061 26.8141 18.8933
29.8413 24.7308 20.0003
30.5896 20.4653 14.7726
32.0039 22.7169 15.6969
43.684 35.2837 29.0479
34.8748 23.3861 16.7964
36.0382 27.5476 21.041
25.9066 19.9137 14.8376
25.8137 21.5592 19.917
39.8475 26.1402 17.3971
27.2812 22.9909 19.7257
30.0775 21.3714 15.3164
42.9413 34.4624 25.0123
26.8354 25.2894 24.1885
35.9419 27.3122 21.151
20.1677 14.1766 11.0403
31.1339 23.5517 17.1662
34.8677 30.6076 25.0717
28.8916 24.0566 20.0433
30.239 23.9518 18.6
32.0246 28.1754 24.924
30.0865 22.3964 19.6936
32.4024 24.74 19.671
41.3492 33.3538 27.8359
38.5987 30.6219 25.2188
23.0304 15.1847 10.9832
23.0657 19.6666 17.8334
28.2993 21.8041 18.7684
36.6608 29.654 24.8358
28.5099 23.2562 18.1863
28.5507 28.7585 29.424
42.7306 35.1565 27.8766
27.7002 22.1812 19.3668
37.074 29.8289 23.7989
24.7645 22.11 19.5419
24.4421 20.7744 18.3486
18.2247 15.614 14.3592
20.3648 15.2157 11.8904
19.6493 17.667 15.8546
21.9904 16.9837 14.27
19.4548 18.9667 18.9086
28.1645 29.7112 27.7777
22.6891 18.2774 16.1278
27.8794 23.8335 20.9139
37.0747 31.2261 25.0401
29.0796 26.4913 22.1436
22.937 24.739 25.7291
30.451 26.0533 23.2973
31.3568 26.1412 21.4905
27.0069 27.9811 28.8813
23.8632 19.7453 16.8574
23.5842 21.3497 18.2471
19.5302 19.7782 17.4632
15.7248 16.6442 18.341
29.4925 24.4988 20.2661
22.0265 25.063 28.1746
29.3586 24.6127 22.2629
16.3431 16.6306 16.2091
19.4363 17.2615 16.2892
26.9746 25.196 23.437
32.9821 35.3419 33.9957
20.3094 17.3907 16.0207
23.0905 23.7178 24.8394
40.5828 36.8694 36.1936
28.3785 21.7365 18.2191
22.4313 21.5535 18.2675
23.8251 24.333 24.6982
15.3322 16.4814 16.9635
21.342 24.733 26.2455
22.4184 20.1871 20.3921
34.2052 32.215 28.6788
19.8406 22.2579 23.6793
19.4132 17.0452 15.0106
17.8332 24.4832 29.7175
20.9055 19.0599 19.1939
29.2382 28.9702 27.4692
21.4654 19.8048 20.638
23.0904 26.248 29.0338
30.7542 29.7722 28.2894
15.915 19.6976 26.4494
34.807 33.8997 34.7755
31.4042 24.3845 22.1496
21.2935 20.3148 21.2873
27.5078 22.1178 19.0822
27.6847 31.0424 34.1289
20.9561 19.4194 22.5016
28.7576 28.6122 28.2566
17.5659 14.7403 13.7089
16.6317 21.8674 26.371
22.9206 22.2695 21.6044
16.6423 15.4401 16.72
24.7055 27.2238 29.2754
27.473 28.5684 28.1484
27.3135 32.9011 39.184
32.7149 35.6826 38.624
20.8366 20.5003 23.3992
24.1588 25.1504 25.9044
19.1023 20.6262 24.407
22.8408 25.8945 28.9577
32.7661 32.3333 31.2574
19.8385 25.76 30.1496
18.8308 17.7016 18.4828
13.5525 17.5106 22.1385
19.9246 24.1073 29.2484
20.7104 20.2208 24.0751
27.5084 30.2211 33.9715
25.5756 28.0001 28.293
11.6855 13.8279 17.6338
24.0895 24.4418 25.0053
22.5018 31.1125 36.3443
20.4897 24.7276 31.0631
19.1267 19.8332 21.9722
22.5157 25.6229 32.1531
22.1427 24.4842 28.3334
29.2875 34.9174 37.4539
18.1185 22.7281 32.3772
20.4219 19.2004 19.5342
17.4665 19.7917 21.5245
23.892 25.9045 27.5429
14.2819 17.8937 22.4209
15.354 17.307 21.5785
17.3447 18.4805 19.7806
14.3505 17.1297 18.2933
10.439 16.971 26.8113
17.6359 19.9562 27.5001
21.1288 24.671 31.2344
17.6063 18.9569 21.0338
23.2294 28.3875 31.0228
21.6606 27.193 32.2845
18.2972 23.7461 30.0701
19.4486 22.9359 25.7341
13.6018 17.1663 24.0009
21.5344 25.9233 30.8918
23.3084 31.3591 37.3193
16.7089 22.4593 31.0927
15.5688 20.3445 29.0497
16.6137 15.6068 20.3518
13.8207 17.5104 24.3003
20.328 24.5751 28.4002
18.3401 19.8816 21.0843
13.9728 18.9049 23.5261
18.5132 26.6532 37.2881
21.3526 24.5467 29.9441
15.3359 18.0434 23.1705
18.0864 22.0462 29.4069
20.0485 21.4631 22.4684
12.963 19.4746 26.6984
19.8607 27.6239 35.6407
11.0437 17.4186 30.7558
20.5271 25.1367 31.9565
11.8483 12.3377 17.1779
21.0863 28.3925 37.8285
19.2928 26.7815 35.9037
11.1568 10.957 14.3992
14.5206 16.737 22.2585
16.155 21.855 30.3731
19.3025 24.2617 31.6737
11.0065 16.1795 27.1608
16.1452 18.4703 25.9558
20.5674 26.3398 28.2156
12.4771 21.2636 31.0448
11.14 12.5979 19.5428
14.4259 17.8082 24.6762
13.9313 19.3446 26.0096
15.6154 19.6528 26.3447
16.3842 22.6597 31.2191
15.7855 17.8397 24.9312
21.5664 28.7156 36.091
16.8624 24.4355 35.1229
19.0592 23.4475 29.7961
15.7576 21.7387 26.9494
14.6893 22.0584 32.5085
18.7064 24.9135 31.8583
27.0292 43.3506 59.5843
22.7044 33.1813 47.5974
15.9028 21.0676 32.24
19.9402 34.1377 55.1619
17.7028 22.1697 30.0622
15.6502 23.2152 42.0126
33.1421 45.2337 62.5214
33.9286 45.2469 54.2486
15.1323 21.775 32.9336
13.0964 18.3045 27.5787
11.2727 17.9631 28.3908
20.5144 34.264 52.4142
17.9666 22.6154 31.2267
9.91385 14.4604 25.8331
16.9799 22.7087 30.0454
14.7936 22.4209 36.5878
12.084 16.1664 28.7263
17.2666 23.2168 34.2242
16.5594 19.8396 29.3118
24.3666 36.0395 49.4804
18.4929 29.5601 46.8122
18.7167 26.1511 41.2577
17.7584 25.8977 41.8219
20.4977 25.3333 29.3795
15.7103 27.1946 41.5458
14.7792 21.0718 32.4839
20.0003 26.1657 36.3516
12.3055 15.9835 21.5551
13.3007 20.2764 26.385
14.3606 28.7239 50.6296
18.5375 28.6833 45.2608
16.5368 27.1767 45.3708
17.9451 22.4917 29.5725
10.8583 19.7614 35.2473
12.5676 16.8007 24.9723
14.1571 24.7049 36.2754
14.7376 25.9922 42.3825
11.2274 18.6515 36.5015
17.8929 25.9104 34.1128
13.3176 21.4935 34.4346
12.5738 17.4347 27.3979
16.0813 25.7521 40.8606
8.75488 14.7428 32.2123
18.8081 25.9597 37.3932
16.5132 25.0188 37.8186
16.5914 25.9992 39.1197
16.1339 27.1218 43.8945
12.9631 18.0674 25.8871
8.92797 16.5365 33.2355
15.4822 20.9055 29.352
11.7365 23.7277 45.7452
15.7383 23.1191 37.5483
16.5366 24.4577 36.7653
20.5681 35.173 53.8384
10.7118 15.0088 29.4054
17.9482 28.9103 45.1522
14.8358 22.7806 36.3746
17.5597 29.3274 48.3622
14.9433 18.0024 23.0917
10.7609 21.6012 42.1202
17.7751 26.2934 39.4051
11.9216 17.0511 25.7005
13.9497 29.0162 49.0506
11.3832 17.6548 31.4948
10.6075 16.9279 27.8496
12.9602 24.1593 43.8935
10.1464 15.5323 30.4518
11.8724 19.4165 30.8299
10.4194 18.8621 38.7424
17.5988 26.6091 35.6004
10.6032 17.3801 29.2342
10.1554 14.4138 22.1543
11.203 21.3083 38.8277
16.5653 27.4407 41.8575
6.19612 10.3432 21.4992
9.59326 16.2741 26.0255
6.86668 11.305 21.3881
9.46173 16.6515 34.4909
12.2917 18.9264 32.7939
12.6436 21.9471 35.4058
7.44539 12.9786 25.6371
13.3059 21.9743 35.7629
10.8297 18.349 28.1007
10.384 20.7868 38.7538
6.61273 11.661 24.7069
15.2552 26.7551 43.9583
9.56844 17.6576 38.1965
12.4391 18.2956 34.615
15.1877 23.4639 34.3678
13.2922 24.5742 41.2967
11.5832 21.3587 38.0255
9.90947 18.5749 35.1188
12.4603 19.9862 30.9409
8.33521 15.1692 27.4873
9.54498 19.8061 36.656
7.91814 12.8226 29.4127
11.0568 16.6255 26.7671
6.77437 14.3631 32.7976
11.8946 20.4989 35.5083
12.3086 21.0991 36.64
11.2953 21.553 37.3454
9.64936 19.0509 38.6856
10.8601 21.2291 46.6045
13.4444 20.3152 38.844
16.5025 26.6756 40.971
11.1256 18.0267 29.9089
11.7598 23.4569 36.0905
9.47692 18.8423 39.3371
13.5408 28.4382 60.4682
13.6712 20.7756 32.9605
8.85913 16.2421 36.5244
10.473 15.9435 27.328
10.8911 21.7189 46.7338
13.2294 19.9651 32.7443
9.82977 18.076 33.9957
9.58042 17.6927 31.8047
10.905 21.815 44.6032
10.1825 19.1587 38.35
11.048 19.4313 41.6814
10.6116 17.4092 25.1916
8.35949 18.7238 37.3771
10.5334 19.5944 35.4375
10.5058 22.197 45.4751
9.22366 14.7497 31.1889
10.9036 18.3899 30.875
8.84867 15.1802 31.0082
10.2051 18.0474 33.4827
9.08903 14.5006 27.6918
10.5631 21.2787 40.0444
8.30486 18.2683 42.4515
9.40298 16.3166 33.6003
13.7675 26.2925 47.4465
6.3028 12.5619 40.49
18.021 30.1912 51.027
12.3936 24.1925 51.7149
13.5442 19.4756 29.6181
11.9867 27.4083 53.8106
10.6864 22.2932 53.5402
14.684 27.5658 45.6488
8.30918 13.0732 26.9871
9.18594 17.3424 33.5532
8.94636 14.9957 27.7231
8.71639 18.983 38.0912
11.7139 26.4374 50.9726
10.4073 21.8321 51.4934
12.8945 23.095 47.3877
11.4393 20.5025 35.1319
9.41979 15.5489 24.5411
9.03624 22.9025 43.2887
7.69184 22.41 53.7235
9.77076 16.0026 33.0546
11.4831 26.0049 50.5616
9.74633 23.7132 56.4476
12.659 21.1282 44.3853
13.5979 24.6095 39.1643
7.07829 15.9347 37.8429
9.07608 17.9783 33.5301
6.97498 17.1808 44.1884
10.7686 18.7025 31.6783
7.26022 17.5682 44.6478
8.11363 14.601 40.7884
11.9269 20.1514 36.5323
11.2877 20.209 37.0002
10.9561 21.1687 34.5028
11.4025 32.7147 69.4373
7.12383 14.9464 42.505
12.5279 24.2244 54.484
11.7438 25.0811 50.3659
9.86031 23.0195 52.5313
9.53412 16.8111 30.1059
6.6357 13.438 32.7336
8.82002 21.8293 54.5557
11.5642 17.0662 29.805
7.03517 14.9931 32.3531
7.96199 15.2953 33.2423
8.70834 16.7912 27.1388
7.68648 18.9421 39.5502
7.74881 15.5899 29.9045
6.44006 16.5219 39.9162
8.26726 19.4324 46.7037
7.61291 11.2151 21.4304
6.06547 14.2647 39.6076
9.93083 22.0754 47.8502
11.3168 25.1192 42.9816
5.30588 15.6864 48.6358
7.45429 12.9032 34.256
10.2328 18.2155 33.8826
7.93141 17.663 38.7938
9.77039 22.1146 44.209
6.67547 16.1567 42.1661
8.07794 12.9633 23.4562
5.05103 11.3022 31.6368
8.79197 15.5166 26.9452
6.24844 15.9355 34.4033
7.8006 19.9508 51.4658
9.16469 20.7964 46.9757
8.06946 14.7266 28.4105
7.48862 17.8868 34.7631
3.57393 8.11227 29.7395
10.5781 26.5388 50.3683
7.16887 17.1791 46.1941
7.5856 12.802 26.5705
4.30423 13.1042 46.6801
10.2217 16.0653 28.9457
8.16988 18.367 40.921
8.05567 19.914 49.0374
12.3394 26.5215 49.2096
8.83507 20.2348 47.7579
8.79002 19.26 37.1598
6.71501 14.6933 32.6009
6.59913 21.7205 60.4633
8.7514 14.233 35.4212
11.146 22.4452 39.7901
6.08936 12.1514 29.9435
9.44152 26.48 51.7224
6.94319 19.5052 49.8387
9.32453 19.7044 41.6035
3.99833 10.7396 37.4837
8.23466 17.5852 42.5789
7.93175 16.9793 39.0927
6.86468 13.2211 27.4361
6.62754 20.9296 58.2171
7.33908 11.0242 26.6223
9.64568 25.1493 45.363
5.79598 16.8754 43.5792
5.01883 8.78139 21.1481
6.50908 17.5822 44.3334
7.15643 16.0502 44.4517
8.70217 19.083 40.2772
7.74825 18.6981 42.6204
6.80963 17.7301 47.1411
7.73242 17.9647 41.2405
7.9787 18.8155 46.3152
8.38646 21.3157 53.1079
7.88101 16.7206 33.6247
5.47494 15.0661 45.742
9.91687 18.2733 38.184
7.02124 17.6218 47.0756
10.9772 23.5247 46.9111
9.69183 28.2166 61.3466
6.43039 16.5851 45.6364
6.29036 14.1499 42.8719
9.86018 22.0875 56.8115
10.7912 22.0674 34.9966
6.89234 19.4686 45.7197
7.95027 20.3845 42.9588
5.7539 17.1208 47.6149
