# pn-170911/RbIIA-29-RbIIR-1280-1959.psd
# Power spectrum* (dif=0,1,2) (really just |FT|^2)
# NOTE: only the first half! (symmetric)
# weeks: 1280-1959
# 685 clock-days, 221 excluded
# PSD: 1441
6029.81 0.155289 0.0240369
336931 5.51491 0.0107517
1.73613e+06 34.9163 0.0116037
132677 4.91311 0.0109024
160856 9.27552 0.0115324
63232.4 5.04606 0.0113021
39930.1 4.828 0.0114066
33334.3 4.40809 0.0116736
27536.7 6.12573 0.0125198
19317.1 4.80068 0.0126317
16129.5 4.92926 0.013192
11985.8 4.57517 0.0134821
11196.1 5.10329 0.014672
9228.63 4.75877 0.0146374
8072.63 4.98975 0.0152502
6757.17 4.47444 0.0158051
6054.48 4.66793 0.0166092
5544.87 4.77601 0.0173636
4885.12 5.14218 0.0180736
4115.81 4.63934 0.0190985
4015.16 4.66064 0.0199919
3615.2 4.54414 0.020507
3130.3 4.64102 0.021746
2865.36 4.31899 0.0224346
2651.34 4.70609 0.0231869
2389.2 4.31415 0.0240306
2306.24 4.85989 0.0263617
2031.08 4.6537 0.0259713
2105.42 4.98024 0.029144
1764.63 4.73848 0.0315701
1746.08 4.77206 0.0303466
1684.43 4.85792 0.0337476
1456.74 4.62842 0.0349186
1444.12 4.64057 0.034913
1443.8 5.10354 0.0402842
1222.08 4.50643 0.0379607
1288.77 4.83373 0.0411761
1148.02 5.16189 0.0439645
1181.17 5.30154 0.0478807
1041.86 4.85006 0.0459499
1024.19 5.1437 0.0510422
934.193 4.789 0.0490818
903.494 5.25482 0.0564098
916.979 5.3568 0.058471
807.082 5.04763 0.056363
831.759 5.14847 0.0605677
882.002 5.8204 0.0675667
775.983 5.30604 0.0660862
743.646 5.60269 0.0713956
702.675 5.41768 0.0738351
671.781 5.5052 0.0751119
691.113 5.7685 0.0832055
663.868 5.75233 0.086205
625.931 5.69957 0.0851025
634.367 6.05509 0.0952028
597.649 5.98715 0.0955547
571.993 5.7516 0.0969907
551.2 5.99878 0.104328
529.201 5.83088 0.101106
538.708 6.31514 0.119422
484.408 5.88939 0.114567
534.565 6.58677 0.12682
534.275 6.83981 0.132743
495.225 6.75007 0.139952
486.92 6.86104 0.142221
463.727 6.45435 0.140018
470.561 6.86927 0.15144
442.803 6.69156 0.152697
442.08 6.72352 0.158249
444.594 7.6458 0.187469
430.704 7.31856 0.179007
390.457 6.70849 0.173389
421.752 7.42671 0.193555
422.566 7.61777 0.201587
417.417 7.92249 0.218554
391.219 7.73327 0.220287
350.446 7.14839 0.209681
353.738 7.11057 0.211747
364.936 7.86587 0.235412
335.533 7.59654 0.235751
343.07 7.61582 0.246112
338.003 7.82777 0.25706
365.043 8.8289 0.296299
322.155 7.74381 0.261255
343.795 8.70915 0.306248
343.065 8.59759 0.305063
308.638 8.50761 0.31863
320.832 8.96949 0.332082
307.885 8.61567 0.331241
331.073 9.7868 0.377823
283.24 8.1089 0.322032
297.603 9.246 0.368823
275.722 8.25791 0.343267
271.615 8.57488 0.3592
271.315 8.72982 0.374774
269.543 8.91656 0.395009
265.6 8.88701 0.397148
265.835 8.94884 0.412236
265.137 9.65009 0.451437
261.836 9.45885 0.44412
270.258 9.79386 0.490725
237.75 9.24632 0.459767
245.466 9.84171 0.492431
239.576 9.30673 0.484441
254.261 10.132 0.522338
250.497 10.0428 0.535461
240.005 10.0654 0.551481
231.237 9.93239 0.552174
232.713 10.0979 0.581404
236.762 10.4447 0.600314
228.756 10.2552 0.598185
223.173 9.94973 0.588921
229.409 10.5044 0.640585
225.277 11.2468 0.69257
218.093 10.777 0.685692
218.543 11.1707 0.720852
206.188 10.8801 0.69978
211.055 11.2973 0.734709
200.249 10.7631 0.724584
214.736 11.2828 0.768487
212.384 11.6994 0.802866
194.478 10.8403 0.770307
203.151 11.4711 0.821475
203.943 11.5173 0.839721
187.949 11.0451 0.815458
191.422 11.3701 0.856454
199.403 12.2977 0.917359
181.365 11.1132 0.885281
199.339 12.5611 0.987643
180.102 11.6031 0.932767
178.345 11.5944 0.929098
177.494 11.4289 0.94452
184.999 12.7287 1.06096
197.738 13.8595 1.17817
165.498 11.9267 1.0242
175.19 12.1065 1.05255
169.811 12.4 1.08881
178.577 13.4071 1.21965
172.846 12.875 1.1795
179.418 13.5008 1.22891
159.356 12.3099 1.15521
167.42 12.8749 1.22882
153.215 12.2511 1.17469
158.149 13.0749 1.28319
169.341 13.9594 1.38245
167.49 13.8402 1.38526
159.886 13.4529 1.36759
164.155 14.1551 1.44891
154.381 13.5217 1.41384
158.024 13.665 1.45327
158.196 13.8028 1.46727
158.584 14.2579 1.54386
152.888 14.0256 1.53442
157.122 14.7187 1.63888
152.226 14.4042 1.63215
145.861 14.0732 1.59497
156.653 14.8461 1.71508
139.668 13.6403 1.60077
134.518 13.0493 1.53775
140.35 14.2854 1.71554
133.704 13.6917 1.68609
139.691 14.395 1.76191
138.76 14.3977 1.7973
144.532 15.4456 1.94235
130.488 14.002 1.78103
140.085 15.4278 2.01157
142.964 15.594 2.01621
138.68 15.2981 2.03623
137.699 15.3749 2.06904
125.672 14.3643 1.96773
134.575 15.1124 2.0382
125.919 14.6881 2.03365
126.874 14.7135 2.07126
129.135 15.2149 2.17066
128.942 15.388 2.22726
129.937 15.9788 2.32122
124.83 15.6143 2.29836
118.669 14.6598 2.17966
115.686 14.679 2.20879
121.203 15.5297 2.34304
119.835 15.7051 2.41625
119.912 15.1614 2.35381
116.441 14.9374 2.32047
118.128 16.0801 2.5921
111.544 15.4817 2.46156
115.461 15.7918 2.53051
104.855 14.1976 2.3049
116.803 16.6218 2.75081
106.557 15.7585 2.65611
115.34 16.7378 2.84111
114.602 16.4791 2.80936
107.176 15.8969 2.75646
107.927 16.3524 2.88536
111.2 16.6516 2.93438
111.915 16.7604 2.93625
110.369 17.0314 3.05551
108.399 17.2099 3.06183
108.683 16.9446 3.09307
104.751 17.0084 3.18112
103.581 16.8974 3.14199
104.853 17.4458 3.31874
101.147 16.4511 3.10846
103.94 17.4654 3.36483
98.139 15.5379 2.9875
108.612 18.1801 3.56763
99.2521 17.1572 3.3962
101.484 17.2263 3.39772
102.473 18.0075 3.63776
104.07 17.7787 3.57843
100.602 18.3057 3.73629
95.369 17.4173 3.63091
97.6381 17.7683 3.73631
99.8759 18.0603 3.77228
94.1069 17.7095 3.75946
92.0321 17.3082 3.73121
101.066 18.9507 4.12637
91.4523 17.0403 3.67947
90.5283 17.147 3.81235
87.2364 16.9814 3.79472
86.5232 17.1693 3.86691
87.248 17.4088 3.96554
86.2456 17.1202 3.93752
85.3223 17.719 4.07562
88.2619 17.77 4.13107
93.2368 19.4306 4.57215
84.2697 17.0889 3.96106
87.4735 18.6186 4.48652
79.3848 17.1762 4.20836
92.0036 18.8468 4.55156
91.2885 19.1936 4.58155
83.1477 17.7095 4.41307
90.0463 19.2019 4.78098
85.3306 18.5347 4.61317
83.788 19.0301 4.87668
84.5829 18.5557 4.70229
85.9587 19.3128 4.92899
76.5365 17.1737 4.42464
82.4231 19.0939 5.05208
78.1386 17.5383 4.64312
83.1963 19.3021 5.20399
82.3158 19.5606 5.18986
76.9339 17.9675 4.98287
77.3326 17.871 4.84261
75.0519 17.5274 4.72762
78.4126 18.762 5.13012
75.1224 18.8957 5.29237
81.0889 20.4854 5.75428
74.5015 17.9793 5.12902
80.2029 19.8855 5.81799
79.0411 20.2788 5.78968
78.1207 20.5318 6.0829
75.0677 19.3752 5.59783
72.0891 19.6656 6.02844
82.1942 20.1435 5.83053
71.8686 18.9851 5.63387
78.2752 20.842 6.25108
71.6939 19.282 5.90471
81.4184 22.5276 6.85119
69.3948 18.5225 5.69686
71.9669 20.7093 6.5936
70.5678 19.2735 5.93607
75.0736 20.8705 6.72306
69.0616 18.8047 5.92652
68.4232 19.8403 6.38618
69.079 19.7614 6.36036
70.7878 20.3117 6.71761
71.2206 20.7037 6.65763
69.1704 20.1746 6.72555
67.7159 20.591 6.84289
63.6674 18.9108 6.31825
63.8507 19.329 6.48965
67.3209 19.7651 6.59032
59.1255 18.8767 6.6537
61.5498 18.2104 6.25935
63.7707 20.5957 7.22205
64.7694 19.5689 6.82716
60.4951 17.9244 6.4051
60.1443 18.95 6.73835
62.455 19.7624 7.19904
62.6596 19.972 7.12173
62.6435 20.2299 7.2852
62.082 20.3843 7.47121
64.6623 20.8318 7.63661
63.9756 20.5445 7.52399
58.3441 19.1327 7.2019
57.6893 19.0153 7.24863
59.4902 19.5715 7.27719
54.9493 18.7109 7.14506
62.2453 20.7331 7.95865
58.3319 19.452 7.46809
60.3812 20.1765 7.63378
56.5212 20.0471 7.89116
56.6372 20.2848 8.00992
58.0232 20.2079 7.90416
59.6579 20.5585 8.24209
58.602 21.1591 8.49932
56.2345 19.9435 8.19852
60.4132 21.3523 8.62729
54.749 19.2208 8.00608
59.6923 22.4072 9.00774
55.4283 20.1464 8.49775
56.6735 20.4721 8.40929
51.9396 18.5758 7.96575
57.4049 20.9855 8.73203
54.8508 20.4163 8.57858
58.2604 22.3145 9.69649
55.1858 20.3003 8.46613
53.2166 20.9353 9.21466
56.5712 21.1261 9.11199
54.7508 20.964 9.33358
55.6973 20.72 8.92811
50.942 20.4303 9.22261
53.9554 21.5909 9.58564
44.4715 17.9154 8.24802
54.9868 22.3733 10.0333
50.1021 20.671 9.26002
54.4072 22.3775 10.2283
50.052 19.6889 9.09028
53.7693 22.4607 10.3894
48.7645 20.6512 9.68779
48.453 20.0188 9.59971
49.6765 19.9199 9.22563
48.8071 20.3785 9.81058
53.7597 22.3229 10.6323
47.1355 20.2097 9.71128
51.8102 21.4595 10.2071
47.1908 19.8991 9.56761
46.1517 20.6392 10.1167
49.3874 21.1847 10.2526
48.9006 21.4313 10.7462
46.1964 19.8983 9.92914
46.3686 20.6048 10.5409
48.2596 20.4582 10.2473
46.284 21.0874 10.7963
44.4225 19.3681 9.89766
47.4629 20.5408 10.42
46.1749 20.671 10.4182
44.6854 20.4437 10.7372
47.2872 21.6233 11.097
41.9127 19.3865 10.1109
48.6669 22.8174 11.7916
41.4147 19.015 10.2728
42.7713 19.4573 10.2513
41.8431 20.6371 11.0409
37.3306 17.5891 9.63821
43.8171 20.0978 10.5889
41.2749 19.8981 10.9133
40.2539 19.2446 10.5424
38.9714 19.1561 10.5103
43.368 21.2276 11.7383
40.8764 20.576 11.3778
41.6669 20.4188 11.383
43.1064 21.6653 12.407
39.9467 19.8902 11.4562
41.9212 20.1808 11.1451
38.6274 18.9637 10.9404
38.6748 19.9991 11.6432
41.1623 20.2372 11.7316
37.9657 19.7597 11.3382
38.3985 20.3638 11.9302
40.7818 21.3131 12.3892
41.1701 21.486 12.8017
40.5143 20.5391 12.1032
37.7928 19.4942 11.6869
42.5701 22.0739 12.9405
35.7047 19.1212 11.4712
36.2725 19.1728 11.5471
35.759 18.6151 11.4428
37.3615 20.2285 12.3335
39.9846 22.0275 13.5855
35.7993 19.3136 11.9011
37.6354 20.5443 13.118
38.4806 21.1812 13.2048
36.4206 20.4481 12.4105
34.5915 19.9829 12.8774
36.0327 21.4455 13.5463
35.0142 19.7551 12.7528
35.9636 20.0745 13.004
35.7106 20.0974 13.0689
37.3559 20.749 13.0549
36.503 21.2243 13.7247
33.3833 20.0845 13.059
34.0136 19.3241 12.8158
35.8033 20.7968 13.4519
33.684 20.485 13.7947
36.2317 21.0899 13.8271
32.6568 19.5935 13.4412
33.2797 19.6784 13.3421
34.1509 20.178 13.5514
32.1418 19.6284 13.2213
32.0547 19.6196 13.6959
32.3158 19.0485 12.8374
31.5303 19.4418 13.5887
33.4102 20.2075 13.7389
29.023 18.6174 13.1554
31.9274 19.8133 14.14
32.6291 19.9896 13.6689
32.8085 20.6014 14.5777
34.35 21.3015 14.8706
32.4731 20.2607 14.047
31.2815 20.4444 15.0263
32.0234 21.4558 15.5147
30.7593 20.1498 14.759
31.6594 19.8436 14.3479
31.9215 20.1301 14.4315
30.6274 19.6028 14.6563
30.52 20.0608 14.6031
29.7067 19.5093 14.2294
30.7525 20.3794 15.2908
32.9536 21.1383 15.5356
29.4335 19.2111 14.5032
28.0864 19.0767 14.5896
27.9864 19.0487 14.8005
31.0147 20.7506 15.7827
31.0348 21.0007 16.0369
27.7918 18.831 14.5432
30.3493 20.4936 15.619
30.1701 20.7157 15.9711
30.2026 21.1433 16.6141
29.3943 19.9827 15.7194
32.4234 22.1978 17.2905
30.4784 20.2255 15.7548
29.8573 20.7904 16.2633
30.1077 21.2941 17.247
29.535 19.865 15.5742
28.3097 20.298 16.2733
30.5614 21.1474 16.8603
29.2335 21.0115 17.3978
27.9257 19.7582 15.8524
28.3673 21.3301 17.3739
29.9436 21.0289 16.8718
26.411 19.0417 15.5304
26.2697 19.6369 16.5144
26.7942 19.8402 16.3417
26.1523 19.7272 16.2321
26.1099 19.3754 16.3403
27.3295 20.1107 16.6695
27.5 21.3838 18.2999
28.7076 21.3382 17.579
27.2123 20.0411 17.3606
27.8458 20.6392 17.9117
28.3742 21.363 17.6913
24.5369 19.1763 16.8589
28.1744 21.2966 17.9811
26.825 20.4514 18.0173
26.6255 20.1399 17.283
26.5571 20.1421 17.6701
26.1896 20.3183 17.4085
26.1836 21.0019 18.509
25.6613 21.2892 19.172
26.1207 19.8521 17.9738
27.0614 21.0122 18.4566
26.2604 20.624 18.2799
25.3273 20.1444 18.3378
24.6492 19.1195 17.1401
25.2033 20.4723 18.6056
26.25 21.1713 19.1129
25.8274 21.0168 19.3503
24.6694 20.3859 18.5406
24.5301 20.06 18.5287
24.3881 20.5629 19.6993
25.4119 20.995 19.5266
24.4669 20.2906 19.3444
25.1684 20.5554 18.8803
23.5838 19.3477 18.2369
23.9182 20.0189 18.6853
23.6961 20.3961 19.8944
25.4752 21.3579 20.3641
24.7295 20.1746 19.0099
23.9725 20.9561 20.0002
23.6338 20.403 19.8325
22.9413 20.4368 20.4104
25.4469 20.9302 20.0851
23.8106 20.2379 19.965
24.8291 20.8977 19.9075
23.2533 20.7756 20.4562
24.3955 20.3863 19.7482
22.8196 20.2976 20.3569
27.2235 23.278 22.2777
21.2931 19.1873 19.6533
22.7611 20.147 20.2898
22.606 19.9858 19.757
23.869 20.7949 21.1108
22.5423 19.432 19.2299
22.6293 20.6039 21.2323
23.6254 21.4994 21.6967
22.3567 20.4291 21.2477
22.8878 20.5017 21.0182
22.1282 20.2715 21.2474
23.1739 21.3453 21.7244
21.4864 20.1599 21.5014
21.7348 19.5529 20.1693
22.8058 21.3397 22.3086
23.0814 21.0094 21.8884
20.5379 19.208 20.3092
20.6146 20.0426 21.6812
21.6932 20.0601 21.3748
21.5619 20.6624 22.7366
22.0035 20.388 21.399
21.3179 20.4252 21.7798
22.444 20.5626 21.7778
21.9388 21.4137 22.9376
20.2805 19.3468 21.2661
19.7411 18.6387 20.2881
21.418 20.8146 22.47
20.4464 19.2735 20.8762
20.384 20.0559 21.9182
19.9208 20.5613 23.4559
21.857 21.2746 23.4547
20.6187 19.5049 21.6877
19.154 19.0447 21.6276
20.9558 20.6469 22.6913
21.8226 21.2975 24.0308
21.6038 21.3519 23.5143
20.9836 20.8962 23.5462
20.8978 21.6361 24.6814
20.2979 19.2846 21.6886
20.414 21.2782 24.4986
20.9817 21.3883 24.6737
19.9496 20.8084 24.2054
19.8406 20.578 23.7562
20.21 21.1094 24.9059
20.3227 20.2133 23.1893
20.9939 20.8584 23.8642
18.7983 19.5921 23.5074
18.3775 18.6936 21.3467
18.1858 19.1581 22.7877
19.5679 20.0218 23.3242
19.0798 19.8574 23.4332
17.864 18.5097 22.2491
18.28 19.6148 23.9685
18.9355 20.8084 24.965
19.0272 20.4321 25.1836
19.3875 19.4933 22.6298
18.4518 20.2855 24.4607
18.6959 19.7365 23.8541
18.3143 20.1706 23.9239
17.4213 19.6301 24.5034
17.5642 19.8509 25.2042
18.5137 20.1446 24.8754
19.0401 20.4589 24.4903
17.9113 20.0085 25.8923
18.9131 20.1276 24.6242
18.264 20.719 26.2965
18.2476 19.5844 24.596
18.3205 20.2486 25.2955
18.6714 19.5977 24.2159
17.771 19.787 24.7146
17.4392 19.7935 24.6541
16.4731 18.996 24.8476
18.8317 21.5489 27.0672
17.697 19.0298 24.2878
18.2164 20.5732 26.2613
17.0511 18.9517 24.1717
16.9013 19.5446 26.5097
17.5888 19.7322 25.1999
15.6041 17.5627 22.7284
16.6824 19.9594 26.42
17.5039 19.5667 24.8954
16.4325 18.8738 24.022
16.3048 19.7576 26.5157
16.9469 20.8378 27.9497
16.7554 19.5079 26.103
17.3057 20.3822 27.4806
16.787 19.6741 25.6304
16.2643 19.03 25.841
17.3436 20.8456 27.8764
16.1249 19.6219 27.4549
16.9769 19.4224 25.2509
15.7321 18.5588 25.1483
17.1455 20.448 27.7877
17.1465 20.6647 27.6068
16.5128 20.0862 27.5157
15.5307 18.4569 25.119
15.4421 19.2306 26.2582
16.354 19.6088 26.7291
15.587 19.1909 26.5321
15.367 19.0863 27.2304
16.3892 19.8895 27.7795
16.1254 18.8963 26.6113
16.538 19.3907 26.7586
16.8625 20.2391 27.918
15.0196 18.2649 25.8299
16.193 20.2943 28.5538
14.6543 18.5204 26.0927
15.3354 19.7087 28.0851
14.6148 18.2997 26.2762
14.9443 18.7488 26.683
15.7188 20.7446 29.3132
14.6526 18.4211 26.9356
14.5298 18.209 26.8486
15.9027 20.3094 29.1138
16.1218 21.3526 30.7971
15.5411 19.0631 27.9138
14.6329 18.8969 27.9047
14.2382 17.9964 26.1422
14.6835 19.3435 28.8742
15.0148 17.9623 25.8474
14.7729 19.7433 29.0987
14.3491 19.1126 28.169
14.8672 18.65 27.7054
13.7315 17.2865 25.8953
13.9702 18.2487 27.5421
14.0529 19.1164 28.7795
14.2436 19.1161 28.7548
15.3177 18.6063 26.5452
14.0737 18.499 28.1785
14.047 18.7097 28.4393
14.1516 19.0713 29.2498
13.8473 18.4687 28.3958
14.5521 18.7275 27.8964
14.7712 20.6878 32.744
14.6168 19.464 28.4774
13.3776 19.2122 30.4507
14.081 18.2149 27.0768
13.2785 17.9182 27.6089
13.1446 18.4069 28.5577
12.7304 16.9961 27.8898
14.3028 19.4175 29.397
13.8046 18.307 28.5765
12.9896 17.7467 28.2107
14.21 19.0592 29.4501
14.0445 19.1139 30.5026
14.419 19.4867 29.8823
13.2803 18.0962 28.8075
13.6511 18.9307 28.2915
12.4808 18.7658 31.1769
13.5554 18.9952 30.1726
13.0729 18.6337 30.3169
13.8916 19.1942 31.1622
12.4929 17.2618 28.4202
14.4371 19.5401 30.6987
13.2344 18.9834 31.0893
13.533 19.282 30.087
12.4671 18.1664 30.7426
13.241 18.6477 31.133
13.9878 20.2001 32.8587
13.2364 18.3725 30.0591
13.1761 18.6581 30.238
13.2768 18.7308 30.7266
12.3387 17.5874 29.5966
12.82 17.9182 28.8756
13.2914 18.928 31.9091
11.9126 19.5116 31.7108
12.1687 18.2214 30.876
11.8865 17.1989 29.5531
12.838 18.1609 30.0499
13.066 19.1124 31.4253
12.1387 17.2872 28.9978
10.7729 16.4543 29.1621
12.1142 18.1734 31.527
12.6563 18.4036 29.6349
11.4993 17.6634 30.9119
12.3405 17.9212 29.6697
12.1909 18.6871 31.2035
11.506 17.5971 30.8662
12.2595 18.0918 30.3286
11.5329 16.8536 29.0262
11.2813 18.2911 33.2879
12.3544 18.2594 32.1574
13.0045 19.0576 31.8612
12.2139 18.7926 32.3238
11.9323 17.7073 30.8596
11.8167 18.3938 32.5494
11.4271 17.6007 30.6232
11.7889 18.1113 31.6474
11.2949 17.541 32.3019
12.3392 18.3702 30.8219
10.9084 18.3844 34.0255
12.2235 19.2125 34.128
11.1013 16.7633 29.7081
10.8872 16.3854 29.9021
11.2855 16.8924 28.8378
10.8517 17.1635 30.5947
10.5372 17.0009 30.2982
10.5029 16.8794 32.1252
11.4948 17.6772 31.5295
10.6445 16.9229 30.875
11.4953 18.1107 32.5182
10.8102 17.4768 31.7306
10.9032 17.822 34.1118
11.569 16.8266 29.8694
10.9962 17.5472 31.3188
10.8745 17.3752 30.9424
10.0726 16.0514 31.5034
10.924 17.1295 30.9805
10.6773 17.391 33.8966
11.2855 16.785 29.862
9.78043 16.5813 31.2553
10.528 17.3103 32.7367
10.6461 17.3655 33.1091
10.7918 16.6009 30.491
10.6716 17.3532 32.5558
10.6663 17.3056 33.6293
11.4105 17.4225 31.3025
10.7753 17.3283 31.6861
10.3129 16.5274 31.9138
10.0984 17.2974 32.5112
10.2437 16.7062 31.3396
10.0092 17.5055 33.8
9.46026 16.0589 32.2942
10.3908 16.2867 30.5689
10.6271 17.8095 34.3793
11.1077 18.2163 34.4792
10.3104 17.5564 33.6514
10.0958 16.3908 31.6201
9.97564 16.9294 32.7477
10.4633 17.4672 34.0478
9.92388 16.6085 31.9222
10.131 17.5476 34.5739
10.1462 17.7678 35.2822
10.5136 18.0194 35.1521
10.221 16.1864 32.1684
10.0763 17.4124 34.4579
9.58007 16.0258 32.0577
10.3409 17.0429 34.3037
10.7902 18.7409 36.3751
10.8757 18.5696 35.5614
10.2638 18.3812 36.5115
10.4765 18.151 35.8623
10.2741 18.934 38.2316
10.1841 17.4416 35.4797
10.5012 19.4685 39.3865
10.4435 17.8379 36.8612
10.5192 18.0936 35.7592
9.81083 17.3123 33.8477
9.80524 17.6092 36.4762
9.99465 18.0571 36.518
9.94612 17.3796 35.6151
9.70056 17.1041 35.5573
9.97714 18.0694 36.1543
9.37673 17.4798 35.5893
9.47709 17.3983 36.9765
9.656 17.1203 35.4403
9.8561 17.4283 36.1315
9.57534 17.0034 35.925
10.2627 18.921 38.6371
9.55127 16.6974 34.565
9.14645 16.8506 34.9008
9.47235 17.5969 37.3905
9.22994 17.3008 37.5859
9.73107 17.1028 35.5129
9.46928 16.3891 32.5626
8.94906 16.695 34.9236
8.43922 15.769 34.4191
9.24135 16.2385 34.8569
9.70804 18.3413 38.2174
10.0988 18.8417 38.9336
9.10402 16.8394 36.2256
9.80646 17.8955 38.1717
9.31053 16.728 36.0893
9.10855 16.1669 35.5018
9.29129 16.9982 37.5747
10.1609 17.3462 35.3547
9.40762 17.6824 37.79
10.299 18.9628 38.513
9.30433 17.3226 37.616
9.48163 19.0671 41.1746
9.03304 16.1482 35.4965
9.28661 17.1395 37.1079
9.44213 18.3444 41.0768
9.82483 17.3039 35.6879
8.83204 16.9943 36.1976
9.01826 17.0603 37.6289
8.77061 17.1946 37.5529
9.10102 18.3426 41.416
9.96153 17.8638 40.5029
9.72358 18.254 37.7771
9.29892 18.0352 40.3581
9.12818 17.0038 36.4803
9.01862 17.9364 38.103
8.43194 16.9747 37.9021
8.20104 16.5016 38.6874
9.0471 17.025 37.2787
8.55667 16.6466 38.5729
8.67071 16.237 35.9914
8.15113 16.6842 37.9075
8.82973 16.5235 36.9609
8.52668 16.6082 36.8849
8.35862 16.7281 38.8693
9.04122 17.2514 40.1978
9.29522 17.0574 36.0307
8.58531 17.6714 40.5784
8.36013 16.9474 39.5179
8.65551 16.39 34.9459
8.07454 16.491 38.364
8.9327 17.8309 41.8596
9.12568 17.6329 38.665
8.63814 17.5921 40.6015
8.39263 17.3673 39.6311
8.26205 16.2287 38.1633
8.45998 16.3837 36.8382
7.68317 15.5712 37.77
8.57941 16.662 38.5919
7.94571 16.137 39.1963
8.45881 17.5001 39.6437
8.09829 16.3119 38.5902
8.71503 17.3659 40.7697
8.38776 16.4741 37.7822
8.05225 16.6123 39.0932
8.28481 16.613 38.4133
8.15094 16.1966 37.5004
7.68182 16.3301 38.8629
7.40005 14.8139 34.6
7.21919 15.657 38.6341
8.15071 17.5839 41.5237
8.53998 16.2243 38.0715
7.95137 16.5649 38.9456
8.04843 17.1799 40.8022
8.19809 16.9616 39.9951
7.84202 15.9717 37.587
7.95048 17.416 41.3189
7.74128 15.3355 37.9232
7.95077 16.0777 37.9393
7.77388 16.3986 39.7269
7.72356 16.957 42.2913
8.36971 16.9379 39.1566
7.82142 16.1609 38.5959
7.82063 16.8437 40.0152
7.47023 15.0374 36.4651
7.61268 15.8834 39.333
7.9745 16.6818 40.2116
7.83511 16.7546 42.2266
7.9082 17.2654 41.5786
7.89624 16.5451 42.5557
8.18393 16.9064 39.945
7.25046 15.5952 39.2703
7.57573 15.2462 38.7102
7.47179 16.1885 39.9654
7.83856 16.0919 39.3208
