# pn-170911/RbIIR-55-USN3-1280-1959.psd
# Power spectrum* (dif=0,1,2) (really just |FT|^2)
# NOTE: only the first half! (symmetric)
# weeks: 1280-1959
# 2443 clock-days, 24 excluded
# PSD: 1441
834.726 0.0877191 0.021806
17330 0.175393 0.0121446
134123 3.02148 0.012025
8461.92 0.311895 0.0121161
36296.5 2.83335 0.0120174
3113.94 0.301179 0.0122248
2787.09 0.402514 0.0121239
1676.34 0.313305 0.0120296
1891.41 0.525164 0.0126019
1095.58 0.357383 0.0121925
974.602 0.387943 0.0121918
760.15 0.368315 0.0122973
691.133 0.404928 0.0122021
570.586 0.397195 0.0125219
541.418 0.440144 0.0122703
474.182 0.444619 0.0124169
460.837 0.480155 0.0127575
404.076 0.499944 0.0129532
405.639 0.54257 0.0129201
364.188 0.561226 0.0130663
353.851 0.607639 0.0133552
345.253 0.648274 0.0134591
333.38 0.699157 0.013798
353.223 0.79704 0.0138149
332.285 0.845923 0.0147565
321.094 0.88795 0.014573
328.664 0.978827 0.0153068
330.841 1.07078 0.0160569
312.705 1.09611 0.016249
312.031 1.16406 0.0168572
325.426 1.33479 0.0179378
314.388 1.364 0.0187073
310.36 1.42564 0.0191004
304.598 1.51016 0.0192703
326.716 1.72004 0.0219014
326.232 1.82937 0.0231795
313.109 1.84512 0.0243074
324.464 2.03718 0.0255633
333.443 2.21337 0.0276823
340.011 2.40267 0.0299435
329.684 2.45227 0.0314395
322.24 2.49375 0.0322215
325.236 2.61723 0.0341377
345.645 2.98133 0.0390816
340.91 3.06118 0.0395536
329.763 3.08097 0.0421789
335.229 3.29528 0.0459958
321.945 3.31104 0.0472029
337.027 3.65255 0.0529678
324.996 3.6328 0.0540777
322.729 3.7739 0.0571565
342.229 4.13254 0.0636328
327.082 4.14345 0.0653329
339.328 4.4763 0.0728966
317.231 4.34761 0.0719458
319.12 4.51871 0.0753454
327.311 4.79611 0.0830456
316.108 4.81859 0.087558
326.283 5.13218 0.094876
331.396 5.4169 0.102661
320.623 5.38603 0.105213
304.605 5.31624 0.108054
310.243 5.61412 0.116451
299.931 5.59535 0.118188
304.754 5.84268 0.126573
307.099 6.10784 0.136323
301.308 6.19161 0.142279
302.681 6.40329 0.148829
290.129 6.3127 0.1503
301.41 6.73852 0.1652
288.941 6.62605 0.16805
285.066 6.69266 0.173819
279.542 6.77194 0.179383
294.305 7.34887 0.198494
279.557 7.21623 0.200589
271.149 7.17353 0.205175
275.736 7.51181 0.22059
271.961 7.5844 0.227157
274.784 7.83349 0.238241
261.477 7.65758 0.241201
258.489 7.72858 0.247572
246.587 7.60594 0.248744
264.254 8.35299 0.281911
251.118 8.13801 0.280777
244.163 8.06911 0.283902
246.703 8.36528 0.302146
237.168 8.24518 0.302993
252.474 8.98371 0.338326
242.384 8.79879 0.335795
228.805 8.50839 0.334794
228.735 8.69883 0.350598
226.002 8.77917 0.35624
223.488 8.94295 0.375438
222.967 9.04265 0.381053
219.655 9.12235 0.397688
214.261 9.1313 0.408286
277.096 12.1025 0.541295
220.241 9.70502 0.443372
206.953 9.33211 0.437574
201.763 9.2707 0.440175
199.844 9.31617 0.455811
214.257 10.3436 0.513193
205.251 10.0266 0.507276
204.293 10.1979 0.529363
188.252 9.60048 0.506688
198.964 10.3176 0.551336
182.321 9.60433 0.52614
176.857 9.47038 0.523989
187.011 10.2754 0.58543
196.448 11.0326 0.636714
183.048 10.3331 0.603658
183.007 10.5656 0.629617
182.872 10.755 0.651782
182.779 10.9815 0.67477
183.294 11.1853 0.706709
173.303 10.7347 0.685081
170.961 10.7742 0.70395
169.841 10.9337 0.720809
170.294 11.12 0.747373
171.895 11.4443 0.778027
166.812 11.2369 0.779093
160.659 11.0192 0.771014
161.705 11.344 0.806636
166.058 11.8592 0.867463
164.507 11.9058 0.875701
153.242 11.2197 0.842269
154.055 11.4909 0.881977
155.422 11.7131 0.903301
152.756 11.7176 0.923195
150.328 11.7883 0.938098
153.047 12.1357 0.977798
150.979 12.1298 1.00273
156.695 12.792 1.06591
144.507 11.8829 1.00159
146.653 12.3402 1.05692
149.495 12.7518 1.10976
139.459 12.1254 1.08155
141.461 12.4139 1.11954
137.013 12.2651 1.12085
139.951 12.6862 1.16928
133.948 12.39 1.16918
133.944 12.5131 1.18526
129.655 12.2168 1.17708
130.962 12.5871 1.23715
132.544 12.8624 1.27352
127.312 12.4879 1.25118
125.715 12.539 1.27313
130.217 13.2307 1.37347
133.074 13.6531 1.43156
128.931 13.3137 1.40823
125.645 13.2074 1.41715
124.218 13.3156 1.45338
123.079 13.3159 1.46247
122.243 13.4467 1.49965
120.956 13.4662 1.51565
124.491 13.9479 1.59165
121.383 13.8028 1.59546
118.196 13.6356 1.59207
116.273 13.5688 1.62222
116.284 13.6922 1.63152
114.022 13.642 1.66305
119.888 14.5767 1.80499
110.779 13.5658 1.68686
118.095 14.7339 1.86729
115.777 14.5414 1.8519
112.101 14.2841 1.85096
112.943 14.648 1.92315
112.444 14.499 1.90024
109.588 14.5891 1.95697
106.773 14.2005 1.90751
103.74 13.9751 1.91434
112.743 15.2969 2.1099
107.868 15.0093 2.1117
107.175 14.9537 2.11691
104.565 14.9056 2.16031
104.827 15.0104 2.17875
102.424 14.8215 2.17808
102.868 15.0283 2.22863
104.529 15.3263 2.29108
100.83 15.1914 2.31512
104.275 15.5049 2.34801
102.402 15.62 2.41545
98.4926 15.146 2.36496
103.429 16.303 2.59148
103.263 16.1067 2.57236
100.03 16.0445 2.59652
95.4389 15.3556 2.50508
97.7534 15.9067 2.61733
95.0979 15.675 2.6152
94.3297 15.787 2.68223
93.3525 15.6076 2.64289
94.2737 16.1154 2.80521
128.112 22.0251 3.78993
94.8115 16.44 2.88866
89.8641 15.7263 2.80061
91.6503 16.2252 2.9075
92.1026 16.5511 2.99975
93.2218 16.7311 3.01276
86.8144 15.962 2.96553
88.6917 16.5082 3.08751
91.7208 17.0902 3.22609
90.5724 16.9639 3.21305
89.2529 17.0127 3.25894
87.0727 16.7397 3.25944
86.2489 16.7472 3.29114
89.8433 17.4951 3.4433
89.663 17.6321 3.50129
84.2687 16.8901 3.42086
84.2507 16.8633 3.41324
86.8877 17.7598 3.64836
85.1865 17.4303 3.60479
86.9631 17.9245 3.73707
82.5934 17.2791 3.64045
81.5798 17.2234 3.67736
82.6194 17.4753 3.74711
81.3106 17.4872 3.78635
80.1777 17.5526 3.8662
80.5629 17.5928 3.89431
80.9175 17.8172 3.96196
81.4939 18.0854 4.05336
80.1121 18.0144 4.08399
74.833 17.0178 3.90917
77.0725 17.611 4.06485
76.5964 17.7242 4.1358
79.8549 18.5927 4.33747
75.9084 17.8552 4.25364
78.2716 18.7563 4.54498
79.6083 18.9222 4.55126
80.9108 19.3371 4.668
77.7154 18.8823 4.65369
74.8348 18.2811 4.53271
72.5969 17.8699 4.44315
74.7754 18.7874 4.76358
78.937 19.886 5.05052
74.9712 18.9746 4.84431
74.0327 18.8884 4.86589
74.4471 19.2461 5.0198
73.5633 19.0844 4.99963
70.9577 18.6454 4.97497
73.3391 19.3686 5.18849
71.8549 18.9445 5.07962
72.1423 19.4173 5.25861
67.8372 18.3594 5.02796
69.9429 18.9837 5.21342
68.6141 18.9892 5.29796
71.5211 19.8927 5.55503
67.2018 18.6682 5.2661
72.1547 20.2046 5.71028
67.126 19.1135 5.51324
68.9595 19.7764 5.68404
67.2437 19.2445 5.56123
68.1035 19.9536 5.85081
66.6259 19.5368 5.77678
67.6042 19.9996 5.93211
65.1813 19.5255 5.90573
68.5164 20.4929 6.19494
67.2407 20.1889 6.12713
68.0126 20.8466 6.43226
65.3948 20.0386 6.17378
66.8102 20.7764 6.50823
65.9668 20.5055 6.44108
63.3415 19.8617 6.28772
61.7746 19.7508 6.35817
63.22 19.966 6.37711
65.7174 21.0804 6.8152
65.3243 21.014 6.83737
62.8349 20.4092 6.67827
62.5334 20.5881 6.82808
65.5295 21.7716 7.30235
62.8225 20.7849 6.94992
61.8207 20.6415 6.9277
61.3046 20.8193 7.12836
60.5239 20.4688 6.9685
61.9548 21.1621 7.25991
58.7976 20.3211 7.07863
61.4642 21.4851 7.53474
61.1428 21.5917 7.67986
60.4634 21.0743 7.44308
60.4652 21.4181 7.62258
58.1302 20.6427 7.40709
58.6564 21.0176 7.59023
59.9548 21.8634 8.01146
57.7915 21.1743 7.79201
57.7274 21.2333 7.84541
58.0774 21.573 8.07804
57.27 21.2777 8.00427
56.6802 21.1766 8.01265
55.9763 21.2511 8.25869
83.6309 31.5173 11.6775
58.0006 22.3239 8.65043
55.9659 21.5358 8.37394
54.1277 20.9682 8.18977
56.2391 22.0257 8.68743
55.5564 21.9198 8.70533
54.4275 21.3855 8.48208
54.1628 21.498 8.6104
53.1227 21.4217 8.72511
55.3302 22.0572 8.89337
56.3596 22.942 9.33742
52.6174 21.5785 8.90386
53.244 21.8648 9.03262
51.5639 21.4968 9.04543
53.7336 22.4525 9.44765
53.8089 22.418 9.43911
50.2402 21.0842 8.92819
50.8344 21.5504 9.21317
51.6715 21.9185 9.40203
52.5047 22.5926 9.73188
51.5625 22.2832 9.72678
52.4674 22.7267 9.93824
52.1769 22.6909 9.9165
50.622 22.3101 9.91029
53.1744 23.5074 10.3885
48.5919 21.7317 9.82723
51.3923 23.127 10.4314
48.7225 21.9728 10.0062
49.2925 22.6641 10.4984
49.5207 22.2555 10.2144
47.9708 22.037 10.2443
49.9028 22.9647 10.5938
47.6171 22.2924 10.4768
50.166 23.5112 11.0158
46.5084 22.1742 10.6393
46.579 22.2159 10.6524
47.8837 22.8921 11.0673
48.4121 23.1307 11.161
46.8374 22.7387 11.098
47.3993 22.7783 11.0599
48.5662 23.8328 11.7179
46.5075 22.6705 11.1838
46.6936 23.1695 11.5485
47.5506 23.6638 11.8014
46.0838 23.0009 11.5909
44.8939 22.2777 11.1518
44.9897 22.9598 11.7498
43.9327 22.3979 11.5194
45.4867 23.1963 11.9079
45.885 23.6646 12.2583
43.5984 22.3988 11.6391
44.5435 23.0697 11.9996
43.8744 22.7592 11.8642
43.7015 23.2826 12.4811
43.5897 22.9382 12.1513
43.439 23.3857 12.6445
44.0517 23.4952 12.6235
42.381 22.9142 12.5346
42.9546 22.8438 12.2711
43.7911 23.8975 13.098
42.3124 23.0903 12.7191
40.6268 22.1738 12.2989
42.2212 23.4949 13.1536
42.3925 23.3074 12.9167
41.8373 23.2626 13.0552
41.2072 23.1786 13.0986
40.7969 23.1105 13.1113
41.9162 23.9882 13.731
40.8233 23.2427 13.3515
41.2663 23.6288 13.603
41.162 23.9474 13.9499
39.5022 22.8945 13.4304
40.8021 23.6581 13.8044
39.1753 22.576 13.2024
39.4209 23.1915 13.6681
39.607 23.6754 14.1384
38.8733 23.3475 14.0872
39.9808 23.6029 14.0421
38.6989 23.7014 14.5629
38.5722 23.1045 13.979
38.923 23.6549 14.394
38.6859 23.7385 14.5743
37.6959 23.0485 14.2176
39.5311 24.444 15.0832
36.2941 22.5763 14.2029
38.4029 24.2162 15.3222
38.0344 23.6614 14.8879
38.6426 24.3011 15.3851
36.2418 22.8137 14.4616
36.5411 23.2513 14.9504
37.4291 23.9837 15.4
36.0311 23.1608 15.0333
37.3685 24.2928 15.8469
37.6387 24.505 16.0222
36.1063 23.4939 15.6012
36.4713 24.054 16.4189
53.6581 34.3494 21.4849
35.9817 23.8632 15.989
35.6225 23.7456 15.9114
34.3797 23.1939 15.7974
36.4122 24.2766 16.1837
34.2616 23.0948 15.6421
34.6256 23.8626 16.4333
34.1994 23.3177 16.0841
33.3409 22.7004 15.6005
34.6689 24.007 16.6164
34.4065 23.8405 16.6466
34.623 24.0242 16.7391
33.4606 23.3255 16.341
33.5719 23.8477 17.0312
33.5839 23.5096 16.6301
33.9291 23.8803 16.9909
33.8564 23.7814 16.8515
34.4042 24.7107 17.7197
34.5024 24.7402 17.8473
32.5036 23.4942 17.1116
32.6118 23.593 17.2661
32.8832 23.7893 17.4349
32.9389 23.882 17.2963
31.8025 23.509 17.4891
32.9283 24.3427 18.0452
32.6569 24.0195 17.7313
32.0353 23.9218 17.8445
31.4093 23.6199 17.8974
32.3008 24.4066 18.4318
31.0183 23.6127 18.0733
30.9341 23.4292 17.9375
32.5984 24.694 18.7636
31.2918 23.7657 18.108
30.421 23.7648 18.6016
29.7873 22.9486 17.9797
31.3948 24.0858 18.5057
30.4664 24.052 19.0276
31.3177 24.7366 19.6425
30.6563 24.1548 19.2475
31.3991 24.6362 19.5892
29.3813 23.1272 18.5502
31.1438 24.6918 19.569
30.0776 24.0452 19.3295
28.9549 23.1138 18.6654
29.6673 23.9266 19.4081
29.5915 23.7533 19.196
29.371 24.0547 19.7496
29.4575 24.0674 19.8355
29.1308 23.9151 19.8749
28.7621 23.4001 19.3535
28.801 23.5493 19.4062
29.0393 24.137 20.127
28.2689 23.4579 19.6946
29.7187 24.8614 20.6036
28.3798 24.1838 20.65
29.6401 24.9913 21.0411
28.7744 24.5336 20.8613
28.4384 24.6099 21.3563
28.1604 23.9271 20.485
26.417 22.6316 19.6561
27.4964 23.9568 20.9534
27.7232 24.011 20.9481
27.1014 23.7795 21.0933
28.1232 24.1223 20.8467
27.1887 23.8671 21.089
27.9789 24.8186 22.002
26.6918 23.2472 20.4827
26.324 23.4982 21.0003
26.3651 23.2554 20.7762
27.0533 24.2316 21.6227
26.0043 23.4894 21.3151
26.0207 23.4497 21.2348
25.8876 23.8752 22.2171
26.7631 24.286 22.1554
26.4446 24.2842 22.4566
26.9658 24.4448 22.2191
25.6103 23.7868 22.2349
25.569 23.6082 22.1301
26.5961 24.7594 23.1918
25.0411 23.12 21.7649
25.092 23.4138 22.0842
25.4211 23.6186 22.2507
25.4608 23.8725 22.5142
25.3465 23.968 22.7742
25.3474 24.2627 23.234
24.2641 23.036 22.3776
25.2974 24.1568 23.2507
25.6155 24.5777 23.7554
25.2537 24.1694 23.2983
24.1444 23.2664 22.5551
23.9742 23.3734 22.8894
23.5533 23.0075 22.7088
23.6377 23.1188 22.9026
23.9092 23.4027 23.1246
24.2513 24.0582 23.9766
24.3154 24.8547 26.5226
36.3705 34.9755 31.9337
23.3338 23.7293 24.2884
23.607 23.6784 23.8345
23.0923 23.545 24.1197
23.8957 24.3576 24.8969
23.5683 24.153 25.1242
24.3821 24.4104 24.7861
23.9652 24.418 24.8827
22.9773 23.3934 23.8822
22.178 23.1501 24.3765
23.0334 23.7592 24.6466
22.7965 23.5471 24.3294
22.2009 23.4976 25.1668
22.7633 23.2517 24.0214
21.9437 22.9545 24.3212
23.0093 24.186 25.4788
22.2476 23.2241 24.4595
22.152 23.7353 25.3627
22.158 23.5388 25.197
22.4494 24.0485 25.8276
21.4291 22.6359 24.1778
21.3471 23.2841 25.4963
21.8986 23.7218 25.8757
21.6584 23.2268 25.3294
21.6822 23.6576 26.0261
22.3953 24.2628 26.4633
21.5435 23.3185 25.502
21.7822 23.8989 26.1471
21.1849 23.1481 25.4047
20.5356 23.0339 25.7719
20.5506 22.8557 25.6841
20.51 22.8304 25.665
20.5171 22.9112 25.9026
20.676 22.7277 25.2514
21.532 24.6751 27.9491
20.8482 23.4161 26.5237
20.4133 23.0227 26.3193
20.5495 22.9587 25.7655
19.6085 22.5941 26.1454
20.3819 23.5152 27.2039
20.3543 23.1929 26.6708
19.9047 22.9579 26.7901
20.2548 23.3857 27.272
20.3874 23.5252 27.2823
20.2661 23.6509 27.7722
20.0626 23.1891 27.0059
19.3294 22.8791 27.2783
20.3561 23.9725 28.1681
19.2266 22.6484 27.1543
19.8488 23.3783 27.7313
19.4283 23.0553 27.5105
19.1955 22.7207 27.0708
19.4029 23.4119 28.2177
18.7376 22.5706 27.6221
19.3244 23.1071 27.7916
19.6876 23.9721 29.1465
19.2464 23.1755 28.1029
18.3941 22.5476 28.1207
19.278 23.0805 27.9637
19.093 23.3681 28.6733
18.8017 22.914 27.8885
18.5487 23.1217 28.8401
18.2592 22.5326 28.0172
18.1468 22.6667 28.6049
18.7988 23.1367 28.6785
18.2985 22.9307 28.6718
17.6278 22.0609 27.913
17.7402 22.3514 28.4962
18.038 22.6001 28.4935
17.9948 22.9098 29.3161
18.0986 23.0081 29.5016
18.1982 22.9958 29.3582
17.505 21.8457 27.7446
18.2807 23.6626 30.0949
17.4019 22.4753 29.1861
17.0397 22.1805 29.1744
17.1308 21.7206 28.1476
17.2501 22.2421 28.7244
17.0037 22.1887 29.202
17.5019 22.9079 29.9338
17.3226 22.8579 30.0911
16.7366 21.9543 29.4826
17.7657 23.2234 30.477
17.1845 22.4978 29.5739
17.0627 22.7995 30.2908
16.8434 22.3449 29.5736
15.9347 21.6428 29.898
16.9599 22.485 30.3417
16.8758 22.3346 29.8898
16.5578 22.5115 30.9813
17.2807 22.9829 30.8742
16.5701 22.1719 29.9069
16.7039 22.9224 31.2015
16.7087 23.0662 31.8861
16.3651 22.3755 31.1765
16.328 22.8969 35.0083
25.9733 34.604 42.5202
16.1761 22.5207 31.7981
16.5931 22.8969 31.7638
16.039 22.1771 30.9413
16.3342 23.0159 32.4481
16.3054 22.648 31.507
15.8223 21.9839 30.5868
15.3762 22.099 31.7471
15.6656 21.9772 31.3099
15.8261 22.695 33.0898
15.95 21.7503 30.4129
15.2191 21.5354 30.8189
15.7776 22.4273 31.8756
15.4348 22.1445 31.8889
15.4476 22.2879 32.2393
15.3415 22.0812 32.3519
15.5062 21.821 31.3091
15.4355 22.1984 32.1737
15.9643 23.2252 33.7749
15.5516 22.3376 32.1387
15.1654 22.0967 32.0278
15.2758 22.6994 33.197
14.5802 21.4196 31.788
14.9335 22.1801 32.9539
14.4813 21.1545 31.3978
14.73 21.8291 32.5246
14.6357 21.8637 32.8756
14.9338 22.0213 32.3862
14.2609 21.5112 32.5721
14.7588 22.0996 33.059
14.1741 21.2762 32.4099
14.3685 21.3902 31.9999
14.378 21.8488 33.0559
14.1396 21.382 32.6917
14.0554 21.3236 32.7196
14.1205 21.2602 32.5275
14.5326 22.1213 33.3978
13.7692 21.2217 32.839
14.1748 21.7392 33.4793
13.8548 21.2433 32.5862
13.4003 21.0375 33.2037
13.6685 21.0333 33.1434
14.0818 21.726 33.7595
13.6989 21.1341 33.0876
14.0819 21.9156 33.9901
13.5204 21.2226 33.6093
13.734 21.3183 33.2058
13.4121 21.0186 33.0212
13.4143 21.5246 34.4696
13.8249 21.7918 34.6182
13.819 21.8587 34.4194
13.4696 21.7131 35.0443
13.3983 21.3105 34.2671
13.2666 21.0395 33.9112
13.4649 21.6264 34.6172
13.1759 21.3969 35.2022
13.3036 21.1115 34.214
13.2422 20.9208 33.4808
13.1123 21.3873 34.8221
12.9538 20.8578 33.6643
12.3643 20.3029 33.8551
12.9212 20.9962 34.4353
12.7137 20.9501 35.0992
13.2482 21.5114 35.2176
12.9195 21.2636 35.3973
12.8655 21.0013 35.0249
13.265 21.5335 34.8291
12.294 20.5974 35.0677
13.1355 21.4025 35.0018
12.7787 21.5068 35.8658
12.7051 21.2999 35.7667
12.6823 21.1858 35.6466
12.8743 21.5436 35.9271
12.4183 21.2673 36.2474
12.5781 21.2476 36.1651
12.556 21.2785 36.3139
12.2477 20.5713 35.2194
12.2576 20.7149 35.3998
12.3565 21.2146 36.6063
12.1661 20.7241 36.1526
12.3881 20.6184 35.0827
12.1685 20.622 35.1975
12.0429 20.8581 35.9757
12.2352 21.1088 36.0048
11.6454 20.0654 34.8627
11.7077 20.5631 36.328
12.2468 21.1858 36.3014
11.5992 20.4847 36.6234
12.1437 21.0633 36.5629
11.5588 20.0716 35.1496
11.8521 21.1768 37.5579
11.7997 20.6828 36.7011
11.7864 20.6453 36.6915
11.7506 20.6926 36.5624
11.4279 20.6768 37.4328
11.5349 21.8048 45.5054
18.2516 30.4785 46.4475
11.2409 20.2096 36.6404
11.0325 19.8339 35.8314
11.1911 20.1157 36.2512
10.9188 19.6271 35.6593
10.8684 19.78 36.4664
11.2497 20.5396 37.8381
11.2926 19.9238 35.9018
11.0074 20.2625 37.3204
11.1861 19.9421 36.115
11.0827 20.3973 37.4212
11.1268 20.3487 37.337
11.0209 20.259 38.0561
11.3124 20.2725 36.9172
11.2712 20.6782 37.6732
10.8815 20.1419 37.2827
10.6954 19.8819 37.0506
10.876 20.1601 37.4425
10.8803 20.1689 37.2322
10.293 19.1913 36.258
10.5235 19.7701 37.1247
10.6687 20.2599 38.2579
10.3311 19.2433 36.5593
10.2823 19.198 36.4271
10.2385 19.1655 36.1267
10.2334 19.4081 36.8945
10.1878 19.413 37.0478
9.88465 18.7556 36.4665
10.3773 19.788 38.0872
10.4262 19.3827 36.6179
10.2917 19.9717 38.2412
10.0127 18.9173 36.4255
9.91581 19.333 38.078
10.5041 20.0836 38.6775
10.1 19.1332 36.739
9.88843 19.21 37.5092
10.0308 19.6008 38.6682
10.0075 18.8652 36.1576
9.73272 19.0025 37.1356
9.87209 19.2402 37.4171
9.84234 19.4494 37.8578
9.40469 18.3177 36.1452
9.27806 18.2461 36.5762
9.71371 18.9244 36.8631
9.48525 19.0192 38.1846
9.71317 19.1983 38.2898
9.56106 18.7547 37.5341
9.393 18.6677 38.4803
10.1817 19.8793 38.646
9.61948 19.0548 37.5301
9.26458 18.6192 37.9144
9.62271 19.1195 37.549
9.21708 18.8265 38.2815
9.34729 18.9679 38.4001
9.27098 18.9065 39.5072
9.7928 19.1947 37.7182
9.12229 18.6005 38.0461
9.27544 18.9547 38.6725
9.14618 18.723 38.9514
9.25279 18.4563 37.4669
9.02496 18.2183 37.5713
9.42912 19.3995 39.4635
9.15772 18.4332 37.2019
8.53505 17.7678 37.6589
9.24593 18.8419 38.068
8.71674 18.3031 38.7676
9.14891 18.8625 39.2867
9.16109 18.9407 39.2546
8.89274 18.4628 38.7542
8.69396 17.7953 37.5616
8.83471 18.1871 37.9673
8.90711 18.662 38.8771
8.49391 17.6116 37.363
8.72911 18.3006 38.4161
8.6847 18.3007 38.8911
8.90612 18.877 40.1769
8.74547 17.9982 38.2496
8.85013 18.4921 38.3713
8.56218 18.1671 38.2265
8.33614 18.0383 39.3138
8.72625 18.72 40.5505
8.82718 18.3436 38.8407
8.65648 18.7482 40.4069
8.49917 17.9392 38.6193
8.53516 18.3157 39.2366
8.49005 18.2229 39.0447
8.21531 17.7769 39.4724
8.63601 18.3204 38.9634
8.47767 18.6592 40.1434
8.13131 17.6215 38.9841
8.35607 18.1056 39.6654
8.43457 18.3715 39.6845
8.1163 17.7749 39.3509
7.93402 17.2272 38.2
7.97691 17.7469 39.8357
8.06856 19.052 51.8054
13.4296 26.3201 46.4232
7.92528 18.161 40.7185
8.09547 17.9636 40.234
8.30088 18.211 39.6934
7.92008 17.476 38.8789
7.80696 17.502 39.9006
8.16185 17.7976 38.7186
7.51854 16.9678 39.2321
8.13762 18.309 40.9932
7.80758 16.7711 37.4915
7.84183 17.7752 39.844
7.86417 17.5528 39.1354
7.63168 17.3491 39.7687
7.70423 16.9834 38.3426
7.77448 17.5371 39.505
7.69335 17.4688 39.6802
7.85334 17.9465 40.5979
7.57261 16.9258 38.6785
7.5448 17.1401 39.1005
7.6867 17.548 39.6753
7.46938 17.0579 38.9485
7.36541 17.0971 39.332
7.31538 17.0256 40.1572
7.61398 17.253 39.1002
7.27885 16.9531 39.9031
7.35749 16.8756 39.7342
7.56771 17.1058 39.0446
7.48749 17.748 41.6159
7.40712 16.7145 39.0305
7.33017 17.1174 40.1178
7.36958 17.1706 40.5396
7.46188 17.0693 40.0004
7.42241 16.976 38.741
7.05175 16.773 40.3591
7.54453 17.4419 39.997
7.18451 17.0662 40.2325
7.3219 17.6299 41.4333
7.18961 16.9209 40.1963
7.00592 16.5404 39.7579
7.10795 16.718 40.2979
7.22764 16.9523 40.018
6.99762 16.4493 39.3725
7.07551 16.665 39.3962
6.83142 16.4672 40.36
7.25343 17.2117 40.6653
7.10302 16.9055 40.3386
6.97594 16.5897 39.6132
6.9068 16.7744 40.0657
6.65863 15.967 39.6103
7.03631 16.921 40.8748
6.80188 15.96 39.0716
6.89687 16.6297 39.6433
6.63435 16.0028 39.4696
6.74025 16.1589 39.3912
6.74691 16.4477 40.3465
6.80346 16.3159 39.6614
6.73093 16.4362 40.2321
6.74372 16.0947 39.099
6.65214 16.4366 40.0206
