# pn-170911/RbIIR-43-TWTF-1280-1959.psd
# Power spectrum* (dif=0,1,2) (really just |FT|^2)
# NOTE: only the first half! (symmetric)
# weeks: 1280-1959
# 10 clock-days, 0 excluded
# PSD: 1441
325.457 0.0736687 0.0108855
14780.9 0.130952 0.00437148
75683.7 1.32366 0.00460191
14003.7 0.651372 0.00482928
23563.8 1.72995 0.00406032
3657.28 0.441733 0.004388
3564.62 0.559976 0.00481384
1537.8 0.361535 0.00455174
3422.42 1.11241 0.00538266
1650.93 0.567642 0.00378204
1309.83 0.61112 0.00463039
855.535 0.510484 0.00457595
1797.7 1.25835 0.00690673
790.484 0.645602 0.0044763
976.629 0.787626 0.00591059
583.217 0.636247 0.00305731
741.253 0.887727 0.00322339
454.859 0.636477 0.00591704
849.076 1.29804 0.0073363
460.193 0.794427 0.00762884
697.123 1.38802 0.00886519
164.711 0.362616 0.00649664
565.385 1.31886 0.00548795
460.305 1.14283 0.00275608
350.002 0.962484 0.00734524
563.757 1.60602 0.00820053
351.72 1.19571 0.00976091
246.768 0.853608 0.00557134
518.839 1.9431 0.00747081
174.812 0.731705 0.00744175
218.358 1.01884 0.00560825
176.799 0.814063 0.00836658
218.793 1.04411 0.0062474
395.714 2.0701 0.011801
180.844 0.94917 0.01318
232.755 1.36041 0.0163845
188.967 1.14175 0.00738184
130.174 0.800632 0.0113772
230.654 1.55798 0.00875866
257.484 1.72483 0.0193951
270.206 2.03084 0.0219232
150.072 1.21389 0.0145239
265.277 2.08618 0.0220707
117.914 1.00305 0.0148674
221.547 1.93227 0.0215123
199.214 1.78684 0.0198192
201.124 1.91435 0.0210674
252.985 2.62842 0.0296376
146.05 1.67837 0.0165981
174.948 2.10747 0.0257016
166.785 1.94578 0.0272118
204.598 2.52885 0.044311
350.985 4.57098 0.0659702
94.9035 1.14522 0.0183655
99.4674 1.46707 0.0187435
159.204 2.34403 0.0345581
179.285 2.78588 0.0477962
120.571 1.84353 0.0331867
136.35 2.213 0.038182
156.868 2.68353 0.0391501
88.0978 1.55439 0.0346099
141.944 2.47272 0.0472205
199.3 3.64774 0.0900329
131.417 2.43326 0.0531677
124.768 2.50475 0.052701
128.713 2.5157 0.0587543
100.633 2.2278 0.0452105
147.154 3.09917 0.0727436
190.865 4.01274 0.0829961
171.46 3.95526 0.101175
165.675 3.75103 0.0862992
105.993 2.61689 0.0687068
153.197 3.68014 0.0764406
141.433 3.6656 0.102644
123.924 3.30041 0.0903394
79.9565 2.16169 0.0553082
175.446 5.01085 0.136851
71.2156 2.19521 0.068791
72.5926 1.9074 0.0467936
101.321 2.98754 0.110044
132.716 3.96045 0.104444
83.8205 2.81969 0.0843956
245.208 7.79624 0.263004
142.566 4.69177 0.143057
196.268 6.51379 0.237106
120.586 3.88812 0.143584
112.091 3.81778 0.143353
83.842 3.1497 0.13361
141.209 5.28425 0.218403
108.76 4.03447 0.152096
107.98 4.35582 0.171056
110.89 4.15358 0.146239
100.429 3.94295 0.166406
88.0683 3.61418 0.157532
103.512 4.16689 0.186701
186.684 8.22156 0.387478
137.641 5.76247 0.273535
181.491 7.91039 0.346044
107.943 4.91663 0.243897
189.236 8.87842 0.397995
72.5176 3.60709 0.181503
72.8525 3.5174 0.189963
98.3926 4.68027 0.209393
66.2741 3.31214 0.173306
57.084 2.97275 0.17299
90.801 5.04883 0.269972
122.405 6.54588 0.364125
64.0357 3.45406 0.184897
52.1021 3.04336 0.186998
122.121 6.90603 0.398658
102.205 5.81664 0.337528
70.9525 4.54888 0.25576
121.496 6.86654 0.43316
85.2769 5.20078 0.322149
125.351 7.7846 0.464923
95.061 5.65814 0.339575
89.3563 5.9404 0.372263
111.925 7.49066 0.50318
112.555 7.20798 0.432862
130.975 8.51233 0.557449
123.076 8.49102 0.579424
82.05 5.81201 0.414787
108.15 7.91487 0.5462
98.8347 7.27446 0.527138
79.0586 5.58881 0.41765
68.7561 5.58854 0.431284
94.9418 6.93629 0.506118
72.681 5.32761 0.395272
85.8203 6.77828 0.55233
117.692 9.18483 0.728021
65.445 5.24132 0.412903
98.5289 8.77013 0.781773
125.848 9.72051 0.754584
109.274 8.58695 0.682452
112.912 9.56198 0.813519
117.499 10.8107 0.969238
90.3025 8.2888 0.738087
70.6504 6.65075 0.616018
69.7898 6.79719 0.660181
113.942 10.4485 0.944284
38.7483 4.21145 0.484309
62.9752 5.35798 0.494758
49.4767 4.42423 0.418773
69.3505 6.35596 0.588843
112.436 11.2897 1.07367
97.0468 9.00269 0.885334
71.3354 6.71396 0.64118
64.4805 7.0291 0.766646
69.8778 7.67794 0.826229
71.9339 7.24816 0.709489
82.9949 9.52706 1.01119
78.4229 8.2477 0.89242
141.61 15.0851 1.66207
49.6958 5.97509 0.752103
75.0386 8.58502 1.01216
156.639 18.0768 2.16082
155.955 17.7314 2.0255
79.8637 8.14054 0.89622
109.865 12.903 1.49656
67.1343 8.47214 1.08845
103.897 11.7116 1.31172
73.136 8.56434 1.00481
106.096 13.7886 1.77352
70.3683 8.71246 1.0324
82.968 10.0571 1.27195
98.6567 12.8464 1.59103
87.0343 11.8028 1.61078
76.3767 9.19275 1.10158
109.135 15.4296 2.23932
159.654 21.2609 2.74706
79.987 10.7966 1.4799
63.6865 8.46199 1.19549
151.739 21.6683 2.92738
67.6164 9.527 1.31944
92.5836 13.0189 1.80597
62.0602 8.77754 1.27169
81.4321 12.3417 1.82587
77.9574 11.3638 1.64101
78.2923 12.5216 2.07847
53.7461 7.92403 1.24024
64.0831 10.5857 1.70893
100.826 14.2628 1.97929
76.455 11.7035 1.87436
57.6001 9.20201 1.54938
79.8168 12.4555 1.85669
76.5983 12.3743 1.94901
83.7505 12.8374 1.87888
80.9296 13.8536 2.32885
28.5094 4.49061 0.806076
55.1523 9.06962 1.43694
29.3734 5.26169 0.964625
91.0295 16.7127 2.90714
163.979 27.9292 4.60964
45.1571 7.61744 1.35353
81.7442 14.913 2.64855
37.2985 6.90824 1.32907
85.271 14.007 2.33193
60.175 12.2818 2.51499
79.9482 14.5572 2.58849
62.4921 11.1783 2.07545
82.1187 15.4277 2.90856
46.8391 8.98153 1.69702
52.7916 10.1495 2.00811
49.3011 9.06733 1.7997
76.5355 15.4147 3.15041
116.399 21.8797 3.91964
39.4164 7.8529 1.49346
45.2091 10.3264 2.19852
103.239 21.4932 4.37803
57.6628 12.5109 2.68371
55.755 13.683 3.41609
66.4694 11.8378 2.19556
46.5483 9.0395 1.79478
111.566 23.4863 4.94583
34.7641 8.38868 2.03865
63.4787 12.794 2.68906
101.687 21.9144 4.41684
71.0864 17.157 4.04036
121.312 26.4504 5.66704
93.1209 22.6723 5.44292
40.4863 9.37172 2.54304
68.9666 13.3222 2.57002
63.4866 15.7072 3.81554
84.0773 17.7302 3.53878
38.8999 10.3725 2.60335
51.8529 14.8969 4.0294
64.5663 13.3929 2.99849
65.0044 15.5283 3.69816
55.9185 12.0691 2.67127
45.0798 12.1669 3.44358
67.4161 17.2264 4.54737
66.8547 15.9642 3.76352
69.4235 16.7258 4.06542
76.2227 19.4661 4.89946
47.1637 10.9389 2.65196
42.9017 10.0528 2.51259
50.6587 13.317 3.39281
22.3025 5.87501 1.57291
50.7544 13.0499 3.33462
63.585 19.2826 5.7726
75.7816 19.2855 4.94135
73.479 18.4916 4.49726
45.1903 14.1383 4.29924
85.0469 25.647 7.59968
46.6112 12.2451 3.53661
83.5044 22.4341 6.11227
62.5386 18.0679 5.36841
52.1136 13.8677 3.69069
44.1263 12.4518 3.48454
38.1098 10.4618 2.901
25.5394 8.0259 2.59189
42.3455 11.9593 3.33273
41.0065 12.1226 3.53875
41.3517 11.3656 3.19861
32.0742 8.61488 2.20956
65.1496 21.926 6.96564
37.2288 11.4584 3.66485
40.6329 10.6643 2.79646
85.5052 27.9512 8.75295
67.3717 21.207 6.82482
58.9588 18.7631 5.97333
24.3293 8.42061 2.94862
42.5461 14.4848 5.00376
36.2895 10.7053 3.24129
31.9256 9.03807 2.69053
50.4643 15.8271 5.22014
127.271 42.2272 13.5251
41.5188 13.9753 5.0897
62.0364 19.0526 5.83649
36.2854 12.7643 4.50107
48.7977 16.0339 5.31217
47.4138 18.5968 7.13644
83.2177 25.4627 7.84182
43.919 15.2755 5.21084
34.1734 11.6587 3.76406
48.8162 18.4607 6.8164
35.501 13.5633 5.25516
49.8835 15.8178 5.19962
43.3981 15.0218 5.1008
51.1041 20.6105 8.12089
25.0666 8.80513 3.33581
35.2324 11.7644 4.28266
56.7824 19.0921 6.58129
35.944 12.3905 4.24153
33.5334 13.2495 5.28329
56.1689 20.2141 7.29396
47.4428 18.66 7.31329
76.0873 31.1568 12.5474
89.1531 31.332 11.001
37.3209 15.8032 6.90658
35.0651 12.2309 4.42003
46.1691 18.6276 7.3481
46.4368 18.1664 7.41824
46.1578 16.1325 5.4734
35.9417 13.8333 5.19303
63.1472 28.634 12.5006
21.6327 8.04563 3.47542
38.2104 16.1649 7.26994
47.3076 17.6395 6.51821
52.5508 21.4584 8.72184
58.9864 25.2027 10.235
57.6189 26.4249 12.1255
53.1416 18.7735 6.57316
33.5773 15.2037 6.67869
33.3855 14.0454 6.06816
35.2765 15.3662 6.9055
31.6094 11.7044 4.29648
53.6066 26.9289 12.8979
41.0203 16.3004 6.80172
54.2256 24.4854 10.661
31.1042 12.9694 5.75792
42.3252 16.6619 6.39318
35.8176 16.6329 7.37775
30.12 15.5202 8.10615
66.7682 30.0961 13.3606
18.053 6.71911 2.85787
37.1635 16.019 7.0095
48.2895 24.4318 12.2952
48.4592 19.9828 8.37768
23.5466 10.735 5.25263
61.9178 29.3565 13.3171
38.4029 16.383 6.85609
24.4911 12.5295 6.20655
38.1828 18.6128 8.98932
22.2395 10.2045 4.60009
25.9119 15.0561 8.30387
27.3598 13.6271 7.07505
29.6334 14.0793 6.96042
29.0919 14.5363 7.91079
37.5486 16.5976 7.67557
38.3234 17.8313 8.34807
29.7204 17.5271 9.90307
36.597 18.8325 10.3389
50.1392 21.7854 9.48806
22.6991 10.3651 5.15867
41.7312 19.584 9.00656
30.6142 14.6647 6.87496
47.9086 23.8446 11.4704
33.8157 17.845 9.35666
35.0411 20.5166 11.2234
33.6569 16.8319 8.64874
19.7705 10.3786 5.79497
27.7034 13.966 7.05217
34.8139 17.6578 8.85337
50.0473 27.2811 14.1377
40.4002 23.6663 12.9369
28.4037 18.2735 11.4438
41.7439 22.5577 12.8294
29.3972 14.6991 8.05901
51.9686 28.6157 14.9179
35.2137 18.9402 10.0383
29.3847 17.3377 10.2279
21.7937 13.2085 8.40245
33.0386 19.2429 11.3674
25.1602 12.2672 6.1683
39.0955 22.6444 12.0162
37.2192 29.655 22.8727
134.86 70.0887 33.7922
33.0976 19.5699 11.514
55.5261 37.8224 23.6024
17.8124 11.7995 9.57651
26.5914 12.3572 6.4172
23.1238 15.5761 10.3008
22.08 12.732 8.39984
30.0695 15.6857 8.56651
31.595 19.5516 12.1312
39.4659 22.0784 12.6584
30.1124 16.34 8.2034
23.343 16.3192 10.5785
31.7685 21.0708 14.031
36.9431 22.5021 14.0674
33.9312 21.7191 13.6396
27.1121 16.561 10.7575
36.7152 22.2046 13.2237
34.6376 20.8349 12.2339
45.7416 32.0538 21.4292
21.076 12.7143 9.13086
39.6736 25.8019 16.8425
33.6387 20.8565 12.8222
26.2457 19.0874 13.6363
46.1961 37.5478 31.3558
124.605 76.2312 45.3721
68.5406 38.8022 21.2788
28.0816 23.8031 19.7442
43.801 24.1778 14.3989
33.8367 19.504 11.2191
31.1107 20.3044 11.9053
20.5061 15.205 10.9555
31.0654 20.6881 13.5195
37.9222 28.1024 19.8631
28.5658 18.6636 12.6412
20.0985 13.3091 9.20799
30.4352 22.2118 15.7261
18.9344 13.7356 10.7006
22.8636 15.0069 10.3691
24.829 16.2491 10.8463
32.9527 22.4677 14.2914
18.0144 17.0251 15.6615
36.4709 23.5699 15.5289
26.4107 17.9182 12.096
13.8728 10.5027 8.75395
31.8515 22.9539 15.8706
17.9236 13.0745 10.4986
30.0804 21.92 15.7535
24.7562 17.8478 13.3045
24.5374 17.1405 12.0718
18.3348 13.9594 10.7661
17.2134 14.8109 13.2512
29.784 20.9814 15.417
29.3965 20.3769 14.4253
22.9846 15.2575 10.22
32.2534 27.1049 21.5787
25.309 21.8071 20.1144
32.1449 19.9202 13.3495
20.2298 14.3197 13.0715
105.302 81.5309 56.0131
22.9034 15.6543 11.872
31.6312 26.729 21.8287
26.342 21.0294 18.3679
45.5197 33.7217 24.0925
24.1975 18.7426 14.3852
19.0397 17.3385 16.2343
32.9002 23.0378 15.5586
28.4498 27.5688 25.4308
22.5906 13.4706 9.82694
35.4168 27.5417 20.2953
23.2798 20.4023 17.9637
21.6517 17.1788 14.9076
30.2456 21.9029 15.6857
25.7229 22.2004 18.3766
16.3795 11.6485 8.79565
20.9593 19.2289 17.4745
36.755 29.5538 23.6685
21.4454 14.0775 9.38359
36.9674 33.2247 25.8802
18.2415 14.8745 11.6285
24.725 27.3725 27.0564
13.0906 7.01049 5.73324
26.4702 22.3808 17.3808
24.1357 26.9714 29.0508
31.5426 19.7988 13.0171
14.5598 15.7593 22.9164
140.752 114.744 79.6669
18.6488 27.05 34.0338
28.7385 17.8072 12.2821
21.44 16.8446 12.6274
15.8371 14.5933 13.2161
21.0499 20.6405 20.4514
34.68 27.9335 21.329
23.5666 21.6732 18.8596
16.1628 16.4437 17.1417
47.8619 55.4488 62.4449
65.3206 40.8505 24.3191
49.672 51.2219 46.9505
20.9959 15.3433 13.5863
28.8392 25.868 20.9688
6.25147 6.17069 7.35497
20.6973 20.6955 20.0341
18.762 16.6886 16.608
20.221 17.2459 14.9877
14.8232 11.0499 8.45069
13.9036 16.0014 18.3632
25.2323 20.2773 15.8352
19.2972 17.0547 15.253
27.4111 25.3334 21.7441
12.94 13.5834 14.2552
16.5225 14.1805 11.8581
9.02418 11.0072 13.4149
16.7011 15.1095 15.3007
23.7558 20.5402 16.2151
16.2933 16.3206 14.8838
13.9978 14.8374 15.2438
19.3523 21.0516 23.3483
23.8789 19.0335 14.3512
7.92663 8.51594 9.39564
16.7934 18.8071 20.0386
8.80721 6.43427 7.5273
17.0746 13.8433 11.8093
24.2395 22.024 17.2662
13.5922 14.4574 14.0088
29.62 34.2895 33.5623
11.17 14.8413 20.2882
11.8119 8.12306 7.46599
17.0101 19.4122 21.07
17.1606 16.3995 17.1062
16.4634 14.6926 14.2079
20.6788 19.1338 16.2992
20.3594 24.0197 24.9675
16.9394 19.0642 20.1849
9.09268 11.1749 16.1106
18.9749 17.0648 14.3813
9.76561 14.3403 21.6002
30.4768 25.5284 18.9728
14.9738 18.8161 21.1548
15.4287 15.5885 15.2764
10.4341 11.8458 12.7367
7.73368 11.5172 17.5632
22.9339 22.7596 22.3103
12.9216 13.1182 14.926
14.4474 16.3717 18.9496
19.8922 19.8617 18.7031
14.5596 21.4828 30.9212
24.0866 17.8056 13.3745
20.1969 25.1999 28.5676
14.6598 15.7325 19.5283
26.3381 26.7732 24.7916
9.64526 9.40771 9.73584
11.223 13.699 16.7054
24.1458 27.0572 28.4773
15.3081 19.5919 27.056
23.2091 18.5888 14.171
19.3784 24.3929 25.5751
11.1663 12.9058 14.8071
13.7947 18.0644 23.2798
19.4158 19.9633 22.8064
30.0643 32.0864 31.6185
21.778 27.0726 29.592
15.2175 19.1035 24.3919
18.0546 20.3105 22.3481
10.3649 14.5207 20.7375
17.2674 18.4784 20.556
11.7705 12.9498 15.2984
13.7687 16.3319 21.4354
24.8483 29.5983 34.3785
21.7875 22.7399 23.1629
11.3478 13.6804 17.7582
15.9689 17.7228 20.6238
18.4815 21.4364 23.4961
11.0038 12.0753 13.2615
12.998 19.2284 26.0949
13.1839 17.1584 25.7904
25.9697 29.3094 32.032
11.8788 13.0191 19.0389
19.7449 20.4785 20.0573
14.7474 18.4977 21.222
12.9757 16.0375 18.4235
10.911 17.5512 28.2797
15.5201 14.305 15.7307
16.2678 16.2841 14.3239
13.6579 22.1851 31.597
17.2094 19.1352 21.3989
11.0405 12.3649 14.197
11.5784 13.9516 14.6939
9.75097 14.347 20.223
18.8707 23.7762 27.7994
12.9131 15.3775 19.0037
14.8615 20.694 25.6947
10.9285 17.2939 29.0594
20.616 19.6262 18.4019
15.1196 20.1807 23.6412
11.0096 18.3891 29.2291
17.2333 20.1198 24.627
12.1037 14.3627 19.6063
15.2681 19.2689 24.7274
11.5541 12.5175 15.9166
15.8314 17.5858 16.8205
8.67976 14.8021 24.2146
16.329 19.0369 21.7635
15.1978 16.5241 14.5501
12.0434 20.6601 27.9027
8.14943 11.7407 17.8669
11.5138 16.9914 25.1949
14.8943 19.6876 27.0781
18.3881 21.9229 23.1354
5.99271 11.5221 22.3889
16.1698 20.8755 27.8152
15.1809 17.5549 18.782
7.91174 12.53 20.1204
16.2714 24.9409 37.8829
19.8345 23.0682 26.1748
11.2787 15.5044 22.7249
17.431 23.3312 28.6515
11.4293 15.0055 19.8095
10.9648 16.0043 23.1831
12.1849 17.4181 24.9965
14.1655 21.7082 35.4509
26.0601 35.7857 46.7994
20.2519 23.6236 27.6475
15.761 21.531 26.4729
13.2476 21.133 29.2246
7.41453 12.4227 23.5429
20.723 32.4378 48.4889
17.2927 20.5089 24.0603
10.0914 17.0456 27.9071
9.54391 13.1147 20.1831
9.71468 13.8403 21.2009
10.5387 16.3973 27.0285
9.4622 10.0788 14.4312
9.08764 11.0444 14.4077
8.1457 12.9835 25.4622
20.4975 23.8078 23.7693
11.3228 16.7398 18.6055
7.44571 17.333 31.6018
14.3548 22.0545 35.7869
10.7248 12.4134 20.8251
14.3157 15.4864 15.2222
7.53322 10.8306 14.6368
13.1563 21.3913 28.6001
12.6473 25.6149 48.0339
18.6221 21.043 26.3945
17.9091 26.1139 30.0372
9.65526 22.407 45.0608
16.4404 20.3836 30.002
10.7842 11.4213 14.8698
18.5053 28.5003 36.1055
9.95799 15.7136 20.9608
6.27621 12.7145 22.6186
7.90871 12.0614 20.6805
8.94886 11.4547 12.6347
6.91931 17.8311 35.8332
11.5296 15.1949 25.4459
12.0628 15.8488 21.2843
8.13447 11.3663 19.2331
16.7759 27.9298 40.8354
10.3814 14.947 25.4278
11.0404 14.1296 19.8674
11.9735 17.1083 21.268
8.81795 20.451 42.061
18.559 25.0144 34.8784
12.6566 17.1258 23.3836
10.5857 17.0491 25.2363
8.84335 15.5914 27.3927
10.6621 15.2325 26.7273
18.443 28.0346 39.4312
16.1977 24.8649 34.3373
10.7244 17.7388 27.6753
7.33498 10.0723 14.4997
7.66896 14.9993 26.7544
13.7688 27.1087 47.3262
8.40205 8.77116 15.0548
11.1797 18.2584 31.3761
14.8405 20.2313 26.4375
14.0159 23.4851 30.9618
7.687 17.4352 33.2781
8.75473 15.114 27.9116
9.08939 16.5427 32.946
12.1444 18.7078 33.7448
12.1621 13.5335 12.9771
6.51765 11.799 18.999
6.35177 11.6959 23.0286
10.7321 18.2548 29.9557
12.1823 18.0233 22.2094
6.92055 14.4148 26.0146
8.30958 13.5629 20.65
7.20105 16.7868 36.4797
13.533 18.9713 27.9005
9.54779 14.7612 23.1756
9.17023 14.6182 20.3684
8.14172 16.219 28.404
6.95905 10.2676 15.285
6.6366 14.5031 28.0022
7.80068 10.9837 16.1227
6.17452 11.547 17.9435
6.30795 16.9044 39.1229
14.2514 26.8 54.0271
14.5153 17.9511 26.1861
13.6067 22.7581 34.4854
10.2967 19.1175 33.245
8.98156 12.6184 17.9703
6.72191 12.6718 21.3892
8.76182 17.6274 31.483
7.32698 13.6241 27.8395
9.13532 13.0212 18.024
5.60874 10.535 18.6667
8.96269 19.037 35.1194
10.1809 20.4057 40.3362
9.17767 15.409 29.6454
8.29729 12.3054 23.4279
10.2668 20.4848 42.7608
16.4099 25.9419 41.9704
11.953 17.7182 25.6585
12.0674 26.5201 48.9049
13.8501 25.0265 41.7093
8.4798 14.9975 29.0432
7.21063 14.2343 32.5226
9.93302 12.5843 17.166
6.00903 9.65929 15.5898
6.2487 11.1566 19.3471
5.64327 8.65086 12.6742
5.78635 10.9953 15.9152
4.27376 10.9817 26.3998
10.031 18.425 30.4995
8.02095 18.1929 39.7963
10.1127 15.5406 23.8583
5.2969 9.33872 17.9982
8.39879 18.7594 38.1991
5.98071 9.72801 27.9462
17.1474 31.1929 47.5147
6.58867 10.0899 20.5135
9.14746 16.4481 27.6527
10.063 17.8283 24.0869
2.55786 8.13225 24.0944
9.09933 15.445 26.8769
9.31012 17.7175 30.3003
8.15305 16.7662 30.7482
7.80885 16.9432 32.5918
5.96845 10.1773 19.5053
4.44935 8.01005 15.8682
6.65741 15.9629 31.026
4.56648 9.46595 26.9831
7.31005 10.4377 23.302
14.5343 31.8539 58.2852
8.29362 11.053 20.9103
7.51402 12.8996 24.4511
9.45975 16.5666 25.467
10.2575 24.0249 44.5489
7.59048 16.2608 35.756
7.65331 13.7205 28.771
6.24296 8.41705 14.3194
9.72959 24.7 53.2863
12.9303 20.3799 28.2662
5.76806 15.09 35.9315
9.87993 17.8894 30.0594
6.32799 13.2333 26.8454
7.71969 17.0037 32.6972
3.34468 5.38564 18.7236
8.91848 16.8066 26.7376
5.77557 16.175 39.6924
7.89687 14.1258 34.3466
12.4364 22.1888 34.3116
5.78075 12.8536 26.9482
7.57465 18.9818 46.2665
9.89608 17.9478 39.7587
10.0451 16.1221 29.4895
10.649 22.9293 42.3236
6.01369 9.89994 24.2303
10.8217 24.8744 50.8498
9.74948 15.4984 27.5784
6.90922 12.8107 24.0006
6.36217 11.0498 19.3213
8.62673 21.0943 39.3301
5.19947 9.29313 20.5971
5.64806 12.0922 24.7861
5.82073 11.0489 21.7717
7.46652 17.8209 32.9529
4.41978 9.73461 25.2796
8.13802 17.2635 35.0761
6.70812 13.0924 26.918
7.284 15.5971 30.8542
6.52016 14.9885 33.3342
7.983 17.2765 34.8568
8.20741 20.1832 46.8471
8.75474 16.0987 32.749
5.37626 10.6086 26.9452
7.82982 14.2746 25.1038
5.15251 10.4894 19.9074
3.92278 9.69809 24.4156
6.51569 15.719 36.3703
7.14265 14.1803 31.8435
6.83648 13.9729 32.6193
7.62739 14.6183 29.0583
3.69785 5.73618 22.4036
11.9333 24.8565 46.2314
10.0776 18.522 27.7657
3.72722 9.29493 23.5061
5.49349 12.731 28.163
5.02142 8.76131 16.6287
4.43816 11.1867 28.9865
6.44258 11.6213 22.3803
8.3616 23.4293 54.4218
8.87197 16.0113 36.0664
11.3933 24.402 42.0064
7.55099 19.3993 41.9632
7.81193 19.0657 41.2483
5.2684 9.90229 24.9326
6.55958 15.8801 37.5391
5.89798 9.32348 18.2106
4.96843 12.5754 33.376
10.07 24.9696 53.6121
8.76128 19.3525 47.7575
7.7308 12.2428 23.2962
5.38004 9.57566 16.1668
4.83157 12.714 25.7597
6.55613 19.6003 46.3643
5.02777 10.766 40.6377
13.0841 25.8472 42.0779
7.07677 18.1802 41.8333
5.11712 9.67216 30.044
10.8632 24.8187 50.5222
8.63838 18.2532 37.9415
6.68561 13.9567 27.0926
4.85794 11.8174 24.9608
4.93721 11.9673 25.4395
4.2225 12.652 35.6569
7.60314 18.0219 45.2738
9.81544 23.3051 52.8861
9.30629 19.2938 40.695
7.93529 22.3261 61.7832
10.2154 15.5543 26.7605
7.71341 23.1647 55.3816
6.3368 9.29922 22.1016
7.29901 17.4466 33.3299
5.83887 14.7419 32.9213
6.01317 17.9568 47.4832
6.19378 9.77689 23.8317
7.13099 15.7538 27.1052
2.65659 5.90983 16.686
4.07759 11.3834 26.7851
3.46602 9.52449 35.8842
7.57634 12.2638 22.1653
6.80929 18.4723 42.1704
6.94847 13.7308 21.1494
4.33484 18.8475 58.4667
8.01806 11.1324 22.5336
7.80105 22.4555 51.0822
7.29627 20.1682 64.0962
11.8754 21.7735 44.1698
8.64337 18.618 32.5148
3.74518 10.9042 32.1944
5.06398 8.71215 18.5764
4.24865 9.85686 27.2604
8.07286 20.0381 40.1045
6.89328 19.6664 45.5862
5.53128 12.7994 38.1288
7.84964 16.3517 26.9463
3.10174 8.62854 26.9556
7.6966 21.6011 50.0428
6.82033 19.152 49.3445
5.79539 12.3523 37.7795
7.64518 14.698 30.84
7.99688 22.489 48.5099
5.54501 12.4209 26.9034
3.3714 8.81084 23.7855
2.80014 8.57764 36.9508
8.48474 18.3334 35.2564
