# pn-170911/RbIIR-52-RbIIA-1280-1959.psd
# Power spectrum* (dif=0,1,2) (really just |FT|^2)
# NOTE: only the first half! (symmetric)
# weeks: 1280-1959
# 3382 clock-days, 22 excluded
# PSD: 1441
6011.43 0.260446 0.0285707
624581 12.8357 0.0177856
1.88195e+06 35.2577 0.0179094
372868 11.8174 0.0183273
260252 15.2981 0.0185951
113509 8.17105 0.0188586
77059.2 8.65012 0.0189743
49608.1 7.37773 0.0190949
43858.6 8.55673 0.0201212
30008.8 7.08634 0.0211346
25007.4 7.00182 0.0208267
20196.2 6.73007 0.0217251
16911.1 6.82813 0.0224758
13938.9 6.56617 0.0228472
12310.9 6.82866 0.0247191
10533.1 6.50244 0.0245329
9411.95 6.58023 0.0260952
8183.47 6.50849 0.0261493
7427.96 6.51393 0.0274172
6327.59 6.21551 0.0275776
5993.34 6.58523 0.0305671
5417.98 6.55362 0.0312216
4863.04 6.63379 0.0331105
4392.78 6.33338 0.0336793
4174.33 6.49555 0.0358623
3763.09 6.42919 0.0369164
3420.54 6.23096 0.0383348
3149.55 6.35935 0.0408498
3019.31 6.49976 0.0425449
2851.76 6.6606 0.0442051
2657.58 6.45895 0.0459611
2498.53 6.50045 0.0481251
2286.12 6.41692 0.0489348
2215.33 6.84033 0.0526837
2069.16 6.46793 0.05461
1999.21 6.61246 0.0552826
1855.98 6.81724 0.0594163
1783.73 6.87208 0.0633706
1674.65 6.81972 0.0628685
1572.18 6.63254 0.0661261
1487.15 6.63497 0.0689242
1441.51 6.71447 0.0719663
1370.58 6.86413 0.0764554
1377.78 7.09111 0.0808206
1272.1 6.85026 0.0807809
1219.21 6.9691 0.0838875
1185 7.0382 0.0888929
1150.38 7.34084 0.0955164
1119.89 7.30317 0.0985766
1047.34 7.37272 0.102098
1016.4 7.2759 0.10424
984.444 7.25093 0.106716
960.328 7.49913 0.115377
930.695 7.48111 0.117238
916.305 7.72882 0.125312
864.97 7.74333 0.128792
845.267 7.86896 0.137993
819.562 7.81696 0.137104
774.864 7.76378 0.142509
762.474 8.06426 0.150104
748.912 8.17069 0.158498
735.656 8.0854 0.160285
722.329 8.19522 0.168267
697.937 8.22722 0.174045
672.674 8.26242 0.18029
648.743 8.34596 0.187248
632.982 8.48143 0.193795
629.18 8.69483 0.201905
588.321 8.46255 0.203576
585.413 8.6884 0.217691
574.025 8.3293 0.214738
580.6 9.04012 0.236593
553.779 9.07236 0.242598
515.883 8.53939 0.237669
548.788 9.17647 0.256248
520.799 9.03051 0.260818
509.752 9.00765 0.266787
491.649 9.2089 0.274984
477.829 9.13974 0.280149
471.687 9.09282 0.289334
473.025 9.55755 0.305559
465.868 9.53086 0.314177
465.282 10.0768 0.34234
440.33 9.88131 0.34353
427.367 9.9433 0.35313
429.706 9.98908 0.359171
425.707 10.0753 0.37236
398.247 9.87045 0.373548
399.761 9.94267 0.382593
396.498 10.1721 0.397515
390.969 10.111 0.406164
393.574 10.9193 0.446818
376.549 10.3353 0.430139
376.362 10.6872 0.459835
365.224 10.4114 0.459393
371.115 10.9764 0.487672
416.597 13.3403 0.600203
356.256 11.1537 0.519336
341.278 10.9607 0.518561
339.495 10.8671 0.525348
326.667 11.0032 0.538461
340.607 11.8954 0.594435
330.789 11.628 0.590269
324.118 11.4908 0.599522
326.266 11.9003 0.627999
313.628 11.5544 0.627014
312.19 11.9044 0.654561
299.749 11.6126 0.648755
295.588 11.5914 0.660966
298.561 12.0702 0.695348
296.209 12.0729 0.709118
285.832 12.0462 0.722948
272.974 11.3042 0.688559
285.522 12.4457 0.770832
286.492 12.883 0.809346
280.359 12.7279 0.81843
276.944 12.7806 0.833326
270.79 12.402 0.819642
271.116 13 0.875533
269.638 13.233 0.907565
263.793 13.3313 0.92616
257.906 13.2654 0.93823
263.175 13.3543 0.963212
249.924 13.4264 0.980934
250.531 13.285 0.979704
245.07 13.2202 0.996616
251.376 13.7557 1.05137
238.205 13.1173 1.02175
235.5 13.2727 1.04104
239.325 13.8493 1.10104
235.399 13.6925 1.11668
232.227 14.2062 1.17346
230.242 14.3699 1.20294
226.032 14.1113 1.20189
222.494 14.0045 1.21459
222.586 14.2691 1.24985
222.528 14.4082 1.27688
216.15 14.3966 1.30171
209.559 14.0967 1.27937
213.162 14.3857 1.33035
217.677 15.1219 1.42392
208.345 15.0218 1.42683
205.746 14.6286 1.40213
206.419 15.0838 1.47369
206.077 15.5699 1.53933
198.77 15.2499 1.5291
199.967 15.183 1.54097
204.684 15.8154 1.63902
201.245 15.4868 1.61426
195.645 15.4747 1.64572
202.759 16.2742 1.74239
189.473 15.5014 1.68813
191.125 16.0575 1.77314
184.863 15.7716 1.75827
183.332 15.8799 1.79049
185.438 16.2796 1.8634
185.241 16.5599 1.92106
181.156 16.2403 1.91182
183.384 16.4179 1.95648
172.03 16.3906 1.97712
175.089 16.3876 1.9942
177.325 17.0653 2.11599
177.705 17.0448 2.11629
171.832 16.8429 2.14171
170.69 17.0063 2.17325
175.105 17.0945 2.20006
166.435 17.3029 2.26921
171.553 17.817 2.35984
170.586 17.8178 2.39286
166.709 17.7882 2.409
160.402 17.1223 2.35326
164.768 17.7345 2.44344
160.747 17.4435 2.45123
157.487 17.1657 2.44276
159.082 17.78 2.55302
159.201 18.0506 2.60474
152.45 17.1527 2.50215
157.571 18.2005 2.70276
154.827 18.0965 2.7104
150.752 18.1963 2.76732
152.925 18.7283 2.86465
144.78 17.9446 2.80077
148.971 17.9619 2.81227
147.683 18.8843 2.99772
145.608 18.1676 2.88669
149.258 19.3512 3.12951
147.782 18.8795 3.07915
141.393 18.4475 3.04511
142.666 18.7734 3.12216
141.002 18.82 3.16869
138.514 18.4014 3.14418
140.319 19.3047 3.34304
178.981 25.6697 4.39648
133.409 19.1247 3.36181
136.957 19.1369 3.39874
137.774 19.9788 3.58563
138.112 19.6324 3.53809
133.718 19.3534 3.55055
132.094 19.3601 3.57754
134.54 19.7307 3.68746
128.613 19.6371 3.68872
122.82 19.0938 3.6464
134.73 20.4877 3.9282
129.788 19.9817 3.87882
127.35 20.0688 3.93024
126.668 20.1011 3.9925
122.678 19.5294 3.88001
125.202 20.347 4.12569
124.633 20.1877 4.05141
123.005 20.1463 4.14802
121.976 20.4058 4.19636
118.692 20.2264 4.26034
118.936 20.1616 4.24039
118.005 20.2091 4.30512
118.71 20.7461 4.47065
118.385 20.8647 4.54291
116.478 20.6817 4.51165
115.366 20.4047 4.52853
113.539 20.5637 4.55623
115.384 21.3716 4.79329
117.043 21.3753 4.85606
116.353 21.416 4.90294
115.698 21.3904 4.92093
111.847 21.0027 4.90662
109.966 20.9688 4.93154
110.633 21.5003 5.10463
109.68 21.5857 5.16254
110.383 21.852 5.25305
108.135 21.8267 5.35015
108.771 21.6551 5.2894
106.472 21.5763 5.3366
107.772 21.8098 5.41086
104.358 21.8948 5.56949
106.322 21.9545 5.56007
109.609 22.856 5.834
103.806 21.6897 5.60907
105.452 22.2958 5.76284
101.764 21.755 5.69693
104.338 22.5697 5.99579
99.4249 21.9932 5.8746
100.816 22.0307 5.89742
98.6605 21.9764 5.95647
98.5982 21.9121 6.01414
98.2267 22.1917 6.10287
97.3774 21.9337 6.13989
99.3673 22.609 6.31076
99.542 22.9659 6.42507
93.965 22.2104 6.33229
91.6036 21.435 6.15727
96.6724 22.5783 6.48916
95.4455 22.7799 6.64495
93.4543 22.1765 6.48149
92.3783 22.903 6.78527
92.5565 22.8336 6.81521
91.4698 22.9837 6.92543
96.1917 23.5406 7.11518
91.4879 22.8403 6.94175
90.649 23.239 7.18843
91.1019 23.5017 7.23564
90.8478 23.2369 7.25596
91.6634 23.8208 7.43831
87.8811 22.9626 7.2355
84.2462 21.9559 7.00475
86.0318 23.018 7.43848
88.2685 23.7273 7.69042
86.1648 23.2606 7.52046
88.2014 24.0052 7.87836
84.3271 23.019 7.61374
83.7271 23.773 8.00121
86.3807 23.949 7.99741
84.5967 23.674 7.98031
81.6684 23.0801 7.81699
82.9306 23.349 7.95667
79.9777 22.9405 7.94791
83.9521 24.1046 8.35239
82.0634 24.1304 8.51108
80.9823 23.7073 8.40343
80.763 23.7542 8.385
81.1895 24.0041 8.56481
77.3467 23.0217 8.31664
81.4176 24.5089 8.81994
79.3633 24.3747 8.92815
77.1511 23.3203 8.52158
77.6503 24.3981 9.03997
77.3306 23.7838 8.83644
76.6438 23.6687 8.88773
76.0727 23.8113 9.05556
75.7689 24.4852 9.5542
104.367 34.1307 12.6347
75.5343 24.7275 9.57586
73.8076 23.9271 9.34898
73.5266 24.3949 9.55126
72.7648 24.0433 9.49899
73.6436 24.0789 9.48215
72.7354 24.4373 9.75116
73.6155 24.416 9.83703
72.6063 24.1112 9.6848
71.0306 24.1782 9.82508
71.8587 24.7668 10.1115
71.4145 24.5907 10.1704
72.5454 25.1237 10.3704
71.75 25.1071 10.4278
70.3034 24.767 10.4013
70.3919 24.6026 10.3516
67.1462 24.0732 10.219
70.0642 24.5688 10.5314
69.7931 25.3572 10.8694
67.4254 24.6088 10.664
66.6011 24.1897 10.5081
65.1947 23.9351 10.507
65.1415 24.1368 10.6962
64.8054 23.9049 10.5532
65.5641 24.6349 11.0589
65.2434 24.4176 10.981
65.896 24.8707 11.2157
64.0194 23.966 10.8029
64.7277 24.6885 11.2189
64.5749 25.1543 11.5812
63.3077 24.5212 11.6135
65.0787 24.658 11.34
63.9473 25.3545 11.8335
63.2708 25.0065 11.788
64.3768 25.5681 12.0389
62.2725 25.1755 12.1266
63.0738 24.7621 11.7344
60.5441 24.1591 11.7575
62.0709 25.5411 12.3951
59.4565 24.107 11.8651
62.3947 25.8569 12.7197
59.4206 24.2814 12.1408
62.1724 25.9611 12.7909
60.4178 25.1591 12.4622
59.7001 24.9471 12.5589
58.4631 24.6986 12.4486
57.0822 24.4675 12.4419
58.6833 25.3244 12.9968
56.9227 24.2564 12.5092
59.7263 26.4333 13.654
57.8988 24.845 12.8643
56.2882 25.3224 13.298
56.8679 24.8269 13.0161
58.8226 26.1085 13.9126
57.1235 25.414 13.5542
57.3162 25.9653 13.815
55.7275 25.24 13.6191
55.9576 25.9848 14.0502
56.953 25.6647 13.9038
56.1349 25.7697 14.1079
54.5571 24.7237 13.5893
53.3295 24.8083 13.6661
55.1659 26.1241 14.6303
54.3962 24.9859 13.9395
54.778 26.2116 14.8126
54.5955 25.8279 14.5625
55.5538 26.4396 14.9205
52.5751 25.3283 14.405
52.3903 25.541 14.835
52.916 25.4925 14.6952
51.7343 25.0925 14.5974
51.6953 25.175 14.6311
50.9967 25.2833 14.9541
52.9991 25.92 15.2098
48.9396 24.8253 14.7039
50.6471 25.3282 15.0601
48.7466 24.5074 14.7406
50.5365 25.9264 15.6277
49.7182 25.2567 15.2552
51.1133 25.9686 15.8044
50.471 26.0851 15.936
50.7091 25.9759 15.9392
48.9526 25.1696 15.5924
49.5065 25.7783 15.9737
48.0073 25.1891 15.8808
48.2932 25.5548 15.9121
47.8424 25.4769 16.1461
48.2676 25.5622 16.0828
47.9829 25.5962 16.3176
46.1554 24.8127 15.8651
47.5049 25.7119 16.686
47.2891 26.059 16.9206
47.1586 25.973 16.997
47.5286 25.7421 16.5998
46.4332 26.0008 17.1514
47.0311 26.4314 18.2814
63.8127 36.7777 22.9578
44.715 25.2738 17.0071
46.2974 26.6458 18.0695
45.3565 25.4251 16.992
45.0933 26.0204 17.5575
45.0446 25.6661 17.5792
45.708 26.324 17.9718
45.5466 26.1164 17.8224
44.2544 25.5433 17.4962
44.0655 26.0624 18.0671
43.4943 25.4217 17.7979
42.7953 24.8214 17.4572
42.609 25.5482 17.8795
44.2927 26.2637 18.5459
43.9701 26.1331 18.4561
43.0674 25.7321 18.1526
42.6779 25.613 18.5483
41.8029 25.2621 18.1136
43.1564 26.4446 19.0812
41.6428 25.4692 18.4459
42.1432 25.8965 18.7367
40.8173 25.4422 18.7435
41.3579 25.5338 18.7224
41.5181 25.5364 18.9214
42.1556 26.2628 19.52
41.2843 25.9888 19.1683
40.3046 25.7879 19.4851
41.0436 26.1706 19.8166
41.0105 26.2656 19.7891
41.2153 26.0315 19.6121
39.8889 25.9 19.9984
41.5069 26.4658 20.1147
39.7351 26.2952 20.4175
41.1339 26.6814 20.5227
40.5718 26.3681 20.3689
39.9406 26.2189 20.5853
37.7595 25.1184 19.8303
39.3447 25.6264 20.1678
40.2356 26.4862 20.6243
38.5725 25.6953 20.672
37.6098 25.2656 20.1276
38.5991 26.2909 21.2982
39.6435 26.8548 21.4975
38.4082 25.881 20.7371
37.9156 25.9466 21.1479
37.5538 25.7222 20.9957
38.5111 26.4751 21.4214
37.7196 26.2025 21.4039
37.286 25.5563 21.215
37.0323 25.8729 21.2546
37.7027 26.078 21.7399
37.4219 26.5987 22.3883
36.8619 25.787 21.4742
35.8605 25.5473 21.3546
36.4217 26.0238 22.1212
36.344 26.1913 22.3074
35.3844 25.2439 21.5716
35.6987 25.7 22.0476
36.1952 26.0996 22.4222
34.6602 25.3435 22.3205
36.0626 26.0141 22.517
35.3688 25.9994 22.8181
35.6489 26.1699 22.7394
34.415 25.2802 22.3809
35.1979 25.9407 22.5159
34.8279 26.007 23.4183
34.9319 26.1053 23.1509
34.9841 26.0343 23.029
33.8586 25.3449 22.9375
34.036 25.6168 23.038
34.6275 26.2745 23.897
34.4085 25.7085 23.1788
33.7465 26.0729 23.7397
33.8283 25.9898 23.7442
33.3857 25.9782 23.845
33.0941 25.5117 23.4491
33.9449 26.3975 24.4964
33.2483 25.621 23.7232
32.7758 25.7636 24.1746
33.5787 26.4074 24.6485
32.8018 26.1267 24.6765
33.6691 26.3895 24.8798
32.054 24.9947 23.832
32.1598 25.5734 24.2912
32.4834 26.4975 25.3138
31.826 25.4667 24.225
30.5276 25.0153 24.0954
31.2205 25.5941 24.8881
31.499 25.8494 24.994
32.3813 26.104 25.4187
31.6308 25.8217 25.2618
31.5707 25.9425 25.7384
31.0542 25.7985 25.4161
31.4127 26.2088 26.148
31.5727 26.0503 26.1094
30.548 26.2214 27.9566
43.9078 38.0067 34.6932
30.2372 25.7388 26.0511
30.4277 25.8691 26.2334
29.843 25.603 25.9501
30.2049 25.5406 25.9457
30.6636 26.3454 26.9044
30.4864 26.7569 27.2859
30.0252 26.3797 27.2199
29.442 25.1915 25.8815
29.0741 25.2693 26.4126
29.9154 25.5603 26.5504
29.6323 25.8406 26.7639
29.9213 25.9437 26.9121
28.4963 25.4325 26.9005
29.272 25.5387 26.6078
28.596 25.9255 27.4617
29.5342 26.6825 28.2141
28.0556 25.1091 26.7768
29.0752 26.2645 28.3615
29.0141 26.0798 28.1636
28.7271 25.4024 27.3247
28.3988 26.0099 28.3047
28.073 25.3491 27.1651
28.0361 26.1353 28.7403
28.1829 25.6823 27.8012
27.4086 25.1266 27.3692
27.3616 25.9468 28.6412
27.3308 25.1192 27.6136
27.086 25.5092 28.714
27.9399 25.8913 28.5171
26.8918 25.5852 28.5183
26.381 24.8907 28.0659
26.1906 24.7815 28.0886
26.8296 25.4155 28.5251
26.599 25.7261 29.0581
26.8042 25.3608 28.7926
26.3512 25.2073 28.5921
25.9847 25.0966 28.8622
26.2891 25.3127 29.1997
26.8226 26.1189 29.5403
25.9477 25.8969 30.2308
26.9009 26.0791 30.1536
26.3747 26.0949 29.996
25.5535 25.298 29.4702
25.3861 24.5902 29.0829
25.5117 24.963 29.1717
25.8837 25.8753 30.8594
25.4622 25.58 29.9729
24.1853 24.5644 29.8441
25.2859 24.4898 28.6844
24.6811 24.5682 29.7403
25.4476 24.9161 29.6759
24.8856 25.4494 30.8353
24.7351 24.9497 29.9581
25.0578 25.5406 30.782
24.3964 24.7019 30.105
24.292 25.0405 30.4576
24.3655 25.2023 30.9149
24.6906 24.7598 30.3064
24.1996 24.6505 30.329
24.5231 25.7339 31.8617
24.3988 25.3799 31.4047
24.6059 25.3649 31.4869
24.5932 25.4705 31.7012
23.6858 24.9198 31.3296
23.9795 24.7783 30.7267
23.7587 25.3213 31.9314
23.9444 25.6894 32.803
23.8217 24.6326 31.0394
24.0555 25.726 32.7551
23.4382 24.4547 31.3501
23.6883 25.1913 31.9434
22.4787 24.6185 31.8142
23.2656 24.8463 31.8086
23.333 25.1083 32.414
22.9565 24.7587 31.8186
23.4067 25.7156 33.1652
22.4281 25.183 33.236
22.8021 25.1993 33.305
23.5784 26.2879 34.0828
22.3227 24.7565 32.3541
22.0517 24.6406 32.9354
22.6837 25.1828 33.7036
22.4811 24.7912 32.4714
21.5279 24.1646 32.4989
21.8783 24.6058 33.1378
21.9495 24.5187 32.6915
22.1327 25.5931 34.8573
22.3271 24.923 33.9495
21.8413 25.0757 33.9922
21.8173 25.0471 34.2018
22.2056 24.7746 33.5383
21.9168 24.7863 33.6908
21.8758 24.7818 34.1033
22.4556 25.9848 35.7347
21.8577 26.1084 38.817
30.5935 35.9611 44.9971
21.6614 25.1135 34.6283
20.889 24.3685 34.6975
21.2903 24.6352 34.359
21.6645 25.1824 35.3789
20.449 24.0409 34.1211
21.0414 24.9219 35.6992
21.2012 24.9522 35.3877
21.2677 24.3789 34.708
21.5132 25.2684 35.4033
21.1936 25.0051 35.3169
20.7222 24.6602 34.7739
20.3583 24.3737 35.1923
20.1951 24.4394 34.9035
19.9308 24.3108 35.3401
20.6054 25.0731 35.7631
20.2289 24.3832 35.3136
20.5134 24.6732 35.9827
20.03 24.6102 35.7691
19.7462 24.0912 35.5253
20.1601 24.9829 36.8853
20.1527 24.1371 35.5248
19.6434 23.8379 35.0207
19.456 24.3676 36.3128
19.842 24.3785 35.7688
19.1253 23.8735 36.0034
19.4426 23.9532 35.5238
19.2699 24.327 36.7476
19.7998 24.2537 36.0404
19.1725 24.0854 36.0277
18.8922 23.6857 35.7937
19.4356 24.4099 36.4348
19.1574 24.5741 38.1546
19.6345 24.8856 37.3419
19.1475 23.9602 36.0529
18.6976 24.0522 37.3418
18.9413 24.0262 36.4864
18.5738 24.1005 37.0669
18.6219 23.9084 37.4758
19.225 24.7662 37.6525
18.3784 23.3724 36.8993
19.3328 24.6476 37.2269
18.146 24.0087 38.1325
18.4324 23.5012 37.109
18.5984 24.1735 37.7325
18.4186 23.9253 37.001
18.4375 23.9485 38.1416
18.0768 23.8376 37.9748
18.8913 24.6181 38.8535
17.9646 23.6495 37.4215
17.4381 23.2099 36.8279
17.7271 23.7499 37.8958
17.8931 23.4819 38.0879
17.8392 23.6224 38.1279
18.7015 25.0539 39.45
17.7818 23.6729 38.8515
17.4006 23.2255 37.9772
18.0866 24.4226 39.6934
17.5327 24.0252 39.2837
17.775 24.0301 38.797
17.6373 24.1288 38.8671
16.9973 23.5293 38.8919
17.2509 23.5992 39.1784
17.4114 23.2674 37.6966
16.7816 23.694 39.4152
17.2324 23.6339 39.4093
16.7533 22.8868 37.7079
16.8487 22.8253 38.012
16.8301 23.4343 39.1843
16.5009 23.6102 39.8732
16.7001 23.1658 38.7582
16.2374 22.8405 38.8415
16.9842 23.5951 39.644
16.7817 23.6031 39.6777
16.2271 23.1043 39.799
16.4998 22.9493 38.9355
16.4203 22.5983 38.63
16.5677 23.5637 39.7583
16.2288 22.9799 39.4085
16.7646 24.0951 40.9198
16.0861 23.1847 40.7141
16.2131 22.4892 38.5276
16.4108 23.5878 40.8487
16.2823 23.2683 40.5159
16.1155 23.2224 40.2285
16.2002 23.6825 41.4985
16.4817 23.5646 40.7669
15.9652 23.2539 40.8187
16.0023 23.5675 41.3054
15.6962 22.7593 40.5336
16.4862 23.9659 41.7823
15.4148 22.5207 40.0871
15.4258 22.947 41.4375
15.7032 22.6485 40.1798
15.734 22.7531 40.92
15.7034 24.0595 49.2101
23.0924 33.4917 50.8343
15.416 23.4429 42.436
15.1921 22.9906 42.5328
15.8041 23.4078 41.978
15.192 22.7707 41.2204
15.253 22.8702 41.4638
15.4577 23.0652 41.9415
15.5037 23.5262 42.5974
15.0095 22.7131 41.429
14.9477 22.3714 41.2807
15.2098 22.7562 41.57
14.6798 22.944 42.4247
14.8703 22.8814 41.7825
14.7518 22.9312 42.9404
14.8058 22.776 42.4389
15.2751 23.0823 42.6114
14.6761 22.052 41.3931
14.8882 22.5614 41.7388
14.8459 22.836 42.3076
14.5954 22.8273 42.7851
14.9079 23.1315 42.7359
14.3556 22.4669 43.098
14.6817 22.7328 42.6852
14.5609 22.4024 42.0464
14.1872 22.3203 42.9489
14.4733 22.1406 42.2133
13.9864 21.8616 42.0604
14.6214 23.0944 44.2498
14.3757 22.2873 42.4029
14.3883 22.6011 43.2506
14.4575 22.2604 42.5454
14.3569 22.512 42.993
13.9465 22.3029 42.727
13.9308 21.7102 41.9183
13.6722 21.7433 42.6786
13.7603 22.1998 42.888
14.0301 22.5149 43.882
13.44 21.4297 42.6212
14.3157 23.0898 44.6576
14.1608 22.6619 44.5133
13.8449 21.5762 41.5915
13.5886 22.3496 44.4661
13.5174 21.8415 43.3241
13.8652 22.7072 44.6687
13.8463 22.3431 44.1229
13.4338 21.936 42.9599
13.2554 21.2614 42.4799
13.0292 21.7581 44.884
13.8495 22.3823 44.6179
13.3789 22.3618 44.829
13.6129 21.9664 44.0368
13.2945 21.8446 43.8673
13.2801 21.6417 43.5211
13.1026 21.9757 44.4638
13.1073 22.1233 44.7647
13.404 22.3523 45.8425
13.4976 21.8399 44.5891
13.1763 21.8018 44.122
12.9221 21.7879 44.6281
13.0639 22.0828 45.1747
13.1142 21.7703 44.5166
12.9798 21.3413 43.9842
12.6285 21.0608 43.4043
12.5219 21.4853 44.4961
12.7925 21.4139 43.7509
12.8863 21.8474 45.4727
12.8472 22.1312 45.7691
12.5949 21.1621 44.6463
12.8193 21.7286 44.8164
12.393 21.7881 45.9185
12.7122 21.421 44.6932
12.2639 21.4422 45.4443
12.8126 22.0231 45.3439
12.4525 21.0967 44.9581
12.5548 21.9006 45.8047
12.5445 21.6238 46.298
12.5401 21.7095 46.1073
12.1529 20.777 44.9378
12.8177 21.5629 45.3082
11.9424 20.8217 45.0036
12.0812 20.4544 43.9507
12.1007 20.8118 44.2216
12.2685 21.8631 46.3974
11.9266 21.1939 46.2947
12.4016 21.3003 45.5716
12.0221 20.8745 45.521
12.1251 21.2005 45.3393
12.0722 21.4989 45.8729
11.6883 20.7545 45.404
11.9254 21.3703 46.7272
11.7203 20.4084 44.8384
11.7724 20.7559 45.436
11.6933 21.3242 45.6607
11.2759 20.3209 45.2094
11.5147 21.0994 47.5769
11.686 21.9873 58.4039
17.1809 30.3954 55.193
11.7042 21.4679 47.118
11.5186 20.8585 46.7266
11.6359 21.1962 47.0098
11.4588 20.64 47.0709
11.9945 21.4032 46.7452
11.2129 20.7361 46.7592
11.6816 21.1968 47.3937
11.3915 20.7859 46.8026
11.2483 20.4588 46.0752
11.4509 20.7838 46.4674
11.1896 20.8654 46.5271
10.8984 19.966 45.7441
11.265 20.7912 47.1195
11.2136 20.4693 46.9402
11.2335 20.7528 47.8023
11.5707 21.3178 46.9937
10.8562 20.1202 47.5194
11.131 20.172 45.9955
11.0279 20.7261 47.2411
11.0105 19.8228 46.2724
11.3016 20.7036 46.6295
11.056 20.6772 47.4465
11.0791 20.3718 46.969
11.1902 20.8759 47.7612
10.9706 20.1917 46.2774
10.3457 19.739 47.1338
10.9068 19.9952 46.7618
11.1458 21.4034 49.3787
10.8607 20.5949 48.3472
10.5628 19.8977 46.6538
10.6104 19.762 46.5637
10.7398 20.4156 47.7294
10.6771 20.4058 48.0051
10.665 20.5437 49.4284
10.846 20.1773 46.9981
10.6606 20.332 47.9685
10.5489 19.7448 46.2913
10.3569 20.2109 48.3317
10.7008 20.4192 48.5537
10.6393 20.2439 47.0266
10.2758 20.0246 48.4538
10.3431 19.6123 47.4016
10.546 20.0963 47.4538
10.3677 20.2134 48.8746
10.4355 19.9199 47.4761
10.4042 20.2521 48.6412
10.2369 20.1295 48.6107
10.1994 19.5371 47.0995
10.0024 19.3647 46.1752
10.3104 20.1797 48.2057
10.3189 19.9668 49.0326
10.0897 19.894 49.1763
10.4794 20.4195 49.5885
10.3496 19.8527 48.4766
10.2796 20.6731 50.1558
10.123 20.1652 48.5004
9.82879 19.3251 47.8288
10.0717 19.9867 49.2917
10.2988 19.6625 47.5233
9.94139 19.7919 49.016
