# pn-170911/RbIIA-26-RbIIR-1280-1959.psd
# Power spectrum* (dif=0,1,2) (really just |FT|^2)
# NOTE: only the first half! (symmetric)
# weeks: 1280-1959
# 2848 clock-days, 934 excluded
# PSD: 1441
1780.28 0.101501 0.0243779
151077 2.36453 0.0122828
701052 15.3515 0.0124328
125687 4.45346 0.0123543
120399 8.41158 0.0131941
44139.9 4.28165 0.0127175
34479.1 4.88165 0.0130428
23003.2 4.27676 0.0129854
19376.6 4.7337 0.013643
14478.3 4.51385 0.0139593
11106.4 4.27915 0.014451
9831.71 4.59161 0.0147549
8110.96 4.54098 0.0153839
6960.35 4.56377 0.0157631
5868.78 4.38416 0.0164311
5013.84 4.33407 0.0170764
4491.81 4.45592 0.017458
3851.75 4.38784 0.0181946
3703.83 4.63872 0.0199257
3177.96 4.44684 0.0194792
2856.44 4.45761 0.0212317
2607.5 4.46458 0.0216614
2372.35 4.37044 0.0221181
2214.56 4.47106 0.0234446
2012.35 4.42911 0.0244512
1875.1 4.55154 0.0261442
1814.83 4.80979 0.0275797
1594.42 4.5282 0.0279657
1446.37 4.41977 0.0288582
1423.6 4.58755 0.031176
1342.09 4.80276 0.0325979
1260.31 4.75244 0.0337249
1148.54 4.6092 0.0345823
1159.7 4.97167 0.0384956
1096.83 4.91824 0.0392041
991.664 4.71951 0.0395914
928.802 4.69896 0.0409014
918.378 4.85059 0.0438644
896.01 5.00839 0.0473847
834.969 4.99687 0.0490508
822.928 5.07069 0.0505493
745.527 4.91668 0.0517472
728.63 5.1171 0.0556644
714.147 5.24036 0.0589549
681.744 5.28608 0.0610456
639.524 5.10831 0.0625907
638.697 5.32832 0.0668174
608.891 5.28937 0.0688805
591.429 5.33956 0.0707928
573.374 5.36562 0.0742877
555.744 5.47991 0.0775276
544.593 5.59516 0.0813851
527.784 5.75556 0.0858827
511.325 5.7413 0.0898854
500.113 5.83315 0.0944723
471.452 5.71567 0.0961109
447.543 5.64714 0.0968727
453.694 5.95203 0.104531
427.768 5.90441 0.107883
434.32 6.16351 0.114557
417.253 6.00682 0.114477
413.943 6.18181 0.122135
405.191 6.35583 0.129319
390.371 6.31677 0.13342
386.134 6.47554 0.13769
381.743 6.60321 0.147389
367.244 6.5107 0.147847
347.532 6.53433 0.153464
359.1 6.69567 0.158744
342.941 6.80944 0.165917
333.984 6.69372 0.169292
318.394 6.61234 0.172153
327.042 6.91762 0.183362
317.988 6.962 0.187987
313.099 7.13476 0.199012
317.321 7.3401 0.211241
310.449 7.33478 0.214413
307.37 7.51334 0.223317
308.665 7.64699 0.233642
288.857 7.52562 0.236439
284.256 7.65876 0.248267
285.925 7.853 0.255795
284.326 8.01136 0.269316
283.274 8.06235 0.277411
272.406 8.09238 0.285181
262.589 7.87523 0.282591
257.345 8.08747 0.301348
258.529 8.27536 0.309577
261.936 8.37667 0.320769
259.131 8.69813 0.341211
243.958 8.33748 0.332337
247.204 8.55534 0.349307
239.401 8.44279 0.3524
243.112 8.85539 0.374737
226.002 8.4174 0.365522
230.99 8.93544 0.394106
231.277 9.09265 0.411523
219.913 8.85222 0.406809
224.473 9.25362 0.434501
219.122 9.14228 0.439596
228.626 9.68051 0.472255
217.972 9.28846 0.463259
221.011 9.66896 0.487514
210.266 9.40126 0.489023
209.362 9.62709 0.508593
203.118 9.5437 0.513608
202.202 9.87159 0.539607
198.863 9.7277 0.544385
199.189 9.92767 0.563532
199.413 10.2082 0.586663
190.43 9.88483 0.579221
193.107 10.062 0.601412
193.759 10.4927 0.638069
189.38 10.3548 0.641483
188.856 10.6274 0.671285
187.901 10.6932 0.684085
180.725 10.6939 0.697561
192.059 11.4042 0.753755
182.814 11.0211 0.739099
171.856 10.5538 0.722055
175.26 10.8413 0.754934
178.49 11.4229 0.807392
178.653 11.5492 0.826488
174.492 11.3515 0.823997
173.353 11.4519 0.846812
176.367 11.8561 0.897476
168.539 11.5578 0.878149
162.479 11.3814 0.88295
167.045 11.82 0.92659
161.327 11.55 0.926918
156.092 11.6136 0.943101
160.84 11.8359 0.97554
159.266 12.1839 1.01631
155.979 12.0318 1.02803
153.226 12.1585 1.04565
156.977 12.4228 1.08013
151.685 12.2424 1.08035
152.719 12.4872 1.12516
146.54 12.1606 1.11483
149.28 12.564 1.15838
147.86 12.5826 1.18152
150.549 13.1088 1.24161
145.655 12.8324 1.23042
143.754 12.7854 1.24937
141.004 12.6765 1.24918
141.479 13.0542 1.31771
138.753 12.8473 1.2992
140.673 13.461 1.39395
135.453 12.8471 1.33935
134.182 12.9526 1.3692
135.598 13.299 1.42833
133.922 13.4014 1.45688
133.424 13.3893 1.4722
135.857 13.8592 1.54829
133.008 13.6735 1.53597
135.638 14.3963 1.64978
128.576 13.6138 1.57827
127.606 13.7433 1.59651
128.017 13.9959 1.6508
127.37 14.0201 1.69316
126.64 14.298 1.7419
118.674 13.4478 1.66818
123.318 14.3359 1.79054
125.098 14.5485 1.83062
122.165 14.4344 1.85113
120.877 14.3279 1.85333
124.292 14.9157 1.96064
118.705 14.5535 1.92447
121.723 14.9934 2.00803
117.914 14.9518 2.0229
119.813 14.9718 2.05263
119.405 15.1497 2.10412
114.287 14.7378 2.06884
117.214 15.5064 2.21272
117.452 15.6019 2.23317
115.392 15.5408 2.25135
116.236 15.8314 2.33782
113.455 15.8742 2.36614
113.999 15.784 2.3653
115.646 16.4333 2.4791
110.315 15.9113 2.43977
110.36 15.6054 2.4082
106.514 15.5339 2.44306
110.232 16.2161 2.56451
106.687 15.7875 2.54323
108.048 16.2224 2.61903
105.354 16.1916 2.64922
107.77 16.5944 2.73096
109.974 16.9866 2.85199
109.346 17.2276 2.88802
106.219 16.6777 2.83486
101.669 16.4613 2.83226
103.249 16.8053 2.94361
104.727 17.1567 3.00583
105.055 17.2697 3.06384
99.8684 16.7724 3.01235
103.833 17.4561 3.12625
99.3516 16.8602 3.08048
100.669 17.4938 3.24355
99.1111 17.0635 3.18713
97.8082 17.4007 3.30258
96.8482 17.0238 3.22439
98.3355 17.6871 3.41678
93.1274 16.7943 3.26014
96.195 17.7986 3.48398
95.3435 17.7781 3.508
96.8104 17.9332 3.59657
95.6053 17.9635 3.60522
92.058 17.616 3.57395
91.0363 17.8795 3.67741
92.4203 17.9009 3.69991
90.0656 17.5804 3.68279
91.3929 17.9929 3.79725
92.5151 18.3966 3.91199
87.8209 17.6004 3.80646
90.8843 18.6666 4.05234
88.2253 17.9775 3.90627
86.4399 18.0589 4.00375
86.4795 18.1257 4.04176
86.5239 18.3204 4.11623
87.3619 18.5919 4.23037
84.1936 18.149 4.19298
88.8849 19.1657 4.39941
84.8141 18.5287 4.31145
85.8803 19.2076 4.53321
87.5593 19.5418 4.61682
82.4086 18.4902 4.41466
84.7458 19.1023 4.59138
82.2765 19.0658 4.64052
84.8313 19.4359 4.73503
79.8999 18.6885 4.62891
83.5391 19.7618 4.94718
81.2767 19.1699 4.82938
81.9814 19.5112 4.94692
77.3935 18.5337 4.74301
82.3304 20.1105 5.17889
78.3951 19.0823 4.94086
77.3143 19.1807 5.04784
79.4481 19.7601 5.21721
79.8849 20.1301 5.37363
79.3454 20.0872 5.36905
76.7293 19.6548 5.32227
74.897 19.4841 5.33704
74.7044 19.4586 5.36251
75.4352 19.7795 5.46815
75.2443 20.0657 5.61885
74.207 19.8906 5.63759
72.5096 19.4811 5.54585
74.8515 20.3305 5.83794
73.7744 20.2461 5.84389
73.9652 20.5439 5.97499
75.5759 20.6157 6.03387
73.9354 20.7243 6.1417
73.342 20.4855 6.08031
72.1397 20.5753 6.15888
72.075 20.7674 6.28421
70.7497 20.2151 6.13751
71.8544 21.0019 6.4535
69.6857 20.3915 6.29645
68.6361 20.5341 6.44183
68.4109 20.2917 6.39545
69.6968 21.1266 6.71372
71.4048 21.4525 6.82991
67.7085 20.5406 6.57124
69.4531 21.1984 6.84022
65.0852 20.1216 6.58551
68.2099 21.1818 6.95268
64.7469 20.3492 6.72449
67.2602 21.195 7.09859
66.7759 21.0617 7.0299
63.8923 20.1924 6.87672
67.1421 21.3817 7.19734
64.4209 21.3298 7.34026
65.9659 21.2237 7.31021
64.2111 21.1821 7.41952
63.9528 21.3128 7.49008
61.8325 21.0142 7.48549
63.0816 20.736 7.29048
60.1671 20.6367 7.42498
63.2298 21.4947 7.6786
61.413 21.1122 7.62201
59.2175 20.855 7.69293
63.1576 22.018 8.10955
62.9371 21.8507 8.02804
58.6182 20.7736 7.7359
60.1524 21.4524 8.08895
58.8912 20.9269 7.88234
59.7514 21.3436 8.09247
59.0334 21.323 8.11456
56.6633 20.9234 8.12887
58.2921 21.2922 8.23236
57.5991 21.3839 8.32129
57.3386 21.5626 8.45732
58.9939 21.8825 8.60333
56.7323 21.622 8.69364
54.3582 20.9115 8.42275
55.9808 21.5039 8.67729
56.4203 21.6463 8.7543
54.3724 21.257 8.65356
55.9752 22.0569 9.07523
54.2127 21.5337 8.99882
55.8116 22.0538 9.15295
52.6733 21.1897 8.9255
53.8251 21.5639 9.08596
55.2781 22.1782 9.29026
51.6934 21.3582 9.23228
53.3825 21.7122 9.27314
52.8775 21.7276 9.48809
52.9517 21.5019 9.26137
52.318 21.8755 9.61032
52.158 21.7807 9.5955
50.8412 21.6141 9.66329
51.5358 21.9514 9.76133
50.3556 21.5784 9.76584
52.6775 22.426 10.1317
50.4278 22.0427 9.98847
51.6864 22.6549 10.4019
50.4475 22.2431 10.2271
50.4933 22.1528 10.2943
49.9856 22.1026 10.2034
49.557 22.0341 10.4146
49.5932 22.1727 10.3873
47.5829 21.7639 10.4374
49.5362 22.4087 10.6705
47.8115 21.8647 10.4989
50.1982 22.7451 10.8355
48.3292 22.3969 10.8606
47.9746 22.6739 11.1965
48.9018 22.7031 11.0383
46.6117 22.3612 11.1071
46.4625 21.9751 10.9719
46.1464 21.8296 10.9397
47.3399 22.5732 11.3035
45.8833 22.106 11.3063
47.0743 22.4947 11.3504
45.7998 22.494 11.601
47.9526 23.708 12.1572
45.8927 22.3382 11.5385
46.7201 23.2204 12.0196
44.7624 22.4688 11.8296
47.3191 23.8205 12.5122
45.0648 22.5919 11.9594
45.2161 22.7967 12.1202
45.4528 23.3769 12.4488
42.8384 21.8809 11.8287
43.336 22.1964 12.0209
45.3449 23.4843 12.7507
44.1881 22.8113 12.4208
43.1734 22.8026 12.6272
43.3361 22.9173 12.8206
42.8591 22.5147 12.4185
42.4208 22.8809 12.8412
42.9398 23.048 13.0374
42.9507 23.2777 13.1577
41.8603 22.4732 12.7404
40.5147 22.2118 12.7879
42.1254 23.2684 13.283
42.5138 23.1591 13.2573
40.1176 22.3663 13.1227
41.6648 23.1962 13.5528
41.1228 23.101 13.5566
40.9745 22.9771 13.4593
40.8759 23.1497 13.7371
40.8623 22.9278 13.548
40.6033 23.0322 13.8787
40.1459 22.9099 13.7041
39.8615 23.1524 14.0585
39.7067 22.9839 13.9824
37.9229 22.2354 13.7107
39.1916 22.7763 13.9271
38.7235 22.8948 14.2275
39.6423 23.385 14.5158
38.9976 23.1729 14.422
38.5844 23.108 14.438
38.937 23.4369 14.8201
38.2261 23.3373 14.8872
38.6597 23.1454 14.6271
37.8916 23.0048 14.8389
37.24 22.5851 14.5906
37.2588 23.0447 14.8693
37.9212 23.6738 15.3209
37.3559 22.9649 15.0011
36.9015 22.8818 14.9479
36.436 22.9702 15.0984
35.4895 22.6607 15.0684
35.9786 22.6706 15.1502
36.2066 23.1547 15.6612
37.5021 24.18 16.058
36.2149 23.4861 15.9463
35.7875 22.9532 15.6787
36.3742 23.7574 16.2875
36.1716 23.7016 16.1572
33.666 21.9258 15.1915
35.4699 23.3677 16.0487
33.618 22.4997 15.7612
35.4623 23.2748 16.1182
35.1026 23.4388 16.2424
35.4029 23.8817 16.7647
33.7084 22.6521 15.9901
32.954 22.7655 16.2366
32.6724 22.3138 16.1174
34.46 23.6266 16.9592
33.5585 23.0023 16.4341
32.1005 22.4651 16.3621
32.1904 22.1963 16.2171
33.9326 24.0063 17.7034
33.1174 23.2093 16.9399
33.2629 23.3257 17.2165
33.1965 23.8174 17.8434
33.1128 23.4101 17.4377
31.8232 22.401 16.6424
31.2276 22.3513 16.7852
30.6532 22.1515 16.9035
31.1158 22.2471 16.7782
31.4426 23.1365 17.6383
30.998 22.7079 17.3503
30.4048 22.4783 17.4376
31.3989 22.8835 17.5755
30.6994 22.5002 17.2508
30.5713 23.3702 18.5423
32.6187 24.0632 18.8758
30.6837 23.3725 18.5342
32.0384 24.0286 18.691
31.2233 23.6556 18.8175
30.9285 23.2577 18.4912
30.6752 23.1449 18.5403
29.7518 22.6435 18.1106
29.1971 22.8416 18.6327
30.8618 23.9945 19.4466
29.9701 23.4231 18.9325
30.0006 23.2875 18.945
28.9816 22.8037 18.7818
29.3425 23.098 19.0418
28.7703 22.6381 18.7852
28.8224 22.7602 18.7907
27.9349 22.7399 19.1446
28.5453 22.7751 19.2113
28.3566 22.6069 18.9957
27.9024 22.186 18.496
26.7266 21.621 18.3929
27.3085 22.6681 19.5647
28.1579 23.118 19.8456
27.9254 22.575 19.2629
27.28 22.4212 19.5292
27.4952 23.0522 20.1489
27.465 22.5174 19.5113
27.3139 22.6223 19.5791
26.8534 22.7403 20.0826
27.6062 23.1763 20.4268
27.0167 22.7243 20.1237
26.9292 22.7976 20.1949
27.2849 23.3595 20.7967
27.0332 22.9044 20.2827
26.7421 22.9996 20.7282
25.4789 22.1803 20.3137
25.9556 22.364 20.2403
25.3598 22.1573 20.3054
25.8433 22.3204 20.158
24.9144 22.1665 20.507
25.1832 22.0665 20.4249
25.275 22.3973 20.8152
25.2827 22.5981 21.1499
25.9734 22.8825 21.1926
24.9075 22.2143 20.8623
24.9721 22.4473 21.1549
25.3032 22.8517 21.5046
24.6689 22.492 21.5205
25.0294 22.7399 21.6071
25.0991 22.6619 21.4721
23.8216 22.1799 21.6733
24.5874 22.45 21.4578
24.4136 22.6956 22.0726
24.293 22.4229 21.5393
23.3167 22.1059 22.0547
24.8484 22.8537 22.1554
23.8571 22.3284 21.9655
24.1807 22.6794 22.2022
23.8399 22.4099 22.2211
24.501 23.0908 22.7335
22.6928 21.7867 21.6745
23.4123 22.6542 22.9333
24.2995 23.2479 23.3563
23.9656 23.2423 23.3023
23.7921 23.1234 23.3093
23.5976 23.1769 24.1165
23.9493 22.8765 23.1491
23.9522 23.3188 24.1155
24.145 23.33 23.5501
23.5086 23.288 24.0639
23.3944 22.9219 23.5009
23.1763 23.6755 24.8477
23.5088 23.3191 24.2038
22.8845 22.8824 24.1208
23.3605 23.1908 24.0343
21.8133 21.7839 23.0278
22.6354 22.8059 24.1313
21.6655 21.9272 23.5531
22.3233 23.017 24.8684
22.4085 22.2538 23.6407
22.2528 22.511 24.0993
22.2897 22.6538 24.1156
22.2333 23.1245 24.7416
20.902 21.8142 24.033
21.1574 21.5101 23.283
21.6367 22.2201 23.9401
21.5021 22.5857 24.7696
21.1355 22.1921 24.3946
20.9507 22.3054 24.8884
21.306 22.1122 24.6308
21.362 22.8173 25.3119
21.4262 22.8233 25.6493
21.2163 22.4229 24.9126
21.3596 23.0751 26.1464
21.3217 22.8936 25.8336
20.4412 21.8949 24.6526
21.2293 22.9869 25.8013
20.1613 22.1942 25.5469
20.7604 22.2546 25.5505
20.7546 22.8274 26.0796
20.2446 22.1525 25.3598
20.237 22.5571 26.1838
20.145 22.0664 25.4208
19.6526 22.0376 25.7984
20.5234 22.6745 26.1272
19.9882 22.7305 27.0115
19.8421 22.0845 25.9316
19.8204 22.1755 26.154
19.2644 21.7091 25.5211
19.3662 22.2356 26.7302
19.6584 22.1945 26.2901
18.9018 21.4688 25.8586
19.4317 22.4006 27.106
19.6459 22.4068 27.217
19.9313 22.7037 27.1765
19.3629 22.5467 27.267
19.119 22.1425 27.1652
19.757 22.4521 26.6479
17.957 21.499 26.842
18.647 21.5961 26.7686
19.1145 22.4019 27.4734
18.5341 21.5694 26.8707
18.8155 22.0672 27.1586
18.6552 21.7976 27.0474
18.57 22.0108 27.4495
18.3713 21.7984 27.4542
19.0781 22.4447 27.8233
18.5991 22.4278 28.2435
18.2024 21.6693 27.3464
18.2377 21.8864 27.7103
18.3135 22.1483 28.0877
18.3682 22.3438 28.2297
17.5162 21.0704 27.0272
17.9146 21.8365 27.7093
17.0149 20.8959 27.3453
17.9061 22.297 28.9529
17.4675 21.3717 27.7958
17.1303 20.8386 27.0727
17.0333 20.8446 26.8942
17.1315 21.6406 28.5365
17.7774 21.991 28.7981
16.9054 21.4448 28.3257
17.6762 22.166 29.1571
16.9684 21.4242 28.7369
17.5215 22.0574 29.0542
16.8713 21.7498 29.1604
17.169 21.6787 28.9465
17.1321 21.9122 29.0641
16.7149 21.3469 29.1814
16.766 21.3226 28.5292
16.6567 21.4974 28.9468
17.3542 22.6505 30.5831
16.568 21.6689 29.9848
17.2552 21.9656 29.3763
16.3506 21.4878 29.2095
16.5911 22.1619 30.7664
16.5105 21.7198 30.2226
16.5607 21.4341 29.7494
16.9873 22.4696 30.7034
15.9135 21.2755 30.1694
16.3963 21.5141 29.6814
16.2382 21.8016 30.9281
16.4664 21.9743 30.7704
16.102 21.5092 30.4278
16.1757 21.5144 30.3111
15.6051 20.6453 29.0925
16.1227 21.8325 30.9646
15.8286 21.4849 30.6391
15.8498 21.5539 30.7803
16.1993 21.9514 31.0208
15.158 21.1218 30.8869
15.2291 20.5781 30.0287
15.8014 21.3496 30.4763
15.0653 20.9588 30.6975
15.5102 21.4327 31.0961
14.8283 20.2254 29.3554
14.8609 20.5643 30.1249
14.9009 20.6936 30.678
14.9697 20.6703 29.817
14.8329 21.1191 31.2234
14.4985 20.2551 30.1772
14.5449 20.4294 30.2788
14.7458 20.4343 30.3319
14.7568 21.5124 31.8034
14.4665 20.6833 31.3833
14.6749 20.4307 30.4795
14.6299 20.8379 31.0911
14.3317 20.5695 31.3149
14.5578 20.896 31.4876
14.3447 20.3447 30.9249
14.4629 20.6898 31.4743
14.3737 20.2794 30.5746
13.9887 20.4245 30.9862
13.5436 19.742 30.4862
14.3049 21.2682 32.6967
13.6451 19.716 29.802
13.2164 19.6114 30.4438
13.372 19.7224 30.2348
13.5724 20.3735 31.9507
13.8798 20.503 31.6995
13.525 19.8897 31.305
13.4333 19.8632 31.085
13.4318 19.9092 31.1481
13.6061 20.4056 32.224
13.691 20.4731 32.0873
13.1833 20.2574 32.3381
13.2984 20.4654 32.7173
13.5388 20.3915 32.5358
13.6912 20.7832 33.1935
13.4065 20.3622 32.7022
13.4211 20.4574 32.6647
13.3336 20.2099 31.9656
12.7956 19.9867 33.2404
13.2351 20.3059 32.9504
13.2254 20.4322 33.3121
13.1797 20.1558 32.579
13.1134 20.3916 33.1818
13.3458 20.9471 34.5699
13.1777 20.0141 32.6876
12.8861 20.3894 33.644
12.658 19.861 33.8642
13.597 20.6213 33.1891
12.5329 20.1622 33.859
13.3547 20.9779 34.9181
13.2732 20.6525 33.8991
12.9702 20.4247 33.7283
12.4893 20.4568 35.2085
13.3722 21.0415 35.1111
12.9147 20.1911 33.3036
12.4926 20.1983 34.5738
12.5845 19.9729 33.4716
12.404 20.1475 34.1622
12.5495 20.457 35.0352
12.8202 20.8702 35.4232
13.0422 21.074 35.6764
12.6532 20.4374 35.1907
13.0024 20.9161 35.3302
12.2901 20.09 34.9491
12.3106 19.668 33.5928
12.2115 20.2842 34.9392
12.0368 19.8208 34.7463
12.09 19.9742 34.7812
11.9564 19.7096 34.28
11.8153 19.6593 34.7286
12.11 19.6392 34.0853
11.7694 19.7368 34.927
12.1755 20.2511 35.5292
12.1273 20.1229 35.3011
12.016 19.9862 35.2642
11.7821 19.7666 35.4178
12.1256 20.7045 36.4448
11.853 20.0175 35.7582
11.6018 19.6727 35.2301
11.5395 19.5453 34.828
11.5643 19.6238 34.7599
11.5648 19.8535 35.659
11.2083 19.1021 34.6853
11.2993 19.5635 35.8619
11.4922 19.5603 35.5772
11.2627 19.24 34.9934
11.3239 19.519 35.4945
11.0902 19.261 35.3614
11.0109 18.8263 34.6633
11.1395 18.9611 34.0543
11.1722 19.8087 36.0314
10.9354 19.2629 35.7556
11.0755 19.0739 34.8464
10.8459 19.3358 36.1518
11.225 19.6047 36.0384
10.4661 18.2887 34.6769
10.9215 19.2755 36.1873
10.9548 18.861 35.0282
10.7649 19.0875 35.8174
10.7246 19.3948 36.3994
10.5749 18.8815 36.2142
10.8805 19.0406 35.7194
10.6843 19.0555 36.0821
10.8529 19.468 36.7779
10.574 18.8065 35.5408
10.5572 19.1577 35.8883
10.3866 18.9076 36.2088
10.2802 18.7383 36.5374
10.452 18.602 35.1704
10.4734 19.1467 36.8993
10.5939 19.2285 36.7589
10.4526 19.2479 37.3957
10.643 19.4698 37.3858
10.3739 18.9872 36.0971
10.0938 19.0623 37.4837
10.3949 18.7519 36.0503
10.1002 18.6077 36.4526
10.3751 19.105 37.071
10.0548 19.145 38.6364
10.4638 19.1306 37.2373
10.5043 19.5419 38.0757
9.80833 18.121 36.3933
10.1114 18.9004 37.6169
10.0121 18.777 37.7019
10.4006 19.358 37.6107
9.55691 18.1185 36.6728
10.0283 18.9421 37.9702
10.0392 18.816 37.4862
9.8122 18.4519 37.2376
10.0016 18.9131 38.4499
10.2998 19.3503 38.7369
10.0033 18.9655 37.5531
9.76387 18.5577 37.7126
9.9902 19.3045 39.2366
9.95327 19.0305 38.3727
9.8318 18.5334 37.4927
9.59505 18.4663 37.7176
9.88026 19.3078 39.5607
9.82683 18.8063 38.5712
9.76568 18.9674 38.9274
9.49162 18.1447 36.8853
9.48534 18.8464 39.1315
9.52145 18.5855 39.1201
9.78096 19.2808 39.7613
9.57312 18.3126 37.6078
9.35143 18.2376 37.9207
9.48769 18.2916 37.3417
8.95266 17.8263 37.4859
9.13383 18.1438 38.0549
9.05901 17.6343 37.308
9.09879 17.7956 37.0981
9.14896 17.8759 36.778
8.8245 18.0259 38.1418
8.96126 18.2154 39.352
9.2707 18.292 38.1658
8.82319 17.8377 38.1264
8.80172 17.5598 38.2674
9.31168 18.438 38.3073
8.78609 17.7466 38.5408
9.27193 18.6811 39.6052
9.05648 17.7243 36.8628
8.62014 17.813 38.6802
9.03278 18.2651 38.703
8.70823 17.8415 38.6829
8.99584 18.4974 39.2273
8.48936 17.4818 38.8652
8.67533 17.9503 39.3933
8.80486 17.7598 39.1916
8.92903 18.0626 38.0792
8.41105 17.6358 38.6882
8.51874 17.3566 37.8824
8.42616 17.593 38.8936
8.55352 17.8087 39.5321
8.57479 17.523 38.7165
8.70578 17.8944 38.2218
8.40025 17.7601 39.7099
8.56799 17.9171 39.1006
8.42922 17.9394 40.1363
8.39539 17.6497 39.5268
8.51852 17.6947 39.524
8.37065 17.3894 38.5123
8.27071 17.4187 39.0179
8.27059 17.4484 38.9015
8.21122 17.2324 39.1404
8.23631 16.972 38.1319
8.48786 18.1775 40.1154
8.25085 17.6404 39.8284
8.46433 18.2466 41.7199
8.5478 17.7349 39.4983
8.15522 18.1354 41.6917
8.1784 17.2624 39.6911
8.30596 17.5882 39.9399
8.26935 17.4377 38.9792
8.10668 17.8663 40.8871
8.06188 17.5552 40.7339
8.14913 17.8221 41.5629
8.10797 17.4441 40.631
8.20004 17.3277 39.5176
7.97171 17.4414 40.0265
7.98319 17.6543 41.3927
8.1486 17.5155 39.605
7.76952 17.3048 41.338
8.13986 17.5478 40.7188
8.01225 17.3016 40.744
8.08256 17.5789 40.5758
7.63445 16.9372 40.1839
7.87933 17.1884 40.6249
8.01142 17.7093 40.9609
7.94017 17.4113 41.0508
8.13313 18.092 42.1629
7.90054 17.1709 40.2796
7.66026 17.027 40.1464
7.8008 17.4136 41.2009
7.69708 17.1916 40.3658
7.78919 17.5866 41.6719
7.50233 16.8674 41.142
7.90151 17.6695 41.5127
7.61445 16.9434 40.0372
7.53385 17.4391 42.6494
7.71956 17.0582 40.8565
7.77823 17.7176 42.1549
7.54547 16.8909 40.8588
7.57811 17.2048 41.394
7.48583 17.0318 41.3203
7.54659 17.1283 40.9248
7.44838 17.3251 42.1989
7.71679 17.8184 42.9186
7.58186 17.5364 42.8
7.37871 16.5869 40.9822
7.51272 17.2947 42.5898
7.61673 17.2821 42.7589
7.54348 16.9285 41.3402
7.29834 16.5984 40.6555
7.42928 17.1561 41.226
7.30456 17.1326 41.3415
