# pn-170911/RbIIR-45-RbIIF-1280-1959.psd
# Power spectrum* (dif=0,1,2) (really just |FT|^2)
# NOTE: only the first half! (symmetric)
# weeks: 1280-1959
# 1534 clock-days, 1006 excluded
# PSD: 1441
1064.69 0.377234 0.0446281
42264.7 0.686633 0.0815038
243619 6.80221 0.0739102
27011.1 1.02167 0.0760903
115351 10.1367 0.0791333
10021.1 0.969307 0.0781572
11449.3 2.2635 0.0766142
5497.23 1.09319 0.0743505
13802.4 4.30283 0.0762774
3566.14 1.05166 0.0789416
10825.5 5.18236 0.0760876
2597.24 1.2852 0.0758541
7139.92 4.75286 0.0747509
2095.89 1.41454 0.0777047
5083.54 4.5887 0.079336
1908.64 1.70409 0.0787076
3875.82 4.6347 0.0794301
1485.8 1.87603 0.0771684
3968.06 5.83341 0.0832895
1515.21 2.31653 0.0773886
3869.05 7.31206 0.0912352
1396.27 2.73727 0.0806888
3017.93 6.71059 0.0884052
1273.04 2.96266 0.0842059
3075.2 8.15643 0.0952258
1225.15 3.47918 0.0873967
3034.67 9.52904 0.102552
1200.15 3.86188 0.089505
2904.34 10.5861 0.110956
1146.54 4.38422 0.0896419
2073.36 8.54958 0.111533
1099.63 4.86514 0.0988261
2337.31 11.0865 0.130439
1117.57 5.59864 0.102169
2194.6 11.945 0.130447
1153.1 6.38629 0.1134
2376.65 14.5809 0.151542
1059.37 6.63677 0.117068
1967.84 13.4012 0.167063
1017.04 7.11274 0.128251
1763.04 13.1361 0.179538
1006.41 7.73 0.131859
1858.75 15.3879 0.204897
952.312 8.06949 0.146084
1741.6 15.7877 0.219406
910.138 8.60199 0.155008
1828.83 18.1264 0.267104
962.762 9.747 0.174422
1449.94 15.6609 0.236298
911.685 10.0854 0.194624
1534.63 18.073 0.298658
838.724 9.95818 0.198336
1460.41 18.55 0.324639
906.919 11.8065 0.235725
1324.01 18.2553 0.317174
848.461 11.8756 0.250425
1312.87 19.2736 0.36735
855.699 12.9247 0.283503
1295.43 20.2906 0.395609
781.639 12.4406 0.279523
1232.23 20.7745 0.422804
782.962 13.4257 0.306289
1092.08 19.7101 0.429632
775.79 14.0854 0.337606
1036.54 20.0654 0.454055
783.705 15.4363 0.388617
1046.63 21.5197 0.500927
738.995 15.3369 0.401437
1062.18 22.8195 0.565203
727.663 15.9839 0.42887
980.514 22.6105 0.598934
688.957 16.2097 0.456444
951.199 23.0622 0.627039
656.41 16.1065 0.485409
924.947 23.8215 0.682643
662.054 17.1552 0.543303
874.34 23.6897 0.717422
631.299 17.2216 0.552942
830.997 23.7332 0.754536
631.443 18.4258 0.608861
745.517 22.6873 0.751135
638.292 19.5254 0.682216
775.894 24.7423 0.862108
590.5 18.8844 0.673473
761.085 25.5165 0.924399
592.811 19.9893 0.762994
721.636 25.1565 0.943862
560.346 19.7208 0.770304
708.06 25.9629 1.02058
566.138 20.8945 0.848433
660.217 25.4816 1.05069
550.16 21.0648 0.891836
682.306 27.1728 1.13794
487.763 19.6723 0.859246
654.249 27.1356 1.21727
517.408 21.4061 0.966534
638.002 27.8603 1.30186
499.914 21.5384 1.00718
583.01 26.3903 1.26595
483.228 21.6561 1.06878
597.291 28.0746 1.38501
463.977 21.743 1.10226
538.304 26.3722 1.38097
469.314 23.0191 1.23866
516.174 26.1392 1.40527
443.668 22.6239 1.23998
503.92 26.6579 1.51714
430.658 22.6062 1.27028
500.508 27.4135 1.57419
441.741 24.2979 1.43623
487.74 27.7321 1.64762
407.662 22.8832 1.38609
466.996 27.8509 1.72906
403.939 23.9658 1.49976
467.487 28.4788 1.83853
384.567 23.5434 1.52641
453.973 29.003 1.89196
366.156 23.1021 1.56605
405.776 26.5979 1.82122
369.658 24.3298 1.69407
411.918 27.345 1.93136
372.985 25.1867 1.82079
401.504 28.015 2.03055
365.179 25.5969 1.88902
370.199 26.6858 1.98507
334.474 24.2948 1.85646
390.301 29.0767 2.23056
338.404 25.1026 1.97189
373.152 28.6354 2.27371
319.03 24.3668 1.97228
349.119 27.7377 2.27472
345.119 27.4605 2.28333
354.533 28.8945 2.4602
302.143 24.5865 2.10275
340.697 28.7556 2.50662
325.921 27.3384 2.41457
326.427 27.9699 2.46964
304.629 25.9999 2.38272
305.299 27.2917 2.54082
285.038 25.5555 2.37936
325.422 30.0675 2.83534
285.057 26.1441 2.50959
313.808 29.6282 2.89018
281.796 26.6059 2.62782
309.767 29.7892 2.95231
268.889 26.1891 2.65741
295.216 29.5282 3.02185
267.743 26.3647 2.75679
279.389 28.9371 3.07011
280.301 28.3359 3.00819
282.382 29.4424 3.14366
261.88 27.006 2.95331
257.855 28.0325 3.11955
256.701 27.6917 3.11766
261.135 28.9762 3.28551
247.684 27.1236 3.13487
259.153 29.5179 3.4631
239.925 26.932 3.15678
251.703 29.5829 3.52261
245.923 28.9667 3.5058
248.869 29.515 3.60068
238.293 28.4807 3.51445
240.041 29.3806 3.6851
236.317 29.3213 3.71465
231.483 28.9555 3.74536
223.446 27.6384 3.56313
225.725 29.169 3.86384
224.821 28.5682 3.78019
220.314 28.9627 3.89814
214.702 28.3218 3.83152
229.449 30.9637 4.29857
210.565 28.3667 3.92231
211.182 28.9533 4.10411
213.734 29.3564 4.09503
194.701 27.6814 4.03027
200.574 28.4453 4.11503
204.987 29.5418 4.35344
195.847 28.3334 4.20661
199.051 29.6027 4.47435
190.086 28.0155 4.2198
189.012 28.6944 4.41926
196.156 29.3392 4.56014
194.734 29.9327 4.70591
198.862 30.4919 4.81769
203.359 31.6438 4.95544
190.807 30.0232 4.8984
188.974 30.3577 4.94905
184.886 29.8882 4.91853
187.918 30.6642 5.1589
180.325 29.526 4.95403
187.157 30.9116 5.25936
174.444 29.2185 5.04271
199.181 33.916 5.88139
175.606 29.5611 5.1871
177.427 30.9635 5.5267
172.988 29.7619 5.27835
171.949 30.3197 5.47247
168.328 30.2829 5.53604
171.845 31.4469 5.86226
165.181 29.9106 5.61216
160.378 29.5033 5.53491
163.706 30.2731 5.69538
162.044 31.046 5.99448
155.64 29.4043 5.68008
163.697 31.568 6.20906
162.335 31.3314 6.19657
163.128 31.6163 6.30351
165.62 32.4765 6.53734
157.993 31.8694 6.52535
160.8 32.1267 6.54341
154.698 31.4457 6.51106
156.966 32.329 6.78411
146.794 30.6213 6.54946
148.879 30.5775 6.40814
143.757 30.6129 6.63973
146.774 31.2972 6.73909
139.642 30.0346 6.56378
137.707 29.942 6.60385
141.714 31.4052 7.08124
130.19 28.5439 6.38248
141.122 31.8064 7.19705
145.09 32.4995 7.30899
137.593 31.7131 7.43257
144.55 32.7896 7.54704
135.182 31.4885 7.49111
136.595 31.8693 7.45815
136.648 31.9282 7.65021
138.176 32.5476 7.67719
131.882 31.7188 7.81996
134.633 32.1998 7.85493
129.58 31.7252 7.88645
129.413 31.7677 7.93845
126.829 31.5629 7.98253
132.322 32.7854 8.23435
122.27 31.0736 8.02971
125.347 31.5694 8.05057
126.073 32.4884 8.40054
124.974 31.8565 8.26155
125.49 32.8899 8.75662
123.604 32.0478 8.51398
124.181 33.4845 9.05891
119.833 31.9875 8.71542
121.986 32.3484 8.77662
120.893 32.9961 9.09315
122.301 33.653 9.31625
118.911 32.2984 8.95778
117.579 32.7454 9.29106
117.283 32.5971 9.22243
114.949 32.6588 9.41788
116.547 33.0913 9.463
111.423 31.9037 9.26684
114.468 32.9443 9.58544
106.406 31.2868 9.35857
115.159 33.799 10.0098
108.798 31.9193 9.56312
108.81 32.3497 9.74232
107.998 32.438 9.92452
111.473 33.6079 10.2719
110.722 34.0465 10.502
109.37 33.5644 10.4044
105.85 32.9864 10.3908
111.021 34.3439 10.7118
108.277 34.1414 10.936
102.624 32.5489 10.4617
105.711 33.9792 10.9665
103.712 33.2659 10.8614
105.49 34.0318 11.1676
101.697 32.711 10.716
104.314 34.5436 11.5647
100.619 33.3046 11.1618
97.5709 32.9212 11.2987
101.074 33.4174 11.2104
106.305 36.1587 12.3781
98.7326 33.8252 11.7954
99.6632 34.1012 11.8164
100.209 34.9554 12.2235
97.8731 33.9694 11.9677
98.1955 34.8321 12.4234
94.1781 32.5677 11.5261
96.0047 34.0041 12.1356
92.3761 33.1797 11.981
97.8116 34.969 12.6322
97.5593 35.6827 13.1412
95.2439 34.6102 12.8588
98.658 36.351 13.5199
89.8925 33.5258 12.7422
92.4909 34.5275 13.1785
91.7618 33.939 12.9266
113.244 42.5354 15.9761
92.6704 34.9824 13.4806
91.7863 35.3405 13.7203
92.6177 35.5649 13.7552
85.0789 33.1279 13.0868
90.545 35.3955 13.9631
90.4778 35.0796 13.9121
87.9884 34.9127 13.8319
88.7743 35.7981 14.5769
92.185 37.0973 14.9507
86.2435 34.402 14.0173
83.7588 33.6714 13.9296
83.6141 34.3396 14.3561
86.6521 35.3382 14.6706
84.4504 34.9956 14.8028
85.0705 34.951 14.7825
82.3902 34.5609 14.6611
85.5417 35.9697 15.2262
77.99 33.8502 14.8736
80.3813 34.0539 14.7367
84.1731 35.7226 15.5292
83.9579 35.9721 15.6322
77.6515 33.8559 15.071
81.0937 35.0532 15.4175
77.3446 34.0358 15.1906
78.3696 34.4601 15.3819
77.414 34.2559 15.5065
80.5873 36.0272 16.2558
78.4235 35.7415 16.4176
77.9241 35.1375 16.2027
78.8147 36.2276 16.867
81.932 37.2113 16.9116
72.9352 33.7822 15.9789
77.0604 35.942 16.9952
75.0063 35.2796 16.7782
75.245 35.3174 16.8473
72.4053 34.6255 16.7514
77.4442 36.9385 17.8006
78.0974 36.7081 17.7724
75.613 36.1751 17.387
76.4902 37.8951 18.8948
73.784 35.8898 17.7203
70.2677 34.3612 17.0755
76.1221 37.3912 18.6773
70.792 34.8229 17.5016
73.7847 36.7812 18.4562
72.5983 36.3089 18.4312
72.6986 36.5505 18.5625
69.7082 35.5296 18.4834
70.7379 35.8799 18.3718
69.4425 35.8834 18.8169
66.9753 34.4897 18.1514
68.2899 34.9715 18.1941
66.4725 35.3855 18.9511
69.9037 35.9752 18.8186
68.9627 36.5455 19.5692
66.2904 35.3876 19.2691
67.7134 36.2442 19.6418
67.2827 35.6792 19.3768
67.4411 36.4722 20.0517
63.8872 34.9434 19.4134
66.0877 36.0465 19.9839
64.3757 34.8719 19.5993
65.6989 35.6458 19.69
66.7002 36.8969 20.5385
65.8676 37.376 21.3339
67.1661 37.509 21.445
66.1176 36.9978 21.1293
64.2198 35.8226 20.513
64.9108 36.9545 21.0835
62.1943 35.8454 21.1135
63.1166 36.0026 20.9876
66.6683 38.3416 22.3316
59.1977 34.2959 20.3831
64.1163 37.4095 22.0181
57.8391 34.3563 20.6449
62.6726 36.6875 21.8149
60.9109 36.2178 21.7861
60.0349 35.7328 21.7311
61.0077 36.8362 22.743
60.3209 36.1689 22.1603
60.622 36.4254 22.1994
57.7539 35.1292 21.8667
60.3585 37.0783 22.9556
58.5136 35.575 22.1524
61.2465 37.3845 23.2258
58.9768 36.6919 23.0676
60.0739 37.5946 23.9168
57.8483 36.2813 23.3731
59.741 37.2598 23.8872
56.399 35.0811 22.5022
58.4292 36.4131 23.0362
58.1878 37.8418 24.8306
56.2728 36.464 23.8892
56.7238 36.0656 23.6414
57.3672 37.6701 25.5465
77.9928 50.0413 31.2659
58.5024 39.3255 26.5692
59.875 39.5961 26.7406
55.7802 36.2804 24.1536
55.6061 36.7749 24.7529
55.3643 36.9775 25.0131
55.575 36.9414 25.3232
55.0708 37.0006 25.3898
57.9181 38.4423 26.0188
52.7748 36.2165 25.2946
55.0773 37.7711 26.062
53.7946 37.0719 25.912
53.0267 36.1178 25.1025
52.2341 36.1879 25.4459
51.3081 35.8865 25.5128
52.9238 37.5837 26.9881
52.4672 36.7734 26.2722
52.2251 36.3992 25.7604
53.0717 37.747 26.9718
50.6609 36.2042 26.3355
51.0594 37.1086 27.2811
49.6779 35.4145 25.5885
49.7217 36.4419 26.9826
50.0206 36.6376 27.2791
49.6678 36.1436 26.7452
47.8543 35.9532 27.0379
47.5949 34.6209 25.7505
48.825 36.6735 27.8835
48.964 36.1509 27.1455
48.9946 36.9843 28.4378
51.3649 38.4512 29.0216
46.4062 34.6514 26.6492
50.4013 38.3963 29.6302
48.4406 36.9049 28.9883
50.3139 37.9483 29.0156
49.0963 38.4029 30.0905
47.5442 36.7585 28.9015
47.3669 36.2257 28.0698
46.5171 36.7601 29.3056
48.3393 37.6341 29.6185
47.154 37.3421 29.9781
46.5065 36.835 29.7132
46.6611 36.7056 29.4854
47.8488 38.0048 30.2886
44.0855 35.2756 28.8608
46.7575 37.5933 30.5569
45.9547 37.1831 30.1692
44.573 35.3771 28.6201
43.496 35.867 29.922
44.5074 36.4832 30.2811
44.0522 36.2063 30.5861
45.8953 37.736 31.5749
44.0191 35.7463 29.6301
45.2419 37.3652 31.0077
43.4287 36.3989 30.6138
43.9086 38.1894 32.8232
43.78 36.4964 31.1804
42.8801 35.9737 30.7679
44.6596 38.0466 32.7012
40.8756 34.5199 29.7566
41.6245 35.624 31.164
42.2586 36.6505 32.0886
42.6832 36.8179 32.4071
43.5972 37.546 32.8032
41.758 35.8525 31.5234
42.271 37.0234 32.8342
41.8266 36.1112 32.1379
40.2841 35.5557 31.6031
41.4017 37.2188 33.6703
41.6257 36.3252 32.4843
43.0925 38.2269 34.4048
41.5497 37.0572 33.3185
39.2517 34.5546 31.2357
41.5019 37.5724 34.3644
40.3576 36.2454 33.0437
40.0995 36.6708 33.9541
40.3688 37.0172 34.4742
42.3778 39.3956 36.5319
41.0014 37.9965 35.2275
38.6813 35.7769 33.6605
40.4031 37.7842 35.7527
39.7649 36.4543 33.857
39.4218 37.5355 35.7731
40.387 37.2342 34.8906
37.5953 35.9689 35.0821
39.4489 36.9079 35.3875
40.1052 37.6623 36.0728
39.4445 38.1336 37.482
39.2225 37.1509 35.5783
37.6692 36.5015 35.8711
38.1326 36.8311 36.5149
41.2157 39.8865 38.6805
38.1126 37.0049 36.5169
39.0695 37.6969 37.0572
36.1206 35.452 35.7267
37.5566 37.324 38.8067
48.3774 46.2946 43.6402
37.426 36.6302 36.7856
37.0008 37.0127 37.4196
37.6824 37.7743 38.2655
37.3974 37.0511 37.4613
36.115 36.4944 37.5181
36.0099 35.9041 36.8607
36.285 36.3843 36.8793
35.9205 36.8046 37.838
36.0476 36.7952 38.0339
34.8364 35.8197 38.0883
37.3538 38.3693 39.9708
34.3233 35.5899 37.542
36.4719 38.2204 40.4319
36.4688 37.3733 39.402
37.756 39.5503 41.5353
35.4515 36.4274 38.3602
36.5519 38.8558 41.2622
35.1968 36.569 38.8022
34.3927 36.9868 39.7394
33.7362 36.2686 39.8435
35.3464 37.6772 40.5776
35.5324 37.4931 39.9986
34.6762 37.2434 40.141
34.3479 36.8879 40.1596
34.5439 37.798 41.2507
32.1936 35.1379 39.6809
34.3663 36.9784 40.7051
34.5573 37.2125 40.1362
32.0562 35.796 40.7161
33.5245 36.3719 40.1873
32.3077 36.3314 41.8184
34.4986 37.6891 41.487
32.9441 36.7472 41.9885
35.2845 39.1758 43.8301
33.4032 37.2816 41.5746
31.7203 35.5508 40.4713
32.5949 36.5021 41.1897
31.0789 35.6036 41.249
31.5899 35.7449 41.4143
32.7664 37.1862 42.7693
32.9385 37.653 43.7137
31.4183 35.6218 41.5188
32.4518 37.4149 43.7339
33.3059 38.0794 43.5537
31.0981 36.919 44.3724
31.071 35.6511 42.4285
31.6241 35.9282 42.2686
30.2509 35.4326 42.6298
32.7887 38.3759 44.7132
31.1799 36.7255 44.6056
31.7461 36.6197 43.4805
30.7244 35.9276 43.0613
30.9125 36.5433 43.9776
30.7681 36.3172 43.8397
29.9471 36.4676 45.5191
31.9085 37.1357 44.233
31.5379 38.6221 47.3472
30.9946 37.2324 45.4665
29.578 35.2924 43.0906
28.6619 34.8407 43.6807
30.0016 36.0793 44.0582
29.0817 35.8594 44.5301
29.7437 36.5038 45.8723
29.8557 36.2395 44.8303
28.0591 34.9381 44.4823
30.0542 37.0277 46.0236
28.7471 35.3436 44.6433
29.1139 36.4304 46.1016
28.0191 35.0302 45.0427
29.5127 36.6677 45.6664
27.4887 35.515 46.493
27.7513 34.7188 44.5807
28.2536 35.9061 46.2105
27.8675 35.0559 45.8092
27.9357 34.8704 44.8875
28.9792 37.234 48.2857
28.6376 36.5299 47.3006
28.1881 36.79 48.8518
28.2224 36.7095 48.6316
27.4618 34.2491 44.8184
28.13 36.7311 48.6458
29.7139 37.4704 47.7729
27.7641 37.0506 49.5964
27.4216 35.8431 47.8584
26.9081 35.3318 47.6452
27.6638 36.3314 48.6879
27.8048 36.5751 48.7019
27.8896 36.6416 49.1166
26.3271 35.0644 47.4353
27.5684 36.7744 50.3177
26.6826 35.4101 48.2372
26.4851 34.1561 46.6019
25.7985 35.3724 48.8666
27.3406 36.6339 51.8715
26.6461 34.9393 49.8442
34.1259 44.3412 55.8634
25.2582 35.204 50.1343
26.4817 34.9929 48.39
26.8724 36.5529 50.4614
26.6151 35.7077 49.4208
25.0636 34.5056 48.4209
24.9506 34.2206 47.6215
23.9447 33.5663 47.674
24.5483 34.157 49.1378
26.4894 36.8412 52.1683
25.6718 35.137 48.9011
25.2026 36.1199 52.8033
26.1333 35.6585 50.2538
26.292 36.9358 52.343
24.9014 34.7694 49.7453
25.0798 36.1167 51.6225
24.1465 34.5381 50.5345
24.1936 34.338 49.8009
24.1981 34.9118 50.6692
22.8141 32.901 49.2254
24.7816 35.1522 51.4496
25.613 37.3562 54.9129
23.6377 33.9596 50.3151
24.0572 34.6005 50.9636
24.2507 34.4149 49.5134
22.8335 34.4923 52.4105
23.3125 34.084 51.126
22.7068 33.6025 51.3046
24.0282 34.8139 52.3293
23.8698 35.2257 53.348
24.8231 36.2356 53.9187
23.0481 34.3396 52.7208
23.0899 33.2255 50.096
23.5648 35.0309 52.603
22.1399 32.9984 50.3213
22.7403 34.782 54.4251
23.7477 34.5093 51.4421
22.2635 34.1832 52.8042
22.5339 33.6132 50.8851
21.0655 32.0566 50.3265
22.5968 34.7834 54.1288
22.4537 33.8778 51.9122
21.816 32.9917 51.1957
21.966 34.2816 54.0588
20.9388 31.1781 48.7477
21.5835 33.3367 52.2336
21.8583 33.7271 52.0525
21.1143 33.4742 53.588
21.7913 33.4874 52.5788
21.8224 34.8054 55.5086
22.1833 34.7046 55.3533
21.493 33.7678 54.3396
21.5876 33.3494 52.8755
21.0983 33.637 55.0314
21.067 32.7719 52.6059
21.5359 33.9324 54.5702
21.2889 33.266 52.5232
20.1245 32.4771 54.0338
21.045 33.6857 54.5016
20.4962 33.0894 55.1635
20.996 33.3525 54.2066
20.0036 31.599 51.973
20.5743 33.2742 54.4794
20.553 33.6689 55.2141
20.5388 34.2098 56.764
20.8397 33.5902 55.3454
19.1782 30.8224 52.1726
20.7049 33.7926 55.5461
20.6748 34.0751 56.2464
20.9008 34.7561 58.195
19.9632 32.6405 54.7234
19.1472 32.1876 55.481
20.4952 33.0894 54.7089
19.5561 32.1744 54.2762
18.9714 32.4562 56.0913
19.399 32.0778 55.2636
19.4994 32.0922 55.43
19.5467 31.7964 52.9064
19.3747 32.6413 55.6991
19.1178 32.5847 56.437
19.1901 32.0301 55.7044
20.0349 33.7978 57.9272
19.3995 32.6609 55.9475
19.2296 33.6222 59.5097
20.0471 33.6006 58.1844
18.8109 31.8888 55.8106
18.8158 32.0096 56.2989
19.073 32.5785 57.5542
19.0162 32.2004 56.0927
18.6998 32.3796 56.4327
18.7015 32.5213 56.8833
18.6677 32.7669 58.3433
18.3254 32.0685 57.7482
18.3833 31.7073 56.011
17.3818 30.5849 55.1973
17.6372 31.7468 62.0603
22.7535 38.4119 62.4208
19.079 34.5293 61.3147
17.7272 30.6025 54.9412
18.2003 32.0215 57.6563
17.4918 31.1459 56.3882
17.9164 31.3395 56.5012
17.7656 32.0951 58.7193
17.6996 31.367 57.9297
18.7263 33.5902 60.2626
17.5651 31.2451 57.1941
17.3774 31.2668 57.6108
17.6238 31.6576 59.0755
18.249 32.7358 59.9753
17.9423 32.6863 60.0045
17.5092 31.1932 57.6385
17.5872 32.7537 61.8763
17.9446 31.7032 58.843
17.5573 32.1572 59.9745
18.0354 33.4829 61.4427
16.6779 30.5057 58.9231
17.7431 32.0761 59.6552
17.3243 32.5471 62.2847
17.5108 32.0019 59.8359
16.5707 30.0364 57.4973
17.1258 31.5765 60.1639
17.3003 31.8403 59.3244
16.9507 31.5265 59.2841
16.465 30.7274 59.3906
16.6989 31.0116 58.7423
15.9282 29.382 56.3591
16.7261 32.0573 61.9776
16.7437 31.0501 59.0173
16.3832 31.2928 60.476
16.5685 31.0349 58.753
15.6395 30.5007 60.5186
15.7663 28.9968 55.3734
15.5449 30.4257 60.5326
16.2467 30.7919 60.3162
16.066 30.3127 58.8377
15.9304 30.0619 57.9381
15.9029 30.994 60.6337
15.5377 30.6827 61.5872
15.7023 30.5743 61.576
16.3501 30.9096 61.067
16.21 31.2739 61.4808
15.9763 30.5412 59.1361
15.0752 29.3791 58.4833
15.757 31.2757 62.9899
15.9327 30.9588 61.0799
15.33 30.2337 62.104
16.3859 32.1523 62.3434
15.2336 30.8344 62.7226
15.0778 29.9525 62.1506
15.7981 30.2389 60.6179
14.7778 28.5717 57.4532
14.8535 29.2318 59.756
14.8744 29.4766 60.5691
15.3147 29.6867 59.9879
14.8109 29.7347 60.9476
15.5003 30.8961 62.7711
14.7021 29.3114 61.7629
15.8104 30.8521 61.6454
14.8612 29.9385 62.1896
14.8999 28.7639 56.7386
14.1044 29.5099 61.1842
14.5679 29.7566 61.5213
14.5703 29.9983 62.0859
14.4095 29.488 63.3788
15.0722 29.8613 61.1529
14.1948 29.0564 61.2663
15.1115 31.2099 64.2131
14.0939 28.8107 62.6371
14.9261 30.1772 61.7782
14.4697 30.2991 63.7143
14.0818 28.6373 61.1328
14.5988 30.1255 61.5295
13.0321 27.0238 59.2865
13.7313 28.6371 60.984
14.5305 31.1784 66.3698
14.1436 28.853 62.3935
13.9189 28.5962 61.2556
14.1387 29.1915 62.7242
13.7107 28.5841 62.084
14.5266 29.9181 63.8047
14.5321 30.7238 65.6699
14.0266 28.9926 61.3669
13.598 29.0785 63.1505
13.5151 28.2453 62.548
14.1245 29.6073 62.9479
13.5206 29.1149 63.7092
13.3378 28.5624 63.5622
14.1392 29.3912 61.2407
12.8308 28.0003 61.7316
13.1625 28.7202 62.8626
13.339 29.5306 66.3377
13.1255 28.353 69.2638
16.6366 34.3602 68.7108
13.1117 28.3196 63.6237
13.5352 29.7197 66.1464
13.5961 28.9277 65.5709
13.6952 28.7385 62.8192
12.9865 27.6047 61.6699
13.2986 29.0617 62.3618
12.4413 26.782 59.8482
12.492 27.2372 60.354
12.5557 27.8602 63.0125
12.9024 29.1207 65.3101
12.9991 28.1163 62.6721
12.6538 28.2859 66.1234
13.0273 27.7158 63.95
13.1089 28.3314 63.3064
12.5985 27.243 61.3976
12.2684 27.7064 63.2379
12.6863 27.23 60.9921
12.1582 27.7387 63.6234
12.6015 28.1997 64.0964
12.1535 26.659 62.6912
12.7321 27.9735 61.6566
11.7658 26.9033 61.5442
11.78 26.4209 62.4847
12.0074 26.9485 61.8722
11.9093 26.1844 60.7903
11.6951 27.2453 65.2031
12.606 27.522 64.1916
12.9973 29.2749 65.2723
11.7172 25.7908 60.3219
11.714 26.8054 61.8855
11.4689 26.2607 61.473
11.5021 26.6363 64.1688
12.2813 28.1614 65.408
11.9944 27.5842 64.288
11.8998 27.4088 64.2181
11.7152 26.8574 62.3738
11.3994 26.4406 61.9608
11.0385 25.6626 61.9951
11.735 27.2285 64.0409
11.3531 26.2909 62.0657
11.3304 27.4428 66.9253
11.4748 26.1324 62.4737
11.391 26.6225 63.2742
11.2877 26.4538 63.6847
11.1243 25.1329 59.9026
11.0933 27.4922 67.6218
11.3798 25.9046 63.3085
11.4271 26.6891 64.5361
11.5099 27.1866 64.3435
10.6892 25.0197 61.711
11.4434 26.8791 63.9538
10.8098 25.4892 62.6869
11.0814 26.2887 63.6294
10.9262 26.2318 64.0843
10.9999 26.1931 64.0983
10.9097 26.1743 64.5113
10.8051 25.2662 61.9625
10.3032 24.5336 61.6987
10.8509 26.1899 65.2231
10.7893 25.0784 62.3122
11.3202 26.2829 62.5873
