# pn-170911/RbIIR-48-USNO-1280-1959.psd
# Power spectrum* (dif=0,1,2) (really just |FT|^2)
# NOTE: only the first half! (symmetric)
# weeks: 1280-1959
# 6 clock-days, 0 excluded
# PSD: 1441
1299.22 0.0824856 0.0394226
10726.4 0.250301 0.0217162
96241.4 2.27603 0.0166039
9079.73 0.557935 0.0120914
58077.6 5.18189 0.0137303
6365.55 0.345094 0.0162349
8703.06 0.96109 0.0230959
2448.86 0.349267 0.0231734
944.75 0.255713 0.0182236
1749.61 0.4094 0.0156968
891.498 0.307055 0.014684
1307.63 0.628859 0.0179637
1302.46 0.733683 0.021121
521.63 0.156193 0.0175335
1110.18 1.01778 0.0140123
772.453 1.02093 0.0147657
458.199 0.562528 0.015662
587.524 0.636377 0.0212236
974.965 0.923366 0.020759
573.349 0.8218 0.0267618
325.415 0.387804 0.0178417
255.932 0.943072 0.0159972
270.266 0.362206 0.0150712
381.627 0.862153 0.0164286
223.694 0.56752 0.0273227
156.559 0.375792 0.0295985
247.871 0.558411 0.0175904
262.175 0.738093 0.0203101
459.979 1.64735 0.0188867
516.471 1.44908 0.0295651
403.089 1.1781 0.0266556
371.525 1.47726 0.0277885
441.743 1.8883 0.0293656
141.609 0.741755 0.0230608
304.388 1.5334 0.0235466
70.0567 0.541625 0.0195944
224.33 1.20715 0.0266279
414.849 2.67382 0.0405331
189.359 1.27199 0.0359151
206.455 1.48797 0.0236452
337.97 2.07869 0.0378064
264.273 1.8703 0.0276859
242.816 1.84633 0.0225189
308.803 2.95715 0.0335877
190.843 2.01861 0.0458168
258.885 2.34138 0.0565364
65.2516 0.55768 0.02091
228.569 2.37393 0.0319196
160.422 1.95928 0.0267644
521.786 6.54077 0.125107
336.112 3.85015 0.0570356
348.437 3.6738 0.0658281
77.6166 1.20198 0.0282022
298.043 3.45788 0.0735898
247.001 3.51012 0.074994
197.474 3.03934 0.0718864
193.969 2.4812 0.0510168
294.839 4.62349 0.0752227
64.6978 0.842388 0.051251
153.293 2.65602 0.0615417
103.87 1.34423 0.0389382
192.553 3.14189 0.0738059
141.409 2.856 0.102178
112.55 2.00344 0.100348
71.5096 1.97941 0.0391546
292.542 4.67195 0.102611
71.8752 1.15628 0.0283344
253.143 5.78033 0.164531
173.755 3.14833 0.125542
252.879 6.1266 0.15344
89.9525 2.09195 0.0526778
196.435 5.20982 0.120475
198.422 5.35116 0.159874
104.386 3.27379 0.101099
100.889 2.29163 0.107596
120.136 2.5532 0.138267
164.039 3.9798 0.140917
139.75 4.45399 0.108989
79.8014 2.45984 0.084167
114.548 2.56945 0.0507655
271.029 8.92966 0.227248
72.6949 2.16167 0.0751727
168.623 5.81362 0.221648
199.123 7.22484 0.307554
105.504 3.91004 0.160622
312.649 10.229 0.331196
402.789 14.8057 0.565615
257.949 8.77133 0.273881
84.9968 3.41961 0.093759
129.865 3.93449 0.156968
65.7561 2.49134 0.116662
452.747 16.3938 0.609111
139.349 4.04888 0.216182
179.083 6.23 0.219336
168.528 6.83403 0.386915
106.336 3.99118 0.242564
233.791 9.62754 0.389373
219.247 8.97894 0.422036
96.5055 4.87553 0.195558
157.481 7.8824 0.367668
203.252 9.63129 0.474528
246.354 11.4082 0.565502
133.187 5.59661 0.269267
216.29 9.0523 0.593322
222.412 12.291 0.629912
117.191 5.9009 0.295244
72.6982 3.63465 0.240764
159.922 8.08736 0.402649
207.421 11.6851 0.684808
181.148 11.3245 0.6545
109.498 5.1039 0.370198
176.521 8.16072 0.621739
145.39 7.78199 0.51656
48.3571 2.58102 0.177338
148.032 8.40329 0.55961
155.119 9.06931 0.547352
177.045 10.4037 0.757806
147.435 9.7821 0.584121
73.1036 4.93557 0.407393
92.1279 6.20088 0.392532
185.521 11.6426 0.785619
116.416 9.51022 0.721101
115.718 5.32138 0.356642
126.109 8.90883 0.676061
83.3678 5.45963 0.463198
121.63 9.50728 0.826435
111.381 8.66489 0.735777
106.341 7.67116 0.565538
76.4518 6.82345 0.593061
101.369 6.50623 0.522458
76.4966 6.55979 0.418461
141.957 10.3928 0.894135
169.058 14.2644 1.14692
91.9044 7.16883 0.641349
93.4946 7.59049 0.6991
120.105 11.2158 1.07321
111.78 11.1951 0.959804
94.4536 10.2544 1.16867
102.137 8.73263 0.834039
79.5342 7.12849 0.833444
165.039 15.7808 1.44186
154.411 13.0321 1.06559
149.671 14.4701 1.29395
47.1701 4.79126 0.516271
110.911 10.6178 1.18935
65.6234 7.76536 0.845354
95.2271 9.39771 0.810409
67.1185 6.60319 0.833533
185.819 16.8278 1.77593
71.6564 7.97035 0.907484
127.796 13.5463 1.38757
98.0067 12.0722 1.43089
44.1808 3.99661 0.455175
78.636 9.50933 1.08336
65.7764 6.06718 0.905009
90.1083 9.61558 1.25311
93.5932 9.78523 0.986791
183.881 19.8931 2.13365
102.639 12.8461 1.69203
129.388 12.6016 1.24689
94.6836 11.9276 1.55483
127.213 16.0828 2.10593
64.5421 8.08248 0.808967
74.6529 8.60282 1.1778
75.3712 11.1681 1.49626
120.243 15.0914 1.72802
83.5988 12.0252 1.60271
117.552 17.0164 2.17149
77.0726 10.7413 1.41758
131.155 17.4039 2.2378
99.5545 12.3564 1.78412
69.5766 9.77666 1.30169
124.701 14.6537 1.87853
96.4064 17.6374 2.54865
109.295 12.5801 1.69967
86.0183 12.3973 1.93117
70.1546 8.98636 1.5939
75.111 10.6567 1.35333
126.781 15.5163 2.26714
53.4418 8.1939 1.43733
131.811 19.1487 3.02311
194.604 31.7993 5.31884
121.32 18.2512 2.7209
78.9509 10.7174 1.62702
147.509 23.7991 3.85552
67.7346 10.8842 2.13694
88.3776 12.7229 2.02321
152.285 21.7934 3.64406
38.4474 6.46629 1.20775
74.7224 12.2716 2.16073
117.534 19.8917 3.6044
87.3616 14.5383 2.09978
98.9845 21.0511 3.86557
83.5645 16.318 2.7968
105.399 17.3062 3.18136
78.9856 17.5525 3.45809
101.608 15.7942 2.68784
51.655 10.6376 2.22868
39.2095 5.76643 1.11606
40.3574 7.51728 1.55546
20.6975 2.80539 0.501571
34.1452 5.7398 1.0547
76.5563 14.0819 3.10811
64.2444 11.776 2.44553
56.8799 11.6901 2.56485
120.897 21.7998 4.50141
41.5937 6.30875 0.88553
63.8954 14.2165 2.54465
75.657 16.2712 3.26743
63.9213 11.9752 2.39141
59.0474 11.201 2.3296
53.5858 10.7922 2.12792
80.0641 14.2774 3.06946
58.242 9.62747 1.65683
45.483 8.26534 1.99535
68.7106 13.641 2.74523
99.0198 22.5045 5.40257
75.5831 14.9906 3.28104
104.888 22.9243 4.67842
69.8656 14.4528 3.59398
75.4961 16.7668 3.75198
24.0474 5.5667 1.52674
72.0253 16.3438 3.48297
26.8734 8.51751 2.02838
36.9884 13.0013 3.95467
56.1074 9.07981 2.08504
88.1322 21.3256 5.31059
78.5035 13.3948 2.66181
77.7346 17.3353 3.94102
89.2729 22.2356 5.7186
50.6517 11.599 2.56815
56.3441 15.124 3.53395
83.5892 21.5166 5.52202
59.0991 19.0974 6.21043
97.7102 20.2098 4.50807
64.9034 14.9446 4.14074
20.2237 5.32947 1.73181
73.51 17.7638 4.30374
86.4361 24.1788 6.7071
57.5958 13.8441 3.30295
105.967 24.2472 5.90212
110.779 28.4608 7.42308
22.4859 7.22721 2.2462
70.9775 16.9954 4.49584
55.1902 16.8606 4.32185
29.5239 5.96689 1.47173
81.0141 20.8884 5.17303
43.9867 11.2614 2.73631
67.4621 19.6767 5.72264
20.3766 4.3434 1.37891
91.4004 27.3508 8.22743
55.9261 15.1637 4.2039
33.7847 12.7341 4.31398
60.7969 18.0292 5.34235
22.9226 5.61456 1.70939
38.4038 12.897 3.87045
79.3481 22.5313 6.83887
63.5329 18.3439 5.52057
60.2878 18.4162 5.50886
43.6266 14.81 4.51654
83.8743 27.6031 8.78712
73.0594 25.4256 8.93183
54.638 14.9967 4.52431
103.996 29.2149 8.96418
16.3128 5.7377 2.4369
25.6669 7.35482 1.98971
65.3394 23.172 7.3435
33.9531 10.2296 3.40921
82.095 24.4958 7.77513
40.6009 10.4255 2.8086
44.0821 14.8754 4.66731
68.9604 26.4285 10.7971
67.1837 24.088 7.81032
56.0409 17.4524 6.10393
35.9274 10.155 3.20283
63.8525 21.6905 7.29236
39.3051 12.2417 3.97054
83.7912 31.7709 12.3738
96.7047 34.6642 12.4362
37.1252 11.598 4.81625
47.3031 19.0773 7.15466
37.0644 13.6469 5.13217
41.4891 10.9273 3.63159
96.9096 37.2113 13.0211
51.4479 18.1315 6.49612
29.0203 10.2652 3.86623
46.1767 17.7794 6.77104
44.4845 16.2744 5.61543
66.7274 24.8351 8.62723
65.2544 25.3694 9.99977
27.8385 11.6709 4.66356
54.1094 18.6604 6.72313
66.2927 24.3785 9.18593
44.2316 23.077 10.695
91.3094 35.716 13.2809
38.5822 16.0394 7.35803
62.6215 21.6339 7.90769
49.5466 20.0443 8.55981
24.4568 8.78667 3.69706
59.7617 25.5308 11.241
48.1664 25.0377 11.6155
65.585 23.8055 8.60508
33.017 14.0576 6.74846
78.7102 33.7901 14.671
37.0798 12.1826 4.83615
30.4539 15.0286 7.15712
74.1051 30.0527 13.2529
46.9173 14.7468 5.76104
54.901 22.6922 9.39332
20.1533 10.7585 6.62847
57.3965 23.2616 8.68752
21.1827 7.57611 3.66078
77.7647 37.9295 17.232
19.7774 6.90555 3.20274
20.8628 10.1323 4.91934
38.0299 16.5593 6.95856
21.4894 11.9949 6.39433
34.233 16.1721 7.04044
77.6157 40.3113 21.0947
44.2535 15.4233 6.44709
41.2769 20.1192 9.65856
45.4569 17.3785 6.43296
14.8536 7.10497 3.65587
38.9222 18.6932 9.30884
29.0307 14.1609 8.38436
42.3439 19.0088 8.37952
34.8057 14.0966 5.7445
36.5606 17.4573 8.20799
35.3468 19.7689 9.27367
28.0497 12.8643 6.37645
27.8644 14.7006 7.74799
29.0656 18.9089 12.2596
37.4778 11.0604 3.21855
36.4465 18.741 10.105
49.1319 22.4954 9.46831
37.0043 17.8691 8.65161
35.2154 17.7214 8.92889
35.1809 18.9095 11.9683
42.7238 17.2497 6.59921
51.5658 26.661 14.377
46.0143 26.3602 14.6943
32.5879 17.5593 10.1327
38.4046 15.3072 7.4941
23.4046 15.4878 10.5956
79.1337 36.7834 16.0488
18.2372 11.8275 7.69279
25.2898 12.39 6.66483
44.7344 23.7956 13.5684
25.9775 11.982 5.17447
27.5394 16.1308 8.85468
23.1816 15.1674 9.04139
25.7935 12.458 6.11744
9.45619 5.93143 3.59999
42.9832 24.5757 14.3727
27.0078 12.9432 6.54604
13.5167 7.31419 4.24376
15.4607 8.78825 5.1985
21.1942 12.9513 7.18963
38.5697 20.8154 11.8253
19.5393 9.90032 5.41365
57.9233 29.2191 13.5292
19.7599 13.8226 8.18151
89.2314 51.2398 26.8556
65.1583 41.2866 22.8818
126.995 107.667 79.7411
45.4202 14.8927 8.54144
54.8997 26.5537 12.4239
33.6217 21.2191 13.7485
18.7528 9.40635 8.02796
64.5121 33.6768 18.677
94.5611 57.1707 33.7043
50.9306 34.4054 22.9699
62.3774 33.9801 19.5061
37.3692 23.7434 14.397
140.58 117.553 95.5074
211.905 89.1814 33.4228
235.929 174.886 120.683
38.8318 22.6921 21.2537
92.3812 45.4814 18.0756
24.4606 17.6771 10.8059
37.7659 31.326 22.0347
34.0148 20.6029 14.4524
33.1136 19.8679 13.5955
20.3867 15.1901 13.1931
118.435 78.2475 42.8149
21.7849 13.2562 9.18892
30.6297 25.0385 17.7314
24.9858 12.4546 7.45116
44.4414 32.1542 22.1305
19.7292 15.6718 12.6134
29.5787 17.9497 11.5645
43.9864 27.8216 18.1413
37.029 25.456 17.5976
54.0443 36.1034 21.9329
43.8436 31.5209 20.4679
16.7592 12.932 9.44243
22.9268 18.3332 13.9183
31.5954 25.6169 20.5934
18.6367 7.95914 3.66495
22.3372 16.8003 11.3204
24.4505 20.0931 15.6627
41.6068 28.717 19.1651
25.2488 17.1119 12.8298
30.8171 24.0807 17.4706
30.1609 22.0843 14.0709
5.71803 9.25198 10.8192
19.985 10.408 6.49224
19.9979 14.1053 9.61245
9.55915 6.49863 4.90732
21.3673 16.5114 11.905
16.1092 13.2542 10.7574
11.2797 8.76755 6.33316
15.6517 12.3784 11.4748
23.503 18.639 14.9769
36.8542 22.2669 14.2095
34.7373 27.3494 20.9415
28.826 26.8306 27.0485
31.7993 20.9234 14.5172
28.249 17.6785 11.8552
21.9829 15.1305 10.8074
21.0008 16.9177 12.1104
55.6747 50.8494 42.1418
32.5221 21.8829 14.8299
14.9134 13.0917 13.0783
17.284 8.92562 5.5985
33.1324 27.6982 21.6559
9.32427 6.32532 6.88764
44.6849 35.74 28.8674
46.4778 32.8291 22.0149
56.4749 52.5587 42.4184
15.3757 19.6277 23.4289
23.2272 14.3429 12.529
29.8481 17.5421 10.6046
27.0293 23.5857 19.7463
19.2995 15.35 11.9921
17.176 10.9827 9.00475
13.1314 11.4269 10.8531
50.9972 42.3237 33.5808
21.7391 16.7257 13.9852
23.5189 19.5901 13.9992
15.6515 15.8769 16.5741
31.6182 30.7438 27.8244
13.3785 10.7888 11.5515
14.9495 10.3746 11.0807
29.0712 21.4796 17.0515
34.0193 25.616 16.9906
17.8688 21.1354 20.9399
9.35289 7.64314 7.45151
15.2672 13.1274 12.8097
30.9443 30.5527 29.5765
27.7177 19.9107 15.2045
21.6643 19.5272 15.4462
24.2792 28.6644 28.1796
13.1092 12.0406 14.1342
33.4 24.627 20.9162
44.1445 48.4277 63.9823
176.254 146.794 102.761
16.438 19.1728 22.126
31.2778 32.2052 29.7557
24.7341 24.3115 25.8337
26.9731 22.3913 22.8771
26.3976 20.3138 16.1966
32.5722 27.3958 23.08
23.7962 24.542 24.7548
17.0016 17.063 17.9685
27.6633 23.9191 21.8347
12.6179 12.1476 12.8897
6.09199 4.76723 7.24458
20.0353 13.3452 11.6282
33.2019 32.0119 25.2491
9.48623 9.93251 13.2253
28.3322 20.3157 15.2983
22.001 22.6449 23.3726
38.1685 33.8742 29.0973
31.5835 27.7353 26.5909
44.5668 42.4056 37.2279
22.9806 24.1095 26.0287
34.93 31.8642 27.3927
10.7845 14.7566 17.3987
12.4085 14.8025 18.9655
16.5954 17.5098 20.1695
21.2821 20.1255 19.6117
15.235 14.4641 16.122
26.532 26.4882 28.8044
18.9018 16.1058 12.6875
13.01 14.9968 18.9728
12.2307 14.1557 18.9932
27.5148 27.5331 28.9508
28.9682 27.6579 25.4881
31.384 35.9504 36.2087
27.1713 34.0477 41.2203
23.1196 19.9857 17.5144
16.8559 15.7432 19.3676
38.0857 38.1708 34.9119
6.69798 10.7351 22.5952
36.4811 30.6304 25.815
20.9196 17.2529 13.1512
36.8366 43.4346 45.137
15.9411 16.9338 18.1492
17.1889 19.7929 20.161
24.1452 28.4165 32.3204
18.2708 22.6232 30.2567
35.5272 33.3041 29.6042
10.7516 8.06993 10.9842
32.9795 33.7959 28.5699
24.8691 35.0125 41.6432
14.7389 23.4747 40.0701
30.1241 24.4401 16.6025
12.5285 12.2835 12.4251
13.7105 14.8 12.8804
13.4983 17.9977 19.9718
7.97881 10.0876 13.6601
6.25591 10.3414 17.7355
14.4815 11.121 9.51475
20.5977 24.0876 24.7092
14.8761 18.5454 23.5522
9.63812 7.35793 8.18565
14.8313 12.1569 10.2784
13.8015 18.4626 21.0367
17.9935 23.1982 28.8512
31.7584 36.6494 36.5704
15.6831 21.1181 28.3961
27.7898 27.0635 22.8911
10.5215 18.5973 31.7383
30.5506 27.6747 25.5412
24.2263 26.6308 24.7597
8.86178 11.8275 13.8222
7.17019 16.2908 28.3722
15.4415 12.5452 13.7157
17.8439 23.1988 27.979
17.5329 19.3324 21.4373
7.61347 7.76363 10.4669
17.1935 24.5607 29.5904
10.6959 15.3756 22.4312
18.9226 23.2774 35.3889
19.0542 16.9869 13.2497
29.8663 43.2253 56.7202
28.6812 28.0064 24.7931
20.1268 30.3322 43.6944
18.4869 21.462 28.0993
19.8526 17.576 14.3
4.85174 7.21964 10.831
10.8211 12.875 18.8382
19.868 21.3461 20.1287
12.4142 17.2433 23.6102
14.6084 17.2715 18.3522
13.7963 22.2533 29.0067
11.141 14.8135 18.4637
6.57454 11.8801 22.7335
17.135 17.4517 20.2167
10.2017 11.9681 14.6632
12.5042 19.549 33.1924
24.4416 25.5498 28.0261
14.5526 17.7348 25.8445
30.763 40.3991 50.1164
10.4798 11.8827 18.6603
20.5387 27.4972 36.8731
8.72816 12.2351 22.4879
15.267 19.3504 27.313
17.4702 25.5744 35.7043
14.6013 18.3343 28.8601
15.7729 12.6961 15.802
22.5089 25.6262 24.9277
8.47113 13.7638 20.9696
11.7746 11.3363 10.5178
10.326 16.2591 25.5717
25.4014 35.4808 44.0266
13.9855 18.0511 26.5602
8.4136 8.74643 13.67
14.3138 16.4553 16.7692
19.0853 29.543 42.0151
14.368 17.2376 20.4116
8.31061 10.6892 12.5715
12.1101 20.5399 26.5259
7.0859 6.33131 7.31218
6.51008 13.6369 22.8051
19.5288 26.0357 33.1167
17.3399 24.2921 32.1228
9.62631 10.1971 13.2407
9.12601 15.5062 23.7463
6.07906 10.86 19.5657
13.1723 14.1537 16.471
16.0682 27.5775 39.7703
10.1145 11.9634 18.1676
20.163 28.6815 35.2801
12.4022 17.9255 31.6398
16.0663 19.5591 20.7253
15.0479 20.2748 22.6942
8.98137 21.1825 39.4596
16.9996 21.454 30.5037
10.2567 9.65279 11.7309
14.1872 22.708 28.3505
6.42704 10.8343 20.798
18.1063 27.3712 39.0529
22.209 37.6317 54.2728
7.73213 14.476 36.1629
25.9474 33.1414 42.9427
8.83488 11.6285 22.8977
14.1308 19.6768 30.9317
8.89473 7.50662 11.5524
17.1675 25.0893 28.7862
11.4506 19.3019 25.8508
11.3621 17.8491 21.3936
10.8417 24.9325 44.0534
8.16051 9.94938 22.737
23.842 43.0672 62.9119
13.5394 17.5608 31.5795
16.6369 19.3272 26.0333
10.1544 16.2279 32.7936
14.0931 10.1758 6.81582
15.891 26.4058 37.6854
16.425 21.4978 26.3291
4.80931 7.91728 21.7616
26.4564 39.3189 47.6863
7.13922 10.9692 21.438
15.2141 21.3377 30.6323
15.5306 21.5478 30.7576
10.8325 13.6916 18.8281
9.00819 18.0873 32.2237
12.1438 23.8495 41.6522
4.64082 6.96246 17.0421
10.3008 17.0413 29.7159
8.94302 16.1938 36.2151
15.1588 18.8329 29.7518
20.4784 30.6547 44.7439
9.42619 15.212 30.6319
16.5877 19.0803 22.5413
16.9054 24.5628 27.2993
8.08857 14.7477 24.782
13.1183 25.4927 38.5435
11.3076 14.673 17.1924
8.51737 16.6158 29.9902
7.97564 16.1543 34.9057
19.6853 28.833 37.9228
11.7337 18.446 25.7884
3.91563 10.174 29.2401
15.4072 21.5458 31.8716
12.487 22.7685 40.8088
7.78074 8.74537 14.0537
7.60205 8.81588 7.85663
10.5791 23.9246 42.0286
7.42456 8.30201 11.7756
2.87198 7.28717 18.8772
6.73645 11.2557 21.9362
6.08067 6.25744 13.0957
12.1644 19.0488 31.0612
12.5065 20.6515 31.9105
13.1508 18.8997 24.2629
16.3464 31.7541 39.8969
6.12309 18.5273 45.2687
14.7448 21.4103 32.6433
11.5341 21.0119 37.5878
8.28647 15.5683 29.0129
8.27936 16.8039 40.8105
13.9038 14.2507 14.5907
9.0092 19.8903 39.013
9.19848 10.9084 18.4227
12.2716 19.2008 32.5255
10.885 15.2344 20.3833
7.52662 14.0208 28.0661
11.5618 19.3702 25.9964
9.52445 18.5614 33.2086
6.08501 10.5346 18.3766
5.29611 13.7221 38.1408
16.5723 23.7705 31.2588
5.72459 11.4378 23.1401
8.07825 15.3992 25.3064
8.35248 14.8309 23.9338
8.81323 20.8587 37.1152
7.24077 13.2347 29.0775
6.04971 8.6633 20.6534
8.66858 9.72191 18.1763
16.7693 34.7529 55.3734
7.29958 9.40018 16.857
7.04094 13.6854 23.9182
8.08181 12.9751 20.0417
5.80796 13.7513 27.8879
8.0233 15.2107 31.1088
8.04865 11.3051 17.8773
8.4095 19.1696 42.6716
12.8848 21.4097 39.4023
11.6764 12.5343 11.1717
13.2395 29.2452 47.3783
6.43136 11.7267 20.0035
7.26069 14.5474 25.2727
9.03079 19.4689 31.7188
1.01034 4.21324 20.9897
8.35518 10.8773 18.0525
9.92075 17.0161 22.2688
8.0826 20.6216 38.0765
4.92812 10.1834 23.6479
7.21638 13.1806 24.0056
3.0158 6.20084 26.5058
12.2195 19.0235 25.4788
7.89995 12.5796 12.4327
6.72173 19.0693 34.8539
8.42433 16.6515 25.0333
6.28009 23.0414 59.2047
15.0171 26.0219 51.6496
10.2103 14.4168 21.9204
4.01378 6.95175 11.2761
4.67799 11.8099 37.7452
15.2693 27.1958 38.2652
14.3334 37.5609 78.435
24.3833 75.9096 200.745
42.9617 46.6923 69.1604
51.9873 116.113 173.09
7.4032 8.60022 39.8419
17.0503 26.6116 33.9306
4.5115 17.0745 47.1664
13.7692 22.8117 40.4393
12.6171 29.0321 46.3807
4.75503 12.979 39.876
11.7665 17.4989 29.9972
10.9263 18.4321 30.0113
10.7517 26.3462 45.4264
4.53756 12.6471 34.5327
4.53642 6.88769 30.521
10.3062 16.0566 37.7035
16.3369 33.8822 61.6768
10.4711 17.6511 35.5555
8.45994 11.2198 19.5157
12.3931 30.1597 57.1697
10.3179 17.4698 30.4968
6.58993 11.3381 21.6009
6.19211 14.9636 31.8998
7.06942 16.4054 37.145
7.78621 12.8631 22.2622
5.4377 9.57689 22.251
5.85119 9.3781 19.0581
8.85062 19.3828 35.6842
7.10702 17.5558 45.3656
11.0358 18.6259 30.2268
8.48255 22.0444 47.0591
7.35919 11.0005 20.7556
4.22453 7.6441 15.3872
4.01381 13.3254 39.0192
8.76726 14.338 26.1987
5.45161 11.2633 26.2506
4.93268 11.7633 29.9224
6.87793 7.91899 21.6874
9.58144 15.9613 21.8565
7.47946 16.9583 22.8474
3.72003 14.9712 41.4871
9.82477 19.3501 41.0737
7.15098 14.8789 27.4311
6.87187 23.6755 72.5121
13.8072 15.4185 20.5151
6.51834 10.7159 14.4175
6.98752 22.0029 54.7479
8.57653 11.5542 23.999
7.12575 14.4681 31.9881
7.91352 10.7662 14.764
4.50714 8.75877 14.1857
4.38471 13.085 36.7561
11.1518 20.1935 26.0808
4.2404 13.5904 37.3548
7.88949 14.704 34.0143
9.59989 22.7573 38.5191
5.7455 13.2893 35.3207
8.49819 19.186 34.98
6.01493 15.8067 37.9179
6.18554 10.161 21.4466
6.03197 18.1519 46.4233
5.70207 9.49755 25.8341
9.39141 15.9559 30.0445
7.07111 13.8343 22.2181
4.155 16.6318 50.2773
10.4572 17.4645 33.2594
7.8594 15.6743 31.9945
11.6905 29.2224 53.4076
4.25852 8.94028 28.0724
4.93161 8.33063 15.0639
4.40059 9.67855 18.4826
3.67486 5.8713 14.3088
6.54687 14.4522 27.1618
4.11236 9.24936 20.8651
6.1798 15.1523 29.2427
3.22929 11.5424 43.6207
11.4963 24.9275 50.2341
7.65939 13.2411 33.6441
11.1214 23.5679 45.2393
11.3738 29.2127 50.7844
3.76105 8.45162 16.6869
3.31326 14.1411 48.4127
9.13488 18.0826 29.1024
2.18774 8.38126 38.0648
12.2156 25.0354 34.573
2.82125 11.9533 32.9814
3.83877 8.04515 22.0715
4.66607 12.7477 39.0961
5.78897 9.21492 25.4848
8.67479 16.8841 26.8829
3.64809 10.1477 29.3711
6.92523 20.6143 41.5088
1.75926 7.74384 35.8975
5.37884 11.8741 33.891
3.31581 2.89551 18.9581
7.40465 12.7832 20.7309
4.94584 17.4494 59.6701
10.6778 16.9824 28.9888
4.81352 11.4719 30.9708
5.70322 12.0562 30.3718
5.59437 6.57197 11.1961
5.9661 16.8193 37.4606
6.0459 11.7634 16.926
3.84788 13.7289 36.325
6.35215 17.4099 50.1782
6.51474 9.30622 16.7498
7.74894 20.3095 36.7908
3.81862 16.4095 45.48
4.12547 10.2493 34.1993
6.19585 12.0292 38.7097
9.22266 20.1527 45.9114
12.5774 33.3345 56.4165
5.81227 16.734 47.7464
6.95601 15.3669 39.415
6.82822 11.4056 14.8832
3.41993 13.5187 36.3772
7.10054 17.3138 44.6753
5.93752 10.8895 18.0415
2.68428 7.81339 21.8186
4.06975 7.19051 13.6335
2.48765 7.87589 21.0184
4.57491 12.7697 32.8545
4.53445 13.9009 34.6688
