# pn-170911/RbIIA-26-RbIIA-1280-1959.psd
# Power spectrum* (dif=0,1,2) (really just |FT|^2)
# NOTE: only the first half! (symmetric)
# weeks: 1280-1959
# 2789 clock-days, 933 excluded
# PSD: 1441
8946.18 0.236658 0.0152871
632448 11.5867 0.00767864
2.19893e+06 42.501 0.00838367
402701 13.7823 0.00807982
268840 17.0227 0.00897767
128395 10.532 0.00881563
91544.3 11.6613 0.0094005
59736.6 9.99426 0.00967352
47569 9.94882 0.0106867
36443.4 10.0271 0.0113893
29769.3 9.73083 0.0122475
24250.8 9.50526 0.0127177
19712.3 9.43156 0.0140667
17090.3 9.22306 0.0150649
14899.5 9.63549 0.0166799
12478 9.00828 0.0173251
11243.8 9.26777 0.0187879
9492.36 9.06521 0.0195575
8886.82 9.33012 0.0219909
7532.13 8.87243 0.0224294
7172.72 9.23049 0.0254202
6286.37 8.82256 0.0259654
5773.74 9.02802 0.0285641
5259.11 8.84531 0.0303256
4999.35 9.09547 0.0321191
4434.89 8.77355 0.0331592
4046.74 8.71749 0.0352576
3722.28 8.68749 0.0368007
3559.05 9.06955 0.0418206
3372.61 8.99781 0.0432724
3110.26 8.83066 0.0456531
2884.64 8.69742 0.0474003
2619.36 8.6512 0.0498008
2586.65 9.02766 0.0543832
2389.9 8.62266 0.055109
2248.33 8.92841 0.0597147
2115.88 8.85647 0.0617607
2033.21 8.86914 0.066274
1882.96 8.74036 0.0665767
1722.21 8.21243 0.0669345
1717.86 8.53166 0.0721098
1645.85 8.79299 0.0780985
1523.74 8.62565 0.0792807
1542.66 8.92648 0.0852856
1388.97 8.60784 0.086556
1352.34 8.63985 0.0907066
1320.3 8.99082 0.0978518
1241.56 8.79178 0.0995872
1198.5 8.87958 0.10501
1120.42 8.2991 0.102044
1055.62 8.45283 0.109252
1032.56 8.31004 0.109366
1018.43 8.69724 0.119411
977.317 8.57952 0.123106
937.559 8.60915 0.126849
897.516 8.60727 0.130849
851.763 8.65895 0.134298
812.456 8.36496 0.135887
776.823 8.14114 0.138047
792.611 8.8334 0.154462
762.361 8.72546 0.157219
744.086 8.80385 0.1638
686.33 8.35594 0.160424
692.018 8.60406 0.170785
658.93 8.55868 0.172823
633.319 8.61497 0.181881
620.547 8.45983 0.183846
594.102 8.56522 0.189991
571.849 8.28337 0.188676
576.054 8.86814 0.208749
555.02 8.36272 0.203414
533.951 8.44184 0.212086
531.894 8.76089 0.226371
495.663 8.44886 0.221233
483.518 8.34576 0.222873
499.241 8.84326 0.243221
475.149 8.5973 0.243646
451.545 8.60426 0.249255
450.99 8.53747 0.255487
432.926 8.33359 0.255338
430.868 8.85813 0.277334
404.604 8.36016 0.268179
406.356 8.72464 0.286755
403.84 8.86262 0.298047
389.747 8.8095 0.302686
375.512 8.45663 0.296881
366.33 8.61886 0.311701
356.537 8.4741 0.309957
352.589 8.64494 0.323312
328.899 8.26341 0.317095
330.456 8.53913 0.335644
337.141 8.86612 0.358294
319.136 8.2878 0.342555
317.835 8.77078 0.370519
302.032 8.39055 0.358467
301.889 8.77209 0.38523
297.443 8.49282 0.382872
299.198 8.88818 0.402567
279.157 8.72672 0.404875
282.248 8.77209 0.414134
267.225 8.48946 0.411407
264.684 8.59667 0.424137
256.74 8.42136 0.42219
260.039 8.64491 0.444991
251.131 8.65161 0.452601
243.773 8.32449 0.44215
237.247 8.29337 0.446751
236.681 8.65445 0.4756
234.753 8.6619 0.488074
231.558 8.74489 0.498481
219.481 8.45857 0.490333
215.448 8.22662 0.488778
217.516 8.68125 0.521196
209.128 8.47748 0.524367
210.863 8.70298 0.540199
205.775 8.5468 0.54541
200.859 8.48764 0.550523
198.227 8.55615 0.559216
191.13 8.43567 0.562901
191.966 8.56553 0.582323
192.661 8.69144 0.599145
187.02 8.53549 0.601479
181.284 8.54879 0.610999
180.022 8.6118 0.624367
175.609 8.34178 0.612733
172.698 8.46219 0.635344
170.655 8.18902 0.621532
170.849 8.51901 0.657772
161.875 8.32598 0.651563
167.028 8.54254 0.676047
160.69 8.38487 0.68218
161.076 8.44326 0.697923
156.897 8.78595 0.732958
152.599 8.34932 0.705035
152.384 8.67203 0.740217
153.869 8.61513 0.74941
144.952 8.42994 0.747387
145.852 8.53786 0.766593
142.032 8.32454 0.754804
136.159 8.39568 0.770388
141.744 8.69721 0.817902
136.691 8.94584 0.850015
130.669 8.41919 0.804516
132.526 8.51055 0.832143
124.575 8.04419 0.79314
130.471 8.56926 0.868584
131.294 8.85986 0.897501
124.277 8.19941 0.841199
125.897 8.4287 0.879579
117.808 8.21401 0.86932
123.458 8.75048 0.927596
115.082 8.21453 0.890662
117.412 8.37227 0.923649
118.181 8.72972 0.966598
114.687 8.55043 0.960547
114.977 8.69169 0.997091
116.34 8.82477 1.02005
110.34 8.67613 1.01053
112.316 8.72739 1.0367
109.183 8.78408 1.06483
109.427 8.71493 1.06062
107.431 8.70852 1.06641
103.169 8.44598 1.05552
104.032 8.63168 1.08336
100.218 8.56974 1.10095
101.7 8.51934 1.09131
100.1 8.58159 1.11751
99.3277 8.79452 1.17001
98.7742 8.81753 1.17878
93.0847 8.41471 1.13108
96.3867 8.82087 1.20812
95.4174 8.85533 1.22257
92.2965 8.66438 1.20596
90.1485 8.38556 1.19423
92.84 8.64438 1.23771
89.6438 8.53221 1.23785
88.9283 8.76644 1.28525
86.7674 8.60829 1.27546
89.4845 8.83006 1.32221
85.9859 8.70294 1.32119
87.4959 8.81767 1.34805
82.5058 8.15863 1.27068
84.0892 8.63339 1.35591
84.6447 8.92685 1.40956
80.4622 8.70218 1.39097
81.1583 8.73814 1.41455
79.642 8.49301 1.385
77.7184 8.64276 1.42346
76.9918 8.41938 1.39782
76.3631 8.49842 1.42283
76.9267 8.52732 1.45902
78.3509 8.82001 1.51026
72.9895 8.33791 1.45998
70.9896 8.12125 1.41687
73.0505 8.60573 1.53092
73.1293 8.80741 1.58587
71.9428 8.61192 1.55344
71.8881 8.92502 1.63456
73.2151 8.95103 1.65259
71.3071 8.67526 1.62128
67.905 8.51611 1.6108
67.4276 8.52501 1.61873
67.7534 8.43334 1.6191
66.3264 8.48315 1.64975
65.3281 8.55291 1.68205
65.7057 8.66507 1.70145
65.0242 8.66698 1.73168
66.7466 8.8645 1.77855
63.8929 8.63129 1.74561
63.4888 8.5363 1.7483
61.7907 8.70874 1.82628
63.1685 8.8161 1.85778
61.4891 8.63329 1.80855
61.5411 8.63017 1.83606
58.8726 8.37636 1.79771
58.4126 8.45296 1.84257
59.4201 8.62373 1.8962
58.1634 8.68813 1.92274
58.2976 8.66119 1.92773
59.218 8.60647 1.9467
58.1135 8.74627 1.98165
57.4473 8.57792 1.97928
58.6219 9.02605 2.08502
55.801 8.54707 1.98444
54.1653 8.4465 1.98441
55.3105 8.73554 2.07149
55.9781 8.84657 2.09395
53.5258 8.8141 2.1478
53.1239 8.52289 2.0789
53.4364 8.80044 2.13978
52.2384 8.79702 2.17286
51.6917 8.81287 2.19143
51.3977 8.48052 2.13269
50.48 8.63826 2.19548
51.7624 9.00647 2.31638
49.7169 8.40562 2.17955
51.4512 8.86021 2.28429
50.1707 8.70766 2.28608
49.8089 8.69342 2.29674
49.292 8.73201 2.31868
47.8579 8.70471 2.33333
48.6701 8.64498 2.36503
48.5697 8.86458 2.42571
47.96 8.74366 2.40097
47.5472 8.91321 2.47895
47.1983 8.89428 2.48934
46.5186 8.64656 2.44065
45.9646 8.73195 2.49458
45.1186 8.78413 2.51613
46.6316 8.78877 2.52773
44.0001 8.60149 2.51594
44.0433 8.31854 2.4417
45.2327 8.9034 2.61505
44.0956 8.68729 2.58559
44.8007 9.00591 2.70137
43.8531 8.75786 2.657
42.3944 8.39685 2.57167
43.1049 8.89308 2.73526
43.0416 9.04741 2.78327
43.3925 9.06859 2.82254
41.139 8.60301 2.73279
42.0305 8.95806 2.79728
40.0873 8.60478 2.75669
40.1016 8.55218 2.75728
40.3585 8.66499 2.79803
39.5894 8.44563 2.75457
40.885 8.92485 2.94026
40.1068 8.66827 2.84443
39.0598 8.82597 2.94138
38.4177 8.40563 2.81516
39.8453 8.91512 3.01211
36.6893 8.36353 2.84312
38.4145 8.71529 2.96423
38.3102 8.84696 3.06683
37.6326 8.6637 3.00603
38.1074 8.88687 3.11461
36.8831 8.91785 3.14944
36.0166 8.36391 2.99861
36.843 8.75577 3.11585
37.287 8.98679 3.21292
35.2625 8.34967 3.03261
35.5229 8.72505 3.21179
35.4907 8.6539 3.14772
35.8673 8.79167 3.23261
34.1276 8.40622 3.14596
35.1577 8.8158 3.32421
35.2166 8.94312 3.36814
35.3184 9.01297 3.43667
34.9447 8.93092 3.39268
34.8117 8.91881 3.42958
33.4279 8.91671 3.46916
33.3322 8.73547 3.45064
33.9578 8.91088 3.48485
33.2247 8.80363 3.47425
32.2412 8.52888 3.38863
32.4313 8.87826 3.56668
32.2175 8.73169 3.49426
31.6736 8.55639 3.51158
32.3922 9.12629 3.71562
31.1581 8.69133 3.59038
30.6636 8.62129 3.59063
31.6285 8.89316 3.66309
31.0118 8.66187 3.62514
31.9018 9.07692 3.86281
31.148 8.75555 3.68538
30.8689 8.87348 3.794
30.9612 8.91562 3.80297
30.7198 8.94188 3.88164
29.5855 8.78464 3.84366
29.4669 8.69892 3.82824
29.3332 8.78722 3.86317
29.468 8.70909 3.86406
30.4262 9.01234 4.00612
29.0648 8.79135 3.95294
29.5709 9.0729 4.10745
28.5746 8.94286 4.07754
29.2294 9.09591 4.17822
28.0996 8.74018 4.04482
27.1682 8.26702 3.86844
28.022 8.64611 4.01533
28.1256 8.87728 4.15817
27.8253 8.8545 4.15526
29.1277 9.01287 4.21611
27.9919 8.75762 4.19709
27.5964 8.77699 4.22005
27.4395 8.77253 4.20537
27.2626 8.99223 4.3839
26.3661 8.63163 4.24462
27.2231 8.85968 4.35957
26.9355 9.11462 4.48396
25.7423 8.49914 4.29118
26.4924 8.75838 4.35572
26.015 8.65198 4.37934
26.059 8.77999 4.43637
25.8333 8.85225 4.48252
26.0029 8.95128 4.61093
25.8827 9.15746 4.68077
25.607 8.88821 4.60008
25.9029 9.09764 4.68443
24.9625 8.75696 4.60523
24.8205 8.67027 4.61163
25.0441 8.674 4.64851
23.9991 8.75156 4.60335
24.7268 8.9131 4.74067
24.4357 8.89848 4.77493
24.1495 8.83299 4.80519
23.7642 8.92113 4.84766
24.157 8.85524 4.82972
24.0568 8.8491 4.85689
23.5229 8.75024 4.82092
23.8707 8.77044 4.86574
22.5688 8.83731 5.02197
23.6786 8.96179 5.01128
23.2491 8.56083 4.83818
23.8592 9.15876 5.21546
22.4795 8.80724 5.03801
23.1671 8.95674 5.1277
22.5802 8.81766 5.11694
23.0812 8.87484 5.14392
22.8759 8.90561 5.19941
22.4814 8.87565 5.22125
22.6239 8.89549 5.28254
22.6794 8.99888 5.32556
22.3244 8.79558 5.21013
22.5359 9.13998 5.48032
21.8423 8.87103 5.35429
22.0536 8.80874 5.28746
22.1353 9.15076 5.5993
21.3864 8.69392 5.33631
21.4964 8.79298 5.38769
22.0607 8.993 5.54464
21.2577 8.95829 5.58228
20.7809 8.64232 5.45113
21.0635 8.81048 5.48171
20.8797 8.8939 5.60897
21.0945 8.88789 5.66873
20.9644 8.77521 5.54295
20.7188 9.07062 5.73587
20.2447 8.79427 5.68037
20.5827 9.09158 5.9683
20.7397 9.11889 5.99482
19.6875 8.57895 5.58415
20.392 8.76471 5.73635
19.8591 8.74511 5.74993
19.4137 8.99527 6.00406
20.0881 8.95841 5.98616
19.9975 9.00364 5.99758
19.6967 9.06448 6.10738
19.6776 9.12304 6.16047
19.4744 9.01302 6.1393
20.132 9.41197 6.42306
19.4193 9.03971 6.249
19.3233 8.6523 5.92154
19.5461 9.30477 6.41288
18.6591 8.871 6.22395
18.854 8.86509 6.17492
19.0748 9.02588 6.32568
18.9244 8.821 6.22052
18.7702 8.81139 6.19463
18.5385 8.93768 6.39148
18.7939 9.23588 6.61657
17.9811 8.82006 6.36903
18.1844 8.87597 6.41257
18.186 8.76056 6.25377
18.3077 9.01901 6.62481
18.8106 9.51157 6.93156
18.1187 8.74162 6.38105
18.0225 9.02961 6.69682
17.4365 8.6813 6.45343
17.8283 8.88276 6.59571
17.8746 9.10516 6.88765
18.3544 9.11302 6.83564
17.9357 9.22242 6.93558
17.8304 8.8612 6.74077
17.6222 9.05232 6.92177
17.7421 9.1808 6.98809
17.115 8.79786 6.82709
17.6997 9.08056 7.07197
17.4035 9.16581 7.14914
16.936 8.95404 6.99685
17.3886 8.78045 6.80526
16.9581 9.08272 7.16806
17.3645 9.33609 7.33062
16.4629 8.72453 6.98273
16.782 9.32802 7.39283
16.7178 8.93341 7.27196
16.2918 8.94346 7.22428
16.8561 9.30794 7.55676
16.4588 8.86514 7.13441
16.0293 8.77399 7.14294
16.0863 9.03338 7.35203
16.1887 8.86153 7.2582
16.4064 8.93457 7.31593
16.3225 9.27026 7.71779
16.0519 9.08483 7.59187
16.4973 9.39314 7.85829
16.4147 9.18089 7.70869
15.9391 8.99572 7.69155
16.1047 9.0775 7.62745
15.9765 9.04672 7.73474
16.2714 9.25427 7.86933
16.1692 9.12295 7.68635
15.7371 9.19837 7.84695
14.7388 8.79271 7.73728
15.441 9.19914 7.92527
15.2592 8.97356 7.93862
15.3675 9.24554 8.00023
15.3607 8.98141 7.95207
14.9898 9.20232 8.10711
14.5857 8.96822 8.05456
15.353 9.43256 8.33358
15.103 9.255 8.32202
15.3452 9.41381 8.35773
14.8688 9.108 8.17476
15.0841 9.01751 8.22192
15.0499 8.98097 8.1032
14.7268 9.03085 8.18135
14.8653 9.14789 8.35242
14.3015 9.00865 8.38629
14.5906 9.16372 8.42815
14.8222 9.20281 8.55753
14.3118 9.13048 8.52613
14.2073 9.03151 8.42456
14.4642 9.11409 8.51425
14.2645 9.04712 8.64919
14.5053 9.24729 8.6103
14.0991 9.14212 8.73073
14.3146 9.2401 8.65855
13.9344 9.15076 8.71445
14.0008 9.15364 8.85556
13.9307 9.26858 8.9067
13.709 8.91353 8.67941
13.8298 9.14267 8.92405
13.8641 8.91386 8.65516
13.6334 9.0265 8.80064
13.6355 8.83982 8.74968
13.5592 9.16544 9.07781
13.9233 9.27308 9.10854
13.6008 9.31717 9.20448
13.4345 9.33437 9.38179
13.3537 9.1974 9.21645
13.4808 9.05508 9.07167
13.0651 9.03071 9.13676
13.2443 8.8982 8.97112
13.3822 9.34254 9.5224
13.2646 9.10402 9.26948
13.0036 9.04828 9.37314
13.316 9.57304 9.72389
12.8809 8.91581 9.18314
13.2832 9.17048 9.3624
12.965 9.2948 9.72823
13.0612 9.35453 9.81022
12.9977 9.35984 9.82469
13.1875 9.30658 9.71072
12.5878 8.72038 9.19031
12.9075 9.27102 9.94451
12.7702 9.28825 9.90553
12.6495 9.0925 9.7135
12.7509 9.07688 9.66029
12.4765 9.0359 9.74111
12.7513 9.48108 10.234
12.2279 9.05293 9.79152
12.4605 9.06709 9.81589
12.257 9.07515 9.82432
12.2696 9.17735 10.0564
12.0885 8.87784 9.70343
12.1243 9.11262 9.96992
12.4666 9.37534 10.2486
12.0978 9.14549 10.2145
12.2577 9.28901 10.2469
12.2133 9.28215 10.2162
11.8861 9.18241 10.4418
11.9747 9.33966 10.5589
12.0432 9.27586 10.4391
12.1363 9.36163 10.5389
11.6612 8.94983 10.3974
11.8108 9.33161 10.6509
12.1421 9.55947 10.792
11.7572 9.07189 10.3841
11.3391 9.17521 10.731
12.1482 9.65396 11.0308
11.6849 9.09347 10.7246
11.7174 9.25059 10.4635
11.4341 9.26565 10.9257
11.9108 9.30851 10.8387
11.3145 9.27793 10.933
11.4145 9.49502 11.2143
11.2623 9.11704 10.8051
11.4743 9.29112 11.1418
11.5852 9.17849 10.9124
11.211 9.04941 10.8155
11.4071 9.45537 11.2821
11.6591 9.64271 11.5424
11.1773 8.91157 10.7471
11.1663 9.11031 11.1185
11.447 9.57806 11.5448
10.72 8.99708 10.9456
10.9365 9.34284 11.4776
11.2986 9.57275 11.822
11.3279 9.54079 11.8176
11.0762 9.46571 11.7206
11.1324 9.29823 11.4783
10.8591 9.15 11.2599
10.9407 9.37159 11.6641
11.1564 9.67077 12.1389
10.9187 9.26248 11.6858
10.6775 9.17172 11.5606
10.9199 9.31486 11.9288
11.0608 9.5035 11.8727
10.6169 9.13922 11.5349
10.7468 9.33598 11.9962
10.7947 9.50767 12.2874
10.7183 9.57588 12.2767
10.6928 9.53827 12.4257
10.6233 9.36053 12.096
10.6788 9.29488 11.9878
10.5481 9.26609 12.0775
10.7147 9.57531 12.3676
10.8347 9.51689 12.415
10.635 9.61768 12.6212
10.5608 9.30573 12.0929
10.2855 9.16542 12.1579
10.3028 9.24221 12.3661
10.1782 9.19866 12.3585
10.3822 9.34452 12.5637
10.3175 9.39645 12.458
10.2347 9.41456 12.6902
10.3377 9.66509 12.9763
10.2815 9.43797 12.7622
10.1941 9.50008 12.7314
10.057 9.51946 13.0515
10.2007 9.48008 12.9185
10.2807 9.55366 13.179
10.2624 9.27055 12.6879
10.5055 9.91175 13.7718
10.3803 9.88127 13.3782
10.1653 9.59966 13.4565
9.95293 9.68142 13.2762
9.97198 9.3639 13.1819
10.2993 9.88081 13.8108
10.1376 9.88483 13.6807
9.8397 9.4777 13.4954
10.003 9.46954 13.2048
9.86003 9.50147 13.5009
9.84362 9.27836 13.124
10.0687 9.63126 13.5036
9.62839 9.26605 13.0578
9.46572 9.50179 13.4862
9.69506 9.62172 13.8777
9.64532 9.60356 13.7889
9.78724 9.64014 13.7876
9.48791 9.6658 13.9079
9.42868 9.59734 14.027
9.39225 9.1256 13.2952
9.20832 9.15115 13.66
9.52382 9.65874 13.9793
9.38182 9.60307 14.2378
9.28643 9.35243 13.6103
9.31508 9.4876 14.0206
9.30295 9.45234 13.9969
9.37965 9.24289 13.5663
9.2112 9.51868 14.39
9.20109 9.39958 13.9605
9.24012 9.3517 13.7696
8.96564 9.40326 14.4915
9.56053 9.73764 14.3818
9.27617 9.76887 14.626
9.1156 9.40127 14.2551
9.31101 9.46487 14.4413
9.31417 9.5646 14.6604
8.98566 9.48352 14.2703
8.97577 9.25305 14.1608
8.99494 9.52429 14.724
9.18858 9.56057 14.6085
8.8086 9.34806 14.7023
9.13526 9.55548 14.485
9.14831 9.73547 15.3491
9.17039 9.83358 15.2089
9.00104 9.5263 14.9024
9.10974 9.59578 14.7474
8.68927 9.5336 14.7516
8.707 9.4065 14.8942
8.75443 9.54928 15.1315
8.63908 9.36446 15.0007
8.92623 9.54765 14.8995
8.91991 9.74038 15.4153
8.60658 9.39808 14.8611
8.6996 9.83797 15.8374
8.62215 9.71785 15.4898
8.6734 9.42369 15.3253
8.89943 9.90701 15.8549
8.42799 9.54047 15.5524
8.60947 9.63655 15.555
8.64606 9.47396 15.5362
8.5871 9.58239 15.7775
8.4602 9.32051 15.2428
8.44661 9.51863 15.4565
8.31506 9.39779 15.4376
8.39995 9.39186 15.4436
8.37646 9.86767 16.1204
8.41282 9.69081 16.2099
8.59444 9.64183 15.8074
8.55268 9.5796 15.728
8.2259 9.34792 15.7006
8.21949 9.39208 15.8441
8.19679 9.63131 16.2053
8.31147 9.62459 16.1905
8.35536 9.80609 16.2573
8.19017 9.81496 16.4993
8.30654 9.60975 16.378
8.15317 9.453 16.0754
8.1526 9.64618 16.289
8.1169 9.37175 15.9755
8.04576 9.41431 16.0069
8.25815 9.72274 16.5914
7.98779 9.41383 16.2031
7.82804 9.62826 16.4531
7.87557 9.34016 16.4937
8.20545 9.69518 16.4104
7.85638 9.31967 16.6504
8.24217 9.88802 17.0111
7.76335 9.54071 16.8235
8.44886 10.1548 17.5239
8.37204 10.0976 17.5482
7.92078 9.67889 17.0927
7.90898 9.55669 17.1063
8.20386 10.0554 17.6721
8.04245 10.0104 17.5481
7.89038 9.4635 16.8686
7.83166 9.72714 17.4603
7.83463 9.51852 16.9613
7.77609 9.48136 16.8847
7.87397 9.59808 17.2447
7.99121 9.70591 17.0422
7.67305 9.76007 17.4057
7.77351 9.74835 17.7084
7.64836 9.62254 17.504
7.88662 9.9161 18.024
7.80376 9.64631 17.4047
7.90925 10.1643 18.283
7.72363 9.85206 18.2628
7.72067 9.78942 18.1499
7.71808 9.73867 17.6498
7.66318 10.0986 18.5971
7.55821 10.0271 18.3086
7.53467 9.51491 17.6189
7.36182 9.78112 18.1268
7.66747 9.70299 18.0974
7.70269 9.77962 18.2031
7.64954 9.70312 17.9921
7.52084 9.66893 18.0299
7.4576 9.9267 18.8303
7.40013 9.73163 18.1154
7.35426 9.5689 18.4645
7.12307 9.30958 17.8472
7.51344 9.79487 18.5307
7.44912 9.73984 18.2199
7.3479 9.46491 18.1586
7.45382 9.79565 18.1316
7.348 9.88357 19.0756
7.13411 9.58535 18.7481
7.27283 9.74695 18.785
7.32349 9.81041 18.5315
7.27829 9.98652 19.5992
7.46264 9.99901 19.2291
7.58671 10.3191 19.5859
7.2824 9.62319 18.5814
7.05204 9.61768 18.9723
7.3056 10.1221 19.3628
7.1692 9.79313 19.4503
7.27162 9.66819 18.6282
7.2178 9.9878 19.6836
7.17397 9.74172 19.1743
7.09852 9.8651 19.5482
7.09567 9.50762 18.9998
7.31 10.1741 20.1626
7.26084 9.82843 19.1993
7.18797 10.0326 19.9461
7.0097 9.741 19.5122
7.06374 9.87176 19.7013
6.90319 9.6317 19.4912
7.01319 9.6872 19.3075
7.10936 10.0409 19.9351
6.9953 9.91498 20.3113
6.98024 9.6281 19.5892
6.90865 9.87844 20.0191
7.08303 10.2442 20.8011
6.92248 9.61149 19.8478
7.11678 9.93459 19.5143
6.94545 10.0762 20.8165
7.18301 10.4221 21.0348
7.06687 10.2599 20.8741
7.0643 9.90577 20.0292
6.83575 9.56701 19.8965
6.89263 9.78831 20.3147
7.00605 10.0823 20.4132
6.91305 9.89087 20.6861
6.98273 10.3083 21.5119
7.07313 10.2703 20.9672
6.68753 9.64163 20.2299
6.81261 10.1727 21.1943
6.93465 10.2453 21.1872
6.72568 9.75965 20.4074
6.62188 9.85036 20.8996
6.89442 10.0922 21.0863
6.71199 9.93513 20.7996
6.53458 9.66969 20.53
6.72089 9.98223 21.4301
6.85303 9.93756 20.6128
6.45068 9.64702 20.6606
6.59991 9.73197 20.7376
6.57947 9.86953 21.2477
6.47696 9.84268 21.159
6.62385 9.82667 20.8456
6.64495 9.86742 20.862
6.39655 9.68398 21.5015
6.88073 10.2444 21.8907
6.61221 9.93668 21.3501
6.42473 10.1427 22.4788
6.57114 9.90931 21.4015
6.51546 9.95925 21.8201
6.64989 9.99121 21.8093
6.4506 9.66755 20.9621
6.47769 9.77412 21.1217
6.33539 9.98545 22.4298
6.61167 10.1202 22.2549
6.55267 10.0116 21.8707
6.53584 9.92876 21.6973
6.41469 9.8502 21.876
6.59 9.99627 21.5052
6.33878 9.90389 22.1985
6.51384 10.0178 22.4008
6.44992 10.0546 22.5158
6.47378 9.76418 21.8287
6.3733 9.83039 21.7635
6.18591 9.80883 22.2729
6.45676 9.86059 21.8358
6.18206 9.89693 22.781
6.50327 10.1712 22.5851
6.24798 9.9201 22.4784
6.45681 10.3104 23.1654
6.24616 9.81727 22.6882
6.30563 9.91529 22.9589
6.5687 10.3515 22.9988
6.39741 10.3779 23.6519
6.3516 10.1936 23.2562
6.32701 10.2227 23.2042
6.17358 9.87658 23.0874
6.2735 10.0493 22.4693
6.16904 10.1791 23.562
6.45003 10.0401 23.1671
6.12476 9.97544 23.6095
6.37752 10.5567 24.1187
6.30079 10.1472 23.3389
6.11887 9.83184 23.3102
6.36425 10.327 23.9197
6.33825 10.1628 23.6075
6.21578 10.2476 23.8202
6.10566 10.3512 24.3256
6.28241 10.2147 23.9336
6.14901 9.94663 22.9152
6.0414 10.2137 24.177
6.07997 10.2402 24.5839
6.12493 9.98024 23.743
6.26642 10.4311 23.9295
6.2782 10.2207 23.8355
5.91048 9.89756 23.6697
6.02803 9.87954 23.9047
6.00766 10.2775 24.9123
6.16455 10.2233 24.3166
6.03632 10.2701 24.8405
5.98347 9.93634 23.4522
6.03638 10.495 25.2576
6.20526 10.1856 24.3231
6.07979 10.3938 25.0695
6.07842 10.1583 24.7263
6.1452 9.95016 23.9608
5.93746 10.2583 24.5605
6.01477 10.2901 25.1194
6.13151 10.2394 24.6896
5.96302 10.0272 24.6895
6.0269 10.342 25.0517
5.94472 9.97464 24.1741
5.80617 10.323 25.6218
5.93813 10.189 24.8021
5.95281 10.2958 25.3543
6.0869 10.5392 25.5182
