# pn-170911/RbIIR-55-AMC2-1280-1959.psd
# Power spectrum* (dif=0,1,2) (really just |FT|^2)
# NOTE: only the first half! (symmetric)
# weeks: 1280-1959
# 487 clock-days, 14 excluded
# PSD: 1441
710.695 0.0882721 0.0344871
18986.8 0.225252 0.0516289
140869 3.12674 0.0512857
7602.69 0.287426 0.0503775
40947.2 3.24626 0.0495518
3407.94 0.346957 0.0500847
3222.69 0.46304 0.0512129
1706.9 0.302819 0.0524211
1883.78 0.536273 0.0510449
975.067 0.334542 0.0506839
942.786 0.36828 0.0512612
776.12 0.373279 0.0511512
675.034 0.40505 0.0545017
536.625 0.360479 0.052114
531.038 0.447478 0.0479559
484.503 0.450353 0.0515518
490.424 0.536841 0.054117
392.293 0.478672 0.0515407
406.078 0.561547 0.05409
370.723 0.591134 0.0487963
348.5 0.618268 0.0587728
343.967 0.661488 0.0524049
309.154 0.6567 0.0581668
335.58 0.75227 0.0550966
312.99 0.815453 0.0575504
309.163 0.875759 0.0531443
290.111 0.885959 0.057514
310.353 1.02493 0.058715
291.438 1.0137 0.0580768
313.929 1.20806 0.0560076
296.961 1.18436 0.061742
274.853 1.15744 0.061382
288.045 1.32201 0.0620994
294.036 1.4859 0.0640237
295.966 1.52548 0.0634378
299.294 1.69924 0.0703207
303.306 1.765 0.0661521
282.536 1.80349 0.0671303
288.723 1.92797 0.064488
266.653 1.86165 0.0702187
286.048 2.08158 0.0715306
301.764 2.26359 0.0718107
298.552 2.46852 0.0739839
288.411 2.42788 0.0741846
277.305 2.47705 0.0725676
277.712 2.60212 0.0819086
293.272 2.87559 0.0843304
284.077 2.95264 0.0888231
292.682 3.11357 0.086549
280.845 3.12868 0.0911552
274.499 3.16137 0.0955528
284.867 3.38655 0.0970388
294.589 3.66411 0.091536
295.783 3.92556 0.102084
291.375 3.96487 0.105553
253.885 3.6143 0.10232
286.077 4.1656 0.110967
274.666 4.15221 0.119122
271.823 4.28741 0.127054
254.134 4.10678 0.118246
285.788 4.83342 0.138797
271.729 4.73478 0.149508
279.618 5.04838 0.149576
267.937 5.04846 0.147831
244.819 4.64696 0.137578
272.474 5.48765 0.168317
249.996 5.03574 0.155305
244.04 5.18051 0.160088
250.051 5.32492 0.171511
249.902 5.51423 0.18296
231.891 5.32536 0.18433
240.116 5.65757 0.195249
255.921 6.20523 0.201445
235.958 5.92943 0.197342
241.275 6.18266 0.215431
227.863 6.00866 0.212107
239.196 6.40369 0.226756
228.668 6.35536 0.232506
234.918 6.64731 0.252631
225.843 6.67167 0.244313
214.948 6.47358 0.248348
206.408 6.27153 0.246419
217.724 6.81347 0.274391
223.538 7.28236 0.293648
192.353 6.37859 0.267108
216.002 7.35007 0.305732
219.373 7.57587 0.302889
206.258 7.31629 0.305558
212.565 7.79336 0.341994
211.164 7.89254 0.340805
214.636 8.07897 0.358361
225.3 8.62733 0.377933
208.203 8.27347 0.390395
201.927 8.30469 0.390864
193.47 8.00455 0.394277
191.775 8.0461 0.384432
266 11.7834 0.559075
168.119 7.45474 0.383664
175.348 7.98112 0.414719
192.09 8.71054 0.45379
192.892 9.05395 0.508462
186.398 8.99857 0.490434
197.552 9.44909 0.499662
177.307 8.79206 0.494042
163.146 8.38414 0.469973
176.754 9.0307 0.537559
165.513 8.65796 0.50175
174.794 9.52818 0.557561
179.608 9.64371 0.571919
166.268 9.19495 0.565659
162.17 9.022 0.564009
166.601 9.63015 0.621588
149.368 8.74508 0.578407
166.673 9.98668 0.647416
168.716 10.2869 0.688411
163.431 9.94872 0.654536
147.448 9.42419 0.638886
159.662 10.2526 0.698144
154.955 10.1903 0.715963
153.898 10.2371 0.747138
164.827 11.0183 0.799028
149.197 10.2585 0.760985
146.145 10.2318 0.774034
151.363 10.719 0.826982
145.38 10.5595 0.831811
149.368 10.844 0.842231
157.213 11.6929 0.933214
151.663 11.2976 0.890213
141.887 10.8812 0.872392
141.861 11.0405 0.931719
140.326 11.196 0.951625
145.843 11.7804 0.993495
165.491 13.3598 1.12349
135.68 11.43 0.984897
136.214 11.3051 0.995384
134.789 11.4995 1.0464
134.62 11.5389 1.01811
125.064 11.1609 1.01669
125.963 11.0258 1.04338
133.176 12.1816 1.1422
131.011 12.0892 1.14337
129.869 12.1778 1.16972
123.676 11.6629 1.14889
125.081 11.9703 1.20625
137.542 13.5722 1.36402
132.291 12.9497 1.30224
124.9 12.2793 1.27813
134.3 13.5967 1.41815
125.021 12.9689 1.36497
117.087 12.1771 1.34277
132.763 13.8172 1.49396
132.349 14.1069 1.53836
113.81 12.4204 1.36912
122.387 13.5411 1.55267
118.407 13.1245 1.50652
129.161 14.5127 1.68734
129.998 14.7129 1.72117
113.951 13.0559 1.53298
111.474 13.0892 1.61252
112.982 13.0479 1.59694
116.446 14.0107 1.71909
115.98 14.2025 1.79643
113.449 13.7942 1.73112
109.639 13.801 1.73607
103.916 12.8894 1.65368
118.635 15.2658 2.00195
105.218 13.4057 1.7544
120.7 15.5212 2.04107
120.547 15.9193 2.16034
108.707 14.4618 1.95222
108.76 14.4887 1.97807
109.076 15.0985 2.10394
102.96 14.248 1.99993
101.223 14.1529 2.02441
104.844 14.9403 2.17233
110.162 15.7964 2.29928
103.192 14.7324 2.18727
103.927 15.3423 2.33577
94.6141 13.9187 2.11058
99.5883 15.0853 2.30124
104.001 15.7448 2.42061
98.8305 14.8349 2.26347
102.07 15.9371 2.52961
103.09 16.0454 2.49745
92.1213 14.7085 2.38751
103.809 16.7279 2.70696
99.4753 16.1138 2.67103
100.597 16.1339 2.68965
93.127 15.3031 2.53898
93.5332 15.9824 2.72193
99.1319 16.649 2.84013
91.8168 15.94 2.83494
128.339 21.8614 3.71902
98.7388 16.9202 2.94985
97.5287 17.3414 3.07118
97.6142 17.288 3.1078
95.0251 16.9258 3.05284
88.638 16.1213 2.94976
94.3103 17.3549 3.2006
85.2654 15.6449 2.91027
91.4164 16.871 3.14819
98.1542 18.6781 3.5726
94.6448 17.8747 3.40344
91.5538 17.4121 3.44886
94.6941 18.0586 3.47029
92.7884 18.3094 3.58524
86.5174 17.3739 3.51476
82.6836 16.614 3.35894
83.1205 16.7749 3.41217
86.7425 17.4733 3.56864
89.1654 18.3624 3.88439
78.834 16.1055 3.3881
78.5415 16.4972 3.48081
88.5751 18.8021 4.01271
82.7532 17.6514 3.85416
84.8043 18.216 3.88129
85.5054 18.4038 3.91942
80.7921 17.8849 3.90789
78.1768 17.5412 3.95287
83.3123 18.3384 4.074
81.0185 18.2359 4.1405
82.0216 18.4875 4.2016
84.3679 19.3272 4.52647
87.4109 20.0792 4.65522
75.9551 17.6772 4.21048
78.8889 18.5562 4.36913
78.381 18.3802 4.3203
77.9806 18.5418 4.51477
78.1142 19.042 4.63601
81.5966 19.9129 4.91053
77.1401 18.527 4.4684
74.8903 19.1067 4.87527
80.3453 19.6473 4.85236
82.3934 21.1988 5.41447
78.8944 19.9757 5.0718
73.046 18.4925 4.80444
71.4965 18.4881 4.85414
80.9829 20.9453 5.50082
72.2822 19.133 5.12585
75.1709 20.209 5.39113
78.5069 20.8065 5.57771
77.4345 20.6385 5.57047
77.5261 20.7025 5.62951
72.1547 20.122 5.58221
71.9114 19.8299 5.47522
68.057 18.4417 5.14862
76.7723 21.6232 6.12893
71.076 20.0927 5.74428
67.3806 19.24 5.47927
71.5746 20.3421 5.87911
65.1319 18.9233 5.48616
60.5391 17.6539 5.21668
76.4992 22.2162 6.53782
73.4584 21.4866 6.2393
68.37 20.26 6.14713
71.2305 21.3353 6.51155
66.0378 19.766 5.95927
66.0499 20.2577 6.28369
65.1368 19.8442 6.09118
64.5782 19.9858 6.25687
62.9962 19.4863 6.11718
65.7832 20.29 6.3157
64.3568 20.298 6.4501
62.5903 20.1941 6.5399
75.8086 24.1001 7.68371
68.1258 21.8811 7.12251
70.2263 22.8513 7.45818
64.4465 21.4054 7.08783
59.8851 19.8111 6.65019
68.9304 22.9796 7.79325
64.7642 21.6901 7.37338
67.266 22.1947 7.474
58.9914 20.1103 6.95399
64.351 22.0842 7.65348
61.8672 20.9766 7.16436
67.6076 23.7825 8.31272
64.9716 22.317 7.67199
60.9085 21.535 7.68653
61.5873 22.1341 7.94975
60.9393 21.3284 7.63829
62.2185 22.3802 8.11679
62.6462 22.7826 8.37603
61.6204 22.5709 8.35568
59.1663 21.2571 7.76287
60.5216 22.6516 8.42115
59.2003 21.7403 8.16838
57.6341 21.511 8.09569
55.828 21.1539 8.33159
86.4949 32.5562 11.9801
57.1051 21.5779 8.23834
55.2918 21.6261 8.39405
57.2405 21.7875 8.3981
51.8695 20.6583 8.27941
56.739 22.3302 8.92334
55.0979 22.0576 8.95607
57.9758 22.7297 8.8763
57.1909 23.5643 9.62392
57.7226 22.947 9.23148
53.0368 21.213 8.54012
50.9839 20.9527 8.62662
57.0344 23.465 9.64736
52.0947 21.3779 9.00332
49.1252 20.2124 8.3028
56.628 24.3085 10.2959
54.2266 22.6923 9.55638
51.5766 21.9424 9.3484
53.0422 22.624 9.7405
53.8567 22.83 9.64273
48.0617 20.7838 8.94817
50.4208 22.0478 9.70353
50.3728 22.0666 9.79165
49.0288 21.5601 9.57858
51.6218 22.4622 9.81727
49.8296 22.2315 10.025
50.2097 22.8554 10.4006
50.8007 23.1176 10.4854
48.6428 22.0189 10.1676
49.3784 22.1472 10.0466
48.4479 22.2799 10.3625
51.3503 23.8581 11.1228
47.1056 21.8115 10.3264
50.5928 23.6311 11.1281
48.0239 22.3856 10.5315
44.605 21.3273 10.2271
48.4369 22.9908 11.1473
49.6801 23.5615 11.3541
49.8602 24.1151 11.7611
52.9284 25.2171 12.0722
49.8255 23.9308 11.5331
45.5017 22.502 11.0059
45.5596 22.4887 11.0925
51.9793 26.0064 12.7036
45.1223 23.112 11.9179
49.615 24.5654 12.452
48.0774 24.0345 12.0167
48.6156 25.2368 12.9907
48.9502 25.0451 12.9309
47.9257 25.0105 13.0837
47.7609 24.0646 12.2939
43.029 22.1314 11.6891
45.9737 24.038 12.6977
43.195 22.6484 11.8712
48.756 26.2184 13.957
44.5196 23.7115 12.9846
47.7864 24.5773 12.6435
43.4016 23.8268 12.9034
44.3266 23.8177 12.8903
43.5409 23.4532 12.6773
43.7104 24.1709 13.2791
41.5289 22.6265 12.5095
39.5523 22.428 12.736
41.7198 23.1977 13.0134
44.7767 24.8357 13.8073
41.3646 23.0526 12.9537
40.6685 22.7383 12.9899
46.2334 26.4112 14.8849
43.4693 24.7602 14.1102
39.636 22.6517 13.1284
40.6301 24.0599 14.2549
43.1949 24.7217 14.223
40.1354 22.6761 13.0364
38.0989 22.0415 12.8375
39.9998 23.7717 14.155
41.1348 24.1807 14.2271
36.0007 22.0812 13.5649
37.2043 22.0932 13.4225
38.9842 23.3407 14.1319
38.5436 22.5347 13.5999
42.6794 25.9379 15.6136
37.4548 23.2691 14.7996
41.9599 25.319 15.4609
38.8356 24.2586 15.4157
40.267 24.221 14.7772
38.6038 24.5584 15.6467
38.5025 24.0036 15.1583
36.9485 22.5823 14.0985
39.6226 25.4528 16.5376
42.341 25.6853 15.4986
37.9191 25.1962 16.6467
37.2482 23.088 14.748
36.3904 23.6812 15.4715
37.9873 24.9876 16.4863
38.072 24.9562 16.6113
38.1239 24.9123 17.2339
55.818 35.4147 21.6579
37.4804 25.2357 17.2945
36.6995 24.0324 16.0587
35.4962 23.5012 15.7847
34.3043 22.9962 15.6265
36.3176 24.2607 16.1551
34.2215 23.8433 16.6898
36.8881 24.8222 16.9866
33.6401 22.3947 15.0995
31.3251 21.8794 15.5232
34.8123 23.2628 15.7704
33.7439 23.5817 16.4834
36.3154 25.8607 18.0184
31.6824 22.1838 15.8527
34.4691 24.668 17.7056
37.3693 25.8889 18.1397
31.7769 22.0667 15.6765
34.6716 25.2332 18.3421
34.8756 24.7704 17.6071
32.4336 23.2131 16.9351
32.4313 23.2479 17.0839
35.6051 25.5989 18.33
31.7155 23.3668 17.1426
34.072 25.1904 18.5179
32.4323 23.9648 18.0282
36.0783 26.5865 19.5564
32.1529 24.0845 17.9949
30.9013 23.4787 18.3988
33.7012 24.0066 17.2902
32.2467 24.6743 18.4606
28.2408 21.5749 17.0685
31.7902 24.1635 18.1687
28.7324 22.2004 17.5988
31.7705 24.6228 19.052
33.0655 25.1182 19.1988
31.4466 24.342 18.6377
29.7454 23.5463 18.9658
30.1448 23.2286 18.1091
30.8999 24.4646 19.1819
32.2863 25.2294 20.0654
31.1071 24.3948 19.0093
29.465 23.3478 18.8635
30.9823 25.0689 19.9415
29.5574 23.3917 18.6016
27.9155 22.8827 19.1363
30.4099 24.1807 19.0076
28.8777 24.0935 20.1014
30.0811 24.8339 20.498
30.5788 25.2207 20.9853
29.967 24.4344 20.1633
28.6643 24.2453 20.9085
29.417 24.0224 19.8538
28.5273 24.22 21.012
30.2907 23.6549 18.9267
28.2402 24.8424 21.7276
31.8761 26.802 22.684
28.4477 23.3287 19.7019
29.4338 24.6423 20.5807
28.2608 25.0492 22.0923
28.603 24.2735 20.8945
27.2987 23.7738 20.5625
28.2381 24.0943 20.5505
24.8438 21.7523 19.2915
26.4388 23.1578 20.7999
27.7135 24.0641 21.2354
26.8624 23.294 20.7031
27.2203 23.4503 20.3477
26.136 23.4628 21.3699
27.7154 24.3978 21.5539
25.4595 22.5713 20.5244
26.7665 24.034 21.8125
29.1294 26.0245 23.0152
25.3819 22.8981 21.3278
25.8648 23.105 21.1776
28.2297 25.6947 23.2917
25.0992 22.306 20.3601
25.5668 23.797 22.4675
27.1191 24.3316 22.0946
27.7478 25.5998 23.336
27.4939 25.9211 24.3116
25.7404 23.8855 22.7497
25.4591 23.5781 22.138
26.9615 25.2159 23.7435
27.6195 26.076 24.406
25.6676 24.9717 23.8587
23.8246 23.188 22.8787
24.5645 23.0754 22.4951
23.1607 21.829 21.2038
24.2079 23.2153 22.8141
24.8017 23.9402 23.8633
25.8098 23.9369 22.7921
25.6207 24.4043 22.9804
24.6274 25.5691 26.2239
25.2497 24.2894 23.4931
22.3801 22.5114 23.4944
25.1397 24.5424 25.2369
34.4595 33.8009 31.8192
25.5463 25.3917 25.639
25.2305 25.3217 25.3127
23.6822 23.6758 24.0182
25.1176 25.3414 25.8669
26.0439 25.9949 26.1093
24.044 24.3033 24.9964
24.3976 24.549 24.5039
23.0571 23.8501 24.9144
25.2186 26.0711 26.5293
24.9078 26.0951 27.0954
22.4781 23.0373 24.3139
22.5909 22.9152 23.2445
20.3497 22.1841 24.258
22.0024 22.4705 23.7012
22.3159 23.1025 24.481
22.3605 23.2765 24.4026
23.4581 25.2803 27.2259
24.7854 25.748 26.7888
21.1239 23.02 25.4876
21.5554 22.5651 24.1604
20.2325 22.32 25.1689
22.9207 24.2617 25.7824
22.5401 24.0135 25.8686
22.8155 24.2451 25.6969
21.5045 24.0015 26.4644
21.9593 23.5873 25.6858
20.8585 22.8829 25.0814
21.9698 24.4027 27.121
21.612 23.9061 26.9119
21.2969 23.3521 26.0738
22.6159 25.2176 27.6599
20.2506 23.031 26.0165
19.2151 21.0686 23.4482
19.1425 21.7196 25.147
21.1573 23.4734 26.2478
22.6704 26.7854 30.638
20.5712 23.2332 27.1225
21.4958 24.0761 26.7919
18.753 21.3762 25.1178
20.0792 22.951 26.7832
21.3672 24.5081 28.2621
19.374 22.1575 26.3021
21.1756 24.0568 27.5622
19.9179 22.9436 26.4342
18.795 22.4989 27.5755
20.8985 23.1322 25.6868
18.1708 21.8035 26.1898
18.4281 22.3055 27.6378
21.2048 24.7377 28.9598
21.3151 24.5589 28.609
21.4709 25.4758 29.497
17.6865 21.562 26.7633
18.8513 22.218 27.1519
20.4101 24.4595 29.246
19.4264 23.7531 29.4226
20.3682 24.2013 28.981
19.3045 23.6682 28.8891
18.2097 22.2895 28.212
17.9736 21.5522 27.1528
18.5376 22.2475 27.6877
20.4873 24.8707 29.9385
19.116 23.2054 28.1453
18.0388 22.1508 28.1741
19.4282 24.168 29.5443
17.7058 23.2856 31.4714
19.432 22.5676 27.4506
19.5404 24.5916 30.6458
18.2477 22.5468 28.0684
18.1246 22.9502 29.3729
16.9416 21.5214 28.4085
19.1184 23.8261 29.8333
17.9873 22.8388 29.916
17.6791 22.0908 28.8052
19.8941 25.2565 31.6053
17.8275 22.9122 29.6305
16.7153 21.3614 28.3714
17.0252 21.5726 27.8613
17.5182 22.7207 29.5838
17.7793 23.3369 30.5401
18.4414 23.9147 30.7474
16.0775 20.9458 28.2341
17.4494 23.0029 31.1786
19.2737 24.9749 32.5635
17.6478 22.7945 30.0722
16.9763 22.5606 30.4464
16.8971 21.9669 29.3109
17.0049 22.8707 31.0491
18.0375 23.5557 31.1005
17.7872 23.3875 31.0011
16.0956 21.7394 29.4385
16.8663 23.2108 31.9274
17.0563 23.2776 31.9564
16.3964 21.5926 29.1454
15.9893 22.6567 32.4356
17.2695 24.1968 36.2678
24.8657 32.7238 39.765
15.8946 22.3189 31.7554
16.773 23.0332 31.9504
15.7614 21.447 30.4022
16.8299 23.491 33.0734
17.4936 23.5592 31.5909
16.863 24.0032 33.2328
15.5423 21.8315 31.127
15.0283 21.2496 30.4707
16.0364 22.2091 31.3431
16.1152 22.5984 31.5658
14.7262 21.3986 31.4921
16.0268 22.0259 30.4105
14.5926 22.1624 33.8788
16.402 22.5459 32.2503
15.4337 22.0801 31.2777
14.4005 20.6468 29.9149
14.1383 20.7312 31.21
14.7334 20.7209 30.0307
15.3219 22.6231 33.9724
16.1981 22.9384 32.6559
14.3373 20.4615 30.534
15.9231 23.3702 34.5398
15.9131 23.3662 35.0441
16.1441 23.3162 33.9763
15.4278 22.7509 33.4072
14.1925 20.7906 31.0899
14.5789 21.6211 33.0456
15.6442 23.1285 34.2455
14.9634 22.243 34.041
14.8108 21.4747 31.8369
14.0081 20.9104 31.9385
14.9314 21.4883 31.0692
14.6029 22.2515 33.2037
13.9923 21.2645 32.3297
14.4154 22.4858 34.7526
14.5178 22.4178 34.7836
13.4596 19.7793 31.063
14.1629 21.2577 32.6657
14.8443 22.5865 33.7242
14.595 22.822 35.3604
14.5974 23.4649 37.3743
13.8007 20.6824 32.6322
13.3657 21.0516 34.3668
14.4686 21.6478 34.3924
14.4027 21.3839 33.053
14.2473 22.3347 36.1175
14.9766 22.1521 33.8254
14.7628 22.7723 34.6654
14.0808 22.8577 36.0992
13.4443 20.9231 33.7341
14.1041 22.1556 36.1115
14.1931 21.8922 33.6684
13.0635 21.0076 34.0988
13.3122 21.1938 34.6026
14.2042 22.0452 35.5471
14.9687 23.8306 37.0136
12.8924 20.3801 33.0606
14.125 22.9991 36.3804
12.8769 21.0122 34.4854
13.5867 22.5102 36.819
13.5748 22.319 36.7619
12.8961 20.275 32.5745
11.9852 19.5779 33.0502
13.0892 21.2999 34.4293
12.632 20.8189 34.6551
13.1479 22.0929 36.3578
11.987 19.6446 33.7914
12.6344 20.9555 35.0128
12.7783 20.303 33.0605
11.9703 20.8524 36.3319
12.8737 21.0203 34.7034
11.8515 19.8149 35.0745
12.8844 20.789 34.1584
12.0688 20.213 34.3093
12.1311 20.0488 33.7098
12.0121 21.2476 37.4017
12.1763 19.9243 33.9375
11.5553 19.7706 34.616
12.8524 22.135 37.3763
11.729 19.83 35.0872
11.5034 19.1835 33.6568
12.8195 21.8286 36.5147
11.7441 19.9815 34.6954
11.3286 19.1081 33.3387
12.2395 21.1416 35.3471
10.6745 18.9364 34.6661
12.3882 21.7425 38.3987
12.1244 20.6256 35.3005
11.1292 19.4637 34.5262
11.0603 19.5497 35.3622
11.1284 18.7811 33.2426
11.0588 19.7741 36.4713
11.6288 18.6945 32.0873
11.7497 21.2652 36.2587
10.778 21.3947 45.3518
17.8358 29.4948 47.0242
12.4692 20.6373 34.6394
11.3632 20.8178 36.7196
11.1992 19.2954 33.8229
11.034 20.1684 35.2847
10.8066 20.7647 39.2429
11.4891 19.7847 33.6466
9.99361 20.101 40.3871
11.9791 19.9303 34.4226
10.6823 20.1931 38.116
11.5996 20.5978 37.4892
12.1996 22.0304 39.2508
11.1145 20.1727 36.7169
11.096 20.4469 38.5081
11.4104 20.8078 37.222
10.489 19.1523 36.8394
11.2385 19.9384 35.2592
10.8202 20.8133 39.1157
10.9487 20.501 37.8971
10.6201 20.5066 40.1955
10.489 18.6608 36.2665
10.951 19.7732 35.7363
10.2027 19.2804 37.4427
11.6475 21.6591 40.249
10.8991 19.5527 36.0932
10.2972 19.7233 37.9211
10.0299 18.7305 36.3197
11.0775 20.6363 38.5674
10.9453 21.2748 41.0943
11.4164 21.5096 40.6914
10.5821 19.7725 37.8544
10.3097 19.1088 35.9911
10.35 20.0776 38.8855
10.0115 19.0349 36.7144
9.99341 18.8708 36.2571
10.2075 19.851 38.1883
9.84231 19.0598 37.7376
9.57074 17.9026 35.4132
10.0639 19.6816 39.0085
10.6549 20.0742 38.3605
9.78901 18.8623 35.9594
9.37834 18.691 37.6279
9.51224 18.5671 37.2392
10.0844 19.5274 37.8188
9.71659 19.3795 38.2987
9.13625 17.5555 36.3815
10.5887 21.1549 40.9896
9.63095 19.7837 42.0201
10.8409 20.2376 38.3379
9.2513 19.0193 38.9442
9.71174 18.8226 37.8136
8.91161 17.7533 37.7487
10.31 19.9838 38.8171
9.54836 19.1061 38.5282
8.89124 17.4739 36.0438
9.43923 18.4961 37.2578
9.24592 18.4247 37.3044
9.74657 19.9467 39.8232
9.84817 20.687 42.6649
9.38581 18.0383 36.53
9.16903 18.6872 36.57
8.49988 17.466 36.7071
8.84991 18.7689 40.2385
9.69162 19.1766 38.4657
8.63091 17.1892 34.6264
8.47738 17.7692 37.4308
8.46594 17.6762 37.6033
8.66134 17.9397 38.5242
8.66013 17.6064 37.7651
8.84121 16.9287 33.8899
8.46664 18.2703 39.5214
9.76919 20.8505 44.0456
9.14329 17.823 36.5948
8.6808 17.8641 37.3088
8.32387 17.3552 37.792
8.85391 18.0064 36.7893
8.37345 17.5599 37.5168
8.35358 17.8092 39.0064
8.77461 17.4927 36.3209
8.42773 17.9871 38.6689
8.84783 18.4221 38.9072
8.41204 17.6252 37.4018
8.73794 18.9986 40.7033
8.78672 18.6745 38.6992
7.96773 17.6267 40.0737
8.87314 18.4832 39.1261
8.3449 17.6213 38.2783
8.38638 17.326 37.0052
8.47882 19.1356 41.7692
8.66135 18.2646 39.5465
8.47618 18.2331 38.8958
7.90075 17.0258 36.8578
7.6165 16.6161 38.461
8.54226 17.7895 36.9133
7.16642 15.9581 37.886
8.35657 19.6495 52.0241
12.6493 24.821 45.4212
8.32951 18.6079 41.6261
8.28838 17.3548 36.6419
7.29471 16.3149 38.4714
7.96497 17.215 39.0058
8.54275 18.7842 40.2532
8.37032 18.1642 39.7968
7.50737 16.8443 39.1765
8.15093 18.0744 41.6859
8.46494 17.9466 39.6561
8.16327 18.3414 40.8878
8.03059 18.0233 41.2597
8.44789 18.6675 40.8994
7.89079 17.3193 39.2973
7.84767 17.8351 41.6453
8.33513 17.9022 37.9036
7.10912 16.9083 41.3698
8.33731 18.1144 39.5619
7.62161 16.8594 37.6621
7.57734 18.2452 42.5461
7.5217 16.602 38.5487
7.52481 16.6469 36.9475
7.26716 17.7855 42.9268
7.76295 17.1658 39.921
7.34438 16.3948 38.3855
7.3845 16.126 36.5815
7.19546 16.8539 40.0941
7.71985 17.1266 38.7808
7.37797 17.3157 40.7615
7.37083 16.6083 39.3246
7.30111 15.9746 35.8164
6.94141 16.2417 37.2639
7.00501 16.5765 39.5937
7.51302 16.6787 37.2064
7.08529 16.7883 40.2417
7.0762 16.2907 38.7745
7.63838 18.3075 42.603
6.99225 15.5562 37.0344
6.96864 16.352 38.4273
7.12511 16.4185 38.6255
7.50405 18.4197 43.0833
7.35053 16.9727 39.4347
6.8029 15.9997 38.861
7.25016 17.2739 40.3084
7.12927 17.3723 42.2336
6.86829 15.3409 38.2196
7.50541 17.7079 39.5146
6.91051 17.3516 41.2641
6.69358 16.6498 42.1115
7.13857 16.3304 40.953
7.27131 16.5674 39.2015
6.92112 16.7848 42.229
7.14216 16.6058 38.8357
6.36927 15.0856 38.3031
6.71383 16.1222 39.324
6.64615 15.8386 39.0963
6.6134 15.9914 38.7077
7.09788 17.5396 41.4714
6.44757 15.4961 38.9136
6.99696 17.6865 43.7519
