# pn-170911/RbIIA-37-RbIIA-1280-1959.psd
# Power spectrum* (dif=0,1,2) (really just |FT|^2)
# NOTE: only the first half! (symmetric)
# weeks: 1280-1959
# 65 clock-days, 206 excluded
# PSD: 1441
21261.7 0.57949 0.0165461
2.89943e+06 52.143 0.00582115
4.49669e+06 68.586 0.00609461
1.3591e+06 47.4839 0.00676845
828832 45.9598 0.00857546
332508 24.5838 0.00780596
247744 28.6894 0.00837165
123231 20.5779 0.0121582
139544 24.5889 0.0122211
83133.8 17.2156 0.0108862
69204.7 14.8597 0.01148
61900.4 19.905 0.0164631
40495.1 14.6957 0.0142788
46500.1 14.3751 0.0182083
27829.4 11.8178 0.0172829
34602.7 14.5425 0.0192686
22932.4 12.1834 0.0177857
21454.2 13.6669 0.025293
15814.1 11.9123 0.0211417
15798.9 9.31917 0.0190035
15341.9 12.2653 0.0252982
11122.7 11.3231 0.0271984
8567.08 9.42935 0.0269642
9213.96 10.2685 0.0306648
7516.72 11.7977 0.0381327
10097.5 12.371 0.0440002
7191.25 10.6989 0.042481
6454.28 9.34003 0.0374766
6964.02 11.0443 0.0452082
7021.81 12.4644 0.0601189
5676.98 11.192 0.0505747
6442.38 13.1338 0.0670301
5741.07 10.7337 0.0625956
5720.3 12.6761 0.070014
4372.25 12.3762 0.065854
4445.12 10.6972 0.0651773
3569.88 7.98919 0.0545635
3969.27 8.21334 0.0552422
4296.45 12.2375 0.0866914
4461.94 10.2698 0.0789254
3847.71 11.9634 0.094459
3843.18 13.213 0.112832
2892.41 10.4011 0.0851763
3025.54 11.2923 0.101464
2868.57 11.7548 0.105852
2022.06 8.02202 0.0810196
2882.18 10.4087 0.100187
2002.69 10.6994 0.115326
2245.26 9.4106 0.116308
2159.5 9.25614 0.114781
2360.79 11.5024 0.142675
2170.42 10.1906 0.129658
2248.63 10.3439 0.143836
2344.38 12.9258 0.180406
1634.74 9.78384 0.135719
1521.52 8.76242 0.134373
1526.99 9.09022 0.136873
1692.45 10.1123 0.167413
1344.72 7.80788 0.132414
1677.75 9.36042 0.166169
1224.3 7.99264 0.137513
1540.72 11.2395 0.19721
1438.76 9.23787 0.168316
1437.49 9.71957 0.179463
1358.61 11.6291 0.227807
1230.35 9.44953 0.188405
1293.24 9.87696 0.21043
1291.52 10.2137 0.218295
1199.92 10.8333 0.247119
1342.27 10.6133 0.232492
1148.96 11.8747 0.266661
981.989 11.3953 0.281218
1088.45 12.1289 0.286185
968.551 10.363 0.26745
968.874 9.2047 0.24358
1065.96 12.7515 0.348258
1141.58 12.1216 0.336661
795.843 8.78354 0.255212
822.788 8.84752 0.264486
729.855 7.183 0.211715
946.679 12.4312 0.38082
842.847 9.17242 0.289582
758.015 8.17255 0.255149
749.488 11.7992 0.374184
934.01 11.1494 0.376688
798.933 12.2816 0.433636
829.198 11.1721 0.383699
740.758 10.3589 0.379158
719.958 8.65917 0.323585
786.463 10.7729 0.406816
646.377 9.09879 0.362686
686.406 9.1178 0.381515
664.417 8.051 0.325071
753.705 12.1651 0.508044
563.222 10.0023 0.428092
657.054 10.855 0.495982
555.416 9.03763 0.38106
588.595 8.98001 0.409432
534.538 11.3044 0.518521
546.473 11.7804 0.548002
413.166 10.3951 0.482217
551.737 8.75745 0.418253
562.468 11.1285 0.5605
405.803 8.40652 0.426444
438.264 10.3445 0.531612
563.558 8.61249 0.462185
458.492 9.24568 0.505585
475.393 10.273 0.556538
522 11.2535 0.62045
481.58 8.39107 0.488465
360.814 9.19484 0.521878
455.221 8.14626 0.482527
417.317 6.68988 0.395736
431.229 10.6355 0.650323
395.945 8.35711 0.518448
417.973 9.64785 0.612744
414.061 10.6492 0.684161
347.198 9.70786 0.631443
392.434 10.7034 0.703277
315.834 8.07245 0.534556
356.082 10.2701 0.710136
335.087 10.2168 0.710165
380.935 10.8221 0.793338
391.94 10.6848 0.753829
372.619 11.1885 0.828489
317.139 8.91153 0.658035
260.442 8.4631 0.667672
355.215 13.1712 0.998328
304.798 8.09788 0.648917
283.014 9.88315 0.787476
351.38 9.73585 0.797663
317.149 10.3158 0.845602
284.089 9.07087 0.756686
268.732 9.16282 0.760349
306.293 10.4057 0.89676
260.906 10.0772 0.866096
281.097 9.54656 0.85448
264.749 8.39489 0.73408
200.059 8.39905 0.756397
256.184 8.16445 0.745786
220.742 9.72822 0.898983
286.162 9.40558 0.900799
278.288 11.8595 1.15883
250.539 8.95128 0.890676
257.105 11.2649 1.09907
241.825 9.91208 0.998386
251.334 7.92473 0.792248
257.423 8.92946 0.906329
258.13 8.61717 0.88941
203.177 8.78862 0.949197
216.061 10.4095 1.12144
224.5 8.73122 0.951715
202.082 9.05148 1.0364
245.063 8.96757 0.978756
199.63 9.22821 1.01694
175.623 8.33206 0.939825
197.909 6.56336 0.735949
185.574 10.251 1.22839
257.176 9.58543 1.16638
219.202 9.4189 1.12488
219.587 9.56153 1.17245
196.483 7.82198 0.931874
210.453 11.4265 1.45516
176.73 11.9485 1.52073
214.643 8.57213 1.09419
197.064 7.58209 1.00404
188.874 9.08294 1.17811
183.732 8.7852 1.21214
173.808 8.15714 1.07343
207.021 9.42362 1.19979
204.415 10.9044 1.55158
182.39 8.27019 1.08831
205.735 11.6073 1.62262
163.393 10.1791 1.40402
186.036 10.227 1.44327
171.721 8.99429 1.27833
170.84 9.89291 1.46909
151.47 8.5025 1.25507
207.207 11.6117 1.73023
164.603 9.95882 1.49331
162.753 7.94276 1.2779
156.386 8.55162 1.33894
196.746 11.6699 1.81231
145.105 8.98476 1.40483
152.721 8.92353 1.42813
166.104 9.05879 1.50504
150.848 9.30401 1.46588
147.401 9.7123 1.5609
126.97 10.1179 1.74807
142.85 10.1021 1.71396
131.696 7.64516 1.33157
153.869 10.5359 1.83296
129.11 8.7553 1.50063
173.607 9.65363 1.71191
151.967 10.1911 1.72151
137.613 10.9105 1.98631
151.172 10.6958 1.78672
133.538 9.65768 1.83159
138.608 8.28326 1.46919
155.991 9.70663 1.83022
96.2534 7.28019 1.35902
132.306 9.76748 1.84514
140.743 10.1643 1.94615
115.082 7.29977 1.43745
125.171 9.16587 1.82863
116.562 8.93747 1.69567
111.591 7.89921 1.60551
102.302 8.30259 1.71689
132.293 11.4531 2.30187
115.803 8.47494 1.63365
108.286 9.19358 1.9785
121.54 10.0608 2.03212
117.393 8.15434 1.76662
132.767 8.9902 1.86488
117.953 9.02645 1.92717
117.069 11.0913 2.45009
114.27 9.0996 1.94954
86.3842 9.45495 2.06008
106.517 8.13864 1.85818
122.605 11.4894 2.53718
103.869 8.87996 2.03439
121.281 10.9287 2.51975
99.2856 9.37581 2.11344
108.099 9.1248 2.18375
103.669 9.09473 2.12913
101.861 10.9163 2.61682
103.63 8.24377 1.96003
107.833 9.39259 2.25109
114.332 8.86857 2.14257
110.575 8.1446 2.03033
94.7967 8.56429 2.06175
89.2958 8.68927 2.09265
99.379 10.263 2.51092
102.57 8.91723 2.2767
93.9899 9.13565 2.48065
103.67 10.0089 2.5016
99.1671 9.59402 2.59937
100.65 11.2449 2.94749
99.1297 10.2075 2.79742
100.005 8.89876 2.34483
94.6085 8.84749 2.28887
75.906 7.5102 2.09862
91.8591 9.81637 2.61645
86.8081 9.18945 2.45623
86.3949 9.0074 2.65037
96.0269 8.7986 2.53329
95.1839 9.2078 2.60353
99.7143 10.5379 3.0846
91.9625 10.9457 2.97321
75.9244 7.92095 2.24378
78.2266 12.543 3.60148
85.1107 8.11598 2.37818
88.1711 10.1537 3.11222
78.9443 7.1165 2.06717
63.6242 9.15065 2.75012
81.8912 9.28549 2.84037
79.2964 10.1139 2.99762
70.335 8.57945 2.6868
91.5266 10.5738 3.33537
101.175 12.9659 4.00856
75.0384 9.55607 3.13319
71.9444 9.0196 2.79592
66.7033 7.78663 2.63286
85.9642 8.88501 2.73398
88.5109 9.64217 3.05264
66.2015 7.99828 2.66937
81.2941 10.0855 3.32621
74.8259 7.28432 2.31313
85.0711 7.93963 2.57974
75.1712 8.06207 2.92536
78.8344 10.6613 3.54261
55.8945 7.87771 2.59965
60.0171 10.3653 3.7402
69.1425 8.43644 2.75566
70.5265 7.6759 2.65586
75.6405 9.95529 3.24259
82.3914 9.37357 3.40208
68.1799 8.91881 3.44249
74.9567 8.46942 3.07095
68.1362 9.9265 3.3165
69.9398 10.7906 3.93568
62.9491 8.37465 2.93958
74.2628 9.89726 3.43249
55.8708 8.34191 3.25477
76.7968 8.86905 3.53229
67.5463 9.18397 3.62058
58.0978 9.94655 3.60103
69.5116 10.2564 4.00103
59.6765 9.74128 3.46403
54.7392 7.48629 2.91896
53.2008 9.33687 3.62322
72.6009 10.656 4.15151
61.0018 12.2694 4.82634
61.2645 6.23913 2.51605
63.6808 13.0535 5.10266
47.382 9.23915 3.71396
63.9081 9.64857 3.90621
68.6018 9.60348 3.85518
59.038 9.8658 4.2498
67.6026 8.01682 3.05205
55.5854 8.39726 3.57095
71.8873 11.299 4.58692
50.2684 10.1839 4.2645
57.0744 8.48005 3.50005
70.8054 10.9514 4.55927
55.0434 9.54789 4.34748
71.4449 9.89543 4.33856
64.0548 11.8842 5.01473
59.9523 8.79408 3.87995
44.7129 8.9906 3.82118
49.9989 9.44133 4.11683
52.5716 9.78743 4.53277
59.9664 11.4932 5.10998
42.5937 6.85628 3.24626
53.0847 8.3518 3.59902
46.3924 10.7216 4.87895
48.3006 8.87704 4.3509
52.7141 8.26179 4.01527
55.0824 7.66561 3.43368
59.1073 11.6307 5.53473
63.7174 11.7158 5.41319
59.7893 11.1707 5.24152
53.028 8.56693 3.95946
53.8575 9.98254 4.86579
41.6938 6.57762 3.30934
42.123 8.49606 4.04606
47.3073 9.11835 4.65004
62.3235 10.8244 5.0374
46.5592 9.14846 4.72826
52.4038 10.546 4.99781
48.1695 10.8313 5.5382
47.6673 8.51957 4.34437
52.9615 10.4558 5.20675
51.1794 9.99605 4.70886
46.7296 9.84345 5.04283
48.4251 8.23763 4.20052
43.0032 8.06358 4.10826
50.3799 9.07134 4.65707
40.2282 8.75264 4.39784
48.3372 8.82787 4.72262
45.2106 10.1493 5.40539
50.2218 9.14683 4.78161
47.6677 9.80011 5.67333
57.0783 10.2696 5.3606
44.2287 9.54929 5.05248
47.4059 11.1553 6.16833
42.1819 11.0129 5.89964
46.8029 8.2712 4.46725
42.3855 6.68735 3.86819
45.7272 9.94406 5.63607
55.9819 11.4077 6.3435
39.6828 8.75795 4.79093
41.1747 9.76586 5.44314
43.2438 10.4748 5.56992
44.7929 10.9362 6.19605
42.8475 10.6151 6.36565
42.0496 9.6573 6.00374
47.9199 10.3031 5.61711
38.0847 8.95065 5.6583
46.3225 10.7098 6.30102
46.3103 9.96398 5.72013
43.5921 10.9201 6.05991
43.3168 9.49188 5.51122
35.8243 8.41809 5.1943
37.3116 9.46023 5.45046
37.8005 11.0882 6.63337
42.6367 11.5896 6.59254
43.4163 8.51057 5.14937
36.4291 7.07169 4.56803
36.2891 9.37962 5.8617
34.5705 8.48691 5.03309
33.2567 6.96184 4.31939
38.1793 8.94905 5.79519
30.3928 9.23815 5.84398
41.2561 9.0684 5.80169
36.1768 10.6638 6.53774
39.0639 8.12209 5.1638
34.6992 8.34367 5.74207
38.5542 10.1773 6.40659
37.1725 9.92145 6.59923
38.9527 8.5512 5.64205
37.9786 9.83478 6.76248
43.0777 9.98398 5.99966
34.5816 7.71601 4.96277
39.4928 12.1711 7.64749
35.523 9.44653 6.49779
39.1639 10.1851 6.91759
34.5498 9.84859 6.46255
36.7016 13.205 9.12659
38.628 10.8383 7.12156
35.354 10.8059 7.7555
33.9008 9.41666 6.31826
36.4325 10.3594 6.78105
38.2916 8.22954 6.00092
34.4943 7.86765 5.58041
38.1133 9.45097 6.8058
34.8401 8.89345 5.95486
31.8612 9.21476 6.28964
36.3618 8.83744 6.31336
33.3081 8.55557 6.61222
40.6949 12.1992 8.54751
32.1856 9.94126 7.60637
30.8954 11.0441 7.95647
33.4707 10.9174 7.5811
31.2013 8.20822 5.90294
38.4072 10.6634 7.39827
28.988 9.267 7.49502
37.5134 11.6887 8.46928
33.2262 7.2054 5.7547
35.6038 9.27344 6.44972
25.7293 6.73722 5.03621
29.1506 8.61215 6.28952
33.0604 9.46076 6.92393
34.3554 9.882 7.82018
35.4757 10.7277 8.3719
32.2076 8.61523 6.2791
30.545 8.76098 7.11039
32.4983 9.1403 6.70307
31.1149 8.64499 6.92041
31.4921 7.78876 6.31457
34.7921 10.5199 8.48374
29.4328 7.89295 5.84311
30.4081 9.55251 7.34074
32.956 8.87508 7.39964
29.9975 9.31746 7.27518
31.7238 8.59068 7.0216
29.1083 9.82465 8.11428
27.9795 9.04944 7.5375
29.6875 9.35558 7.77712
31.047 10.7168 8.74041
32.6229 11.1616 9.23981
27.8857 7.75502 5.92147
28.7528 9.31143 7.42258
24.956 7.61771 6.53399
33.2375 10.1867 8.55073
30.2224 9.27162 8.18297
31.9859 9.98376 8.24712
34.1583 9.59527 8.07338
26.4462 10.3293 8.88533
33.262 8.46071 6.99594
30.9996 9.60757 8.29072
29.7417 8.87283 7.27782
32.593 11.7537 9.43247
21.0986 9.18042 8.26603
32.7917 10.552 9.25061
27.381 9.27704 9.33687
27.7861 9.24092 7.10792
24.5191 8.34634 7.33085
29.7541 9.06795 7.62434
28.0753 9.05701 7.89566
30.872 9.9209 8.77377
27.9267 9.98586 9.00855
23.9356 8.64817 7.1635
27.1689 10.0437 9.00452
27.0123 9.86884 9.49469
29.2465 7.5917 6.69238
27.8067 9.97447 8.64392
23.8789 10.1117 9.687
34.4571 12.8537 11.2587
24.9411 9.8725 8.87489
25.7305 8.84879 8.70458
23.4368 8.74979 8.56808
26.1235 9.33311 8.59346
28.7975 9.10149 8.01505
23.5659 8.59794 8.81326
28.5164 9.51553 8.73211
23.003 7.85705 7.47913
23.6226 9.60266 9.22399
29.1752 9.88359 9.2542
29.5459 9.28433 9.3477
22.0308 8.03508 7.75264
26.2497 8.69287 8.4036
24.6173 9.80183 9.51461
27.0469 9.37361 9.18055
24.7639 9.54007 8.49214
24.7955 8.2263 8.39445
21.2759 7.91946 7.82884
24.6425 10.9412 10.7229
26.3438 9.31973 9.62121
22.7362 8.95863 9.57496
25.1484 10.1924 9.62495
23.4885 9.84008 10.5717
26.1458 10.8661 10.1922
31.3899 9.68777 9.40795
25.8958 9.34572 9.08359
24.4794 9.74943 10.6738
24.6829 11.2561 11.9575
23.3216 8.74264 8.6455
24.9382 8.21815 8.10184
23.5411 9.95523 9.9681
23.3265 8.41037 9.31053
18.7142 9.76803 9.249
17.057 7.75092 9.3748
24.0295 10.5363 11.0037
27.0078 10.5207 11.29
21.8881 8.35596 8.73783
18.8938 9.50351 10.137
25.7512 8.90178 8.99152
22.9193 9.35495 9.53876
20.2457 9.46258 10.529
25.9009 8.92181 8.62521
23.2909 9.16165 9.9775
19.5389 9.74346 10.7143
23.0369 9.51497 9.9255
19.9831 8.20291 8.94102
23.5437 8.31889 10.2536
25.0895 10.1499 11.4118
25.5828 11.5707 11.2825
21.1273 9.83958 11.7423
21.7313 10.7184 10.9192
18.1099 7.6537 8.1639
23.7309 10.1803 11.6963
23.1452 10.3089 13.6642
21.4288 10.4999 10.7156
18.8575 10.7069 13.403
23.3932 10.164 10.073
21.2451 8.98313 10.0443
20.9106 10.0531 11.3547
22.7333 9.7964 11.823
22.2394 9.54508 11.4554
19.1801 8.30169 9.45544
21.9815 9.37224 10.4966
22.5 9.66751 11.5412
17.4045 9.48617 12.5406
22.9832 10.0069 11.4413
16.6674 8.15607 8.53617
19.0093 8.06658 10.0759
21.8158 11.1637 13.0309
19.8519 9.33745 11.7659
23.2087 10.9829 13.3389
20.1769 9.68394 11.4098
16.2731 8.93482 11.5931
24.4694 10.6353 11.2273
22.3928 9.15672 11.5703
18.79 9.64903 10.9282
15.7008 9.90138 12.5613
18.5395 9.6574 11.054
21.5577 9.20471 10.7036
20.93 9.04697 10.9532
18.874 8.08293 9.75518
20.17 9.3817 11.8448
22.1592 12.1105 14.4762
21.4607 10.138 12.5554
17.5185 10.097 13.6171
17.5617 9.95587 12.3767
19.9688 10.1434 12.4178
17.7745 9.18643 11.3913
18.6355 8.74204 11.4421
20.2993 11.1027 13.7258
18.0606 9.24942 11.5583
17.3501 10.1853 13.1698
16.9879 8.30674 11.2181
17.0867 8.58084 10.2171
19.5443 10.3732 13.6535
17.8573 10.6814 14.4992
19.4167 7.50167 9.15882
18.7635 9.60347 13.5016
19.8974 12.9691 17.6093
19.9638 9.94758 12.2378
19.3887 9.84521 13.0447
19.3123 10.2675 13.5843
16.0213 9.11241 11.712
20.26 9.33634 11.7646
18.8009 10.3028 14.0328
19.8338 9.91679 13.4452
14.4786 9.75497 13.0929
19.2519 9.29178 12.9107
19.4423 9.64293 12.6982
19.6015 11.9627 15.4371
17.5632 9.36474 12.9019
19.9553 9.74852 13.3328
16.8788 10.9265 14.1545
19.9174 10.9491 13.9121
20.483 10.0873 14.3626
20.4342 10.8915 15.0997
15.1897 8.73372 12.8739
15.9491 9.00742 13.0207
16.3549 10.1955 13.4447
15.4369 8.74626 12.1735
17.1905 9.76591 13.6461
20.1596 10.3771 15.0848
18.4009 9.21159 13.1795
18.2576 10.1266 14.8737
20.926 12.8121 17.3888
18.7943 8.86414 12.8154
14.3219 9.98154 14.1107
16.1052 8.00622 12.0506
19.2551 9.7267 13.3576
15.9663 10.8436 14.5857
17.0021 10.1602 14.3941
20.0196 12.1183 18.7452
18.2707 10.4248 16.4214
17.2654 10.2445 13.6749
18.4876 10.1376 14.7633
16.4228 11.4342 17.091
18.625 10.6132 14.2101
17.6521 9.69945 13.9434
19.058 9.357 14.7251
17.3623 9.39923 14.0498
18.6993 11.9738 16.8613
18.7476 9.75623 15.792
16.1045 9.76564 13.993
18.4304 9.68902 14.6194
19.3015 10.9523 15.8182
15.9053 8.1196 13.1597
16.1043 9.21429 13.6098
18.2566 10.416 15.0177
15.81 9.32959 12.6843
14.009 8.90308 14.9127
17.2888 10.5103 17.2229
16.0607 10.3467 14.7799
18.5095 11.0896 17.1683
17.2453 11.2243 16.6133
17.4385 11.2779 17.0171
15.9409 9.84317 15.6648
17.7371 9.40114 14.6405
15.1651 9.76952 15.6925
16.4936 9.58833 14.9607
15.134 7.7772 11.7477
16.4206 8.68581 14.1018
16.7159 8.67355 14.3579
14.3536 8.1154 11.3752
14.0435 9.93728 15.7931
18.4049 10.0795 15.0591
18.2287 9.75198 15.9433
15.4946 9.68197 15.338
17.3069 9.6062 15.6888
17.5056 10.0625 14.6361
17.2835 11.6382 19.1678
15.326 8.9016 14.8339
16.5815 9.59893 14.5424
16.3712 11.8829 20.6229
16.8612 9.76333 17.1422
16.4503 10.5629 17.365
17.3084 11.2408 18.7036
15.5724 10.2479 15.1039
12.3331 9.78601 17.192
14.7047 12.8017 20.5481
18.6868 10.1303 15.7895
14.4583 9.20076 16.5084
15.3694 9.28756 14.1963
17.1854 10.3795 17.9042
13.9435 8.70913 14.9878
14.6503 10.2297 18.6978
15.2794 8.9371 15.6166
15.8566 11.0193 17.3989
15.4546 10.5522 15.5586
14.9415 11.0436 18.9862
14.4482 9.64132 15.0595
14.4718 8.28844 14.5838
15.0883 11.2274 20.0375
14.8674 11.6118 17.3636
12.6778 8.41873 15.1239
13.0419 8.74829 15.8992
17.4605 10.0036 17.5743
12.8819 9.27618 13.4473
14.1429 9.16761 15.925
13.9422 8.65486 15.5216
11.856 10.7521 18.5583
14.4994 8.71621 16.1269
15.2442 9.90444 18.6409
17.376 8.73401 15.9186
17.5683 10.9869 18.7379
14.5403 10.1638 15.887
14.6328 9.25245 18.243
14.0103 11.9622 20.6213
14.2197 9.85819 17.0764
14.9204 10.2924 16.0899
13.3714 8.39072 15.5708
15.7751 7.69845 13.9144
14.5283 10.4155 17.1044
14.7747 8.73562 18.8025
15.1895 12.1096 19.9993
13.0262 7.8572 16.197
15.3613 10.2132 17.4832
14.6078 10.8893 20.3749
13.8825 9.61865 16.7595
15.1783 10.704 19.4898
13.6708 9.34443 18.3677
15.5985 10.4304 18.242
15.7536 9.32971 16.546
16.017 9.98009 17.3985
13.8069 12.6116 22.3755
12.2889 9.47286 20.0786
13.2995 10.8412 18.7029
15.3358 10.8439 20.7977
13.108 9.26784 15.3714
13.7666 9.23748 18.0184
12.2857 9.18389 18.3947
11.1652 10.7968 19.0423
13.6512 9.75339 16.9509
14.636 11.0681 21.9634
13.5765 9.04306 16.8605
9.81341 7.74196 16.6389
13.3064 9.76653 16.9276
13.8409 11.3333 19.8351
13.0174 8.95629 18.0811
13.7509 10.3273 20.3025
15.1462 10.9793 21.8494
15.1335 12.8983 22.4942
11.5482 9.64269 20.2173
11.8259 8.51296 18.81
12.2643 10.1498 16.863
11.6967 9.77756 18.523
12.7255 8.64144 18.8274
16.1511 11.8679 20.3022
12.7442 9.82764 18.879
11.9856 9.31041 18.6815
13.3567 10.8062 21.1749
12.8634 12.1312 24.8338
13.4464 12.0112 22.9149
13.8112 8.41318 16.9252
13.2912 9.80751 17.1342
11.645 10.6291 20.8495
11.2036 10.8934 21.8437
11.6447 10.0294 22.4434
13.6657 10.0765 20.0964
13.8961 12.3754 20.9612
11.4984 9.2829 18.5076
12.5678 8.69272 18.8424
11.8662 11.0978 23.3917
12.539 10.5048 18.9523
12.3698 10.3727 22.2202
14.2505 9.59661 20.1028
12.451 9.4724 18.4355
10.104 8.29706 16.508
12.3946 10.2906 22.861
13.0967 10.4004 20.8093
11.0328 10.1385 22.1007
12.3151 8.78617 17.4955
12.9208 10.9142 22.9204
13.1257 11.9872 26.7352
13.7786 10.4476 21.3461
12.2244 9.81791 18.9556
11.5908 8.72492 18.391
12.602 10.3447 19.0175
13.0652 10.2075 23.2703
10.7883 8.62704 17.3288
12.4434 9.80419 17.9221
11.8703 13.7147 26.9328
13.7747 12.3494 25.7593
12.3327 11.5143 22.8642
12.2613 7.89625 17.3375
13.1405 9.37223 18.8053
12.0004 10.2242 22.9267
13.2385 10.5136 20.195
10.0611 9.74869 21.4151
11.656 10.6686 26.0313
12.8364 11.1535 20.471
10.5867 9.30338 19.3339
12.7664 9.70198 21.0154
12.6436 10.4059 24.3418
13.6333 11.6237 23.5969
13.3333 9.39093 20.912
10.4175 11.4904 24.0041
12.411 10.6588 23.0971
11.4717 8.2447 16.3309
10.6622 10.4142 25.9925
12.7652 8.76324 20.5306
11.9051 10.5623 23.3421
11.5069 10.0358 20.3135
11.8635 9.95 20.5022
12.7679 10.2921 22.2484
9.30979 8.72235 20.3494
9.87726 9.29952 20.6004
11.4772 12.257 25.1654
11.8672 9.71363 18.5774
11.542 10.4468 22.9588
10.9901 10.1514 24.3996
11.3676 9.55405 21.8399
12.673 10.073 20.9233
9.73046 9.41082 23.0176
10.5677 11.3093 25.5056
11.3084 10.6251 22.4476
11.2123 10.8308 25.6922
11.286 10.8032 22.9438
12.4424 10.2753 21.7803
9.12414 9.51145 23.2434
11.8153 10.33 22.9697
10.294 9.30799 20.6539
9.93114 9.92662 26.5599
13.5663 11.8621 24.168
10.5316 8.36879 21.0442
11.4244 12.34 23.9261
12.1195 11.425 28.0054
12.2146 11.208 24.6835
9.67374 10.9681 26.4904
13.8417 9.29712 21.1166
10.7545 9.14918 20.7414
9.46484 9.95943 22.0188
9.96874 9.90816 26.3913
12.9915 10.2981 20.8029
11.0691 12.2528 29.3355
11.1288 10.7774 23.87
12.6439 9.82507 23.0455
13.1535 10.2705 20.4246
10.1505 9.34777 22.3522
8.45374 10.3047 27.0794
13.6163 10.7296 23.8827
11.041 10.0911 23.0598
9.10517 10.625 25.5544
10.0235 8.95343 20.4515
10.3885 8.74699 20.28
10.7025 7.52259 15.6058
8.99088 9.75663 24.633
9.72804 8.32025 19.7579
10.9061 10.0737 24.1158
11.0215 10.5773 23.6466
9.74093 9.55015 27.4777
10.7371 13.126 29.4373
10.7299 9.3462 21.3745
11.1062 9.13845 22.5333
11.1754 10.8469 26.1053
10.2117 10.2263 22.1503
8.64503 9.57721 24.851
10.4929 10.4985 26.0209
10.323 8.3466 19.5851
9.57019 10.3873 25.377
10.7065 8.21791 21.7732
10.5027 11.1724 28.5691
11.298 11.3214 25.7171
10.6186 9.60305 24.0593
13.027 12.7044 32.6496
11.3832 11.0425 27.9773
12.4614 9.86485 18.2059
9.07453 9.39418 24.6875
10.2709 10.7128 25.9465
8.14223 9.61343 23.6966
