# pn-170911/RbIIA-35-PTBB-1280-1959.psd
# Power spectrum* (dif=0,1,2) (really just |FT|^2)
# NOTE: only the first half! (symmetric)
# weeks: 1280-1959
# 1 clock-days, 0 excluded
# PSD: 1441
3216.41 4.33688 0.000665268
6.71524e+06 103.3 0.000872257
4.01447e+07 552.211 0.00927298
344394 2.41461 0.000760795
740997 75.0328 0.00850564
639946 37.4037 0.00246127
80193.4 0.682873 0.000547584
93011 3.90361 0.00239991
274872 50.6397 0.0112463
142604 16.6217 0.00430879
139242 17.4597 0.0110182
37064.8 0.0432857 0.000242181
23963.6 2.03491 0.00291836
59916.7 7.7452 0.00521678
3484.84 13.789 0.0142975
14757.8 5.20482 0.00831309
33566.2 7.13159 0.00641458
5641.8 5.26672 0.00880466
7503.29 1.42423 0.00181854
9071.53 0.806218 0.000660298
15130.7 1.72051 0.00548201
15207.1 2.54273 0.00391054
3254.77 3.75912 0.00748196
12572.2 4.62573 0.0156209
15217.1 4.7556 0.0162935
7723.05 0.149695 0.00050489
2742.34 2.8961 0.00778601
8496.34 2.13404 0.010547
3776.41 2.90859 0.0140258
10323.7 3.77187 0.0172014
5196.8 2.55272 0.00749635
3376.36 1.71873 0.0102371
6081.09 2.18386 0.0147752
4580.07 0.235018 0.00102373
4803.04 0.752358 0.00680195
2916.53 0.182842 0.000431089
3270.5 0.015461 0.000871312
1994.81 0.882377 0.00428167
3122.87 2.03571 0.0189501
815.322 4.32688 0.0294336
3105.23 3.61442 0.0214552
1593.31 1.12032 0.00736322
2714.78 1.42456 0.0166013
3008.2 2.1007 0.0139705
2543.2 4.0048 0.0313999
1393.61 1.50967 0.0158019
1507.73 0.60748 0.00749385
1951.68 0.284325 0.0013262
2455.68 0.481436 0.00569521
1315.09 4.47724 0.04493
1884.19 0.427438 0.00695516
4478.57 8.65855 0.110094
1586.84 0.054056 0.000494124
1789.88 0.517046 0.009847
1811.7 1.19247 0.0223288
1413.87 0.57626 0.00547349
884.563 1.01524 0.011358
933.017 1.02998 0.0174127
1576.74 1.88456 0.0262738
1747.18 0.921402 0.0194289
843.074 0.72105 0.00830973
385.912 3.68595 0.0606726
1516.27 0.571865 0.0120215
643.953 2.58453 0.0478555
1240.66 0.217921 0.00518676
553.29 3.68185 0.0715205
761.497 1.79641 0.0392923
1133.26 0.742143 0.0179502
1214.01 2.08524 0.049763
903.907 7.23033 0.171712
600.323 1.68577 0.0433019
973.631 3.95433 0.107979
1163.73 0.870171 0.0273643
593.43 0.776469 0.021124
767.442 1.90889 0.0585173
612.37 0.358304 0.0116335
1356.81 4.11174 0.129642
260.506 3.46485 0.0954198
912.943 0.367772 0.012665
945.41 1.45591 0.0541594
533.815 1.00355 0.0358539
465.364 1.04607 0.0374371
444.513 0.623779 0.0210899
398.613 0.834096 0.024812
263.73 2.73857 0.0983065
650.277 0.419933 0.00768796
715.849 1.12744 0.0308911
773.715 0.793942 0.0269291
324.892 2.527 0.0917609
955.743 2.71163 0.1011
674.339 0.693034 0.0328901
487.459 0.396751 0.0211519
486.114 0.130684 0.0102336
1025.35 3.87705 0.15581
557.49 0.854602 0.0307087
597.826 0.85585 0.0360381
945.038 4.13447 0.194619
559.009 0.37695 0.0262269
487.828 1.09329 0.0600646
273.412 0.970132 0.0408365
555.561 1.10604 0.0704082
162.029 3.38706 0.149588
543.826 0.389296 0.0166184
504.402 0.321635 0.0148807
663.585 1.81206 0.103086
437.823 0.234037 0.0138925
653.952 2.73414 0.177659
314.498 1.15954 0.0492459
344.157 0.25525 0.0162364
322.663 0.0241158 0.000782371
284.857 1.06597 0.0655737
212.392 0.816392 0.0371495
186.453 4.3422 0.219132
235.565 1.40231 0.0742673
241.033 2.154 0.129392
209.248 1.15735 0.073491
273.133 0.44757 0.0309174
593.779 2.94043 0.195952
195.128 0.841487 0.0450371
281.07 1.52965 0.106514
424.515 1.05151 0.0887299
185.473 2.57106 0.160368
487.591 1.80215 0.133882
244.28 0.117422 0.00796418
248.051 1.29627 0.0790376
314.676 0.175705 0.0251603
109.248 7.80743 0.534413
223.913 1.88109 0.142477
280.269 3.58536 0.29373
307.104 0.127814 0.010606
192.489 1.15673 0.0982114
396.259 1.51803 0.112856
323.472 3.91111 0.328532
288.935 1.18785 0.11415
240.177 2.41723 0.230551
408.527 4.47012 0.44838
324.025 0.797119 0.0743054
276.29 0.419993 0.0628399
134.816 1.2655 0.11285
266.497 0.277396 0.0240523
181.065 0.675022 0.0706089
117.198 1.9529 0.186531
394.876 4.88915 0.508611
118.987 3.1484 0.285277
338.606 1.55271 0.136919
430.308 3.96737 0.392343
320.045 2.16744 0.276875
241.979 0.42432 0.0540768
199.037 0.27921 0.0210855
191.877 0.0354723 0.00156644
288.291 1.15381 0.145143
285.515 1.53448 0.228006
98.47 1.21403 0.0813214
175.215 1.70459 0.173339
214.782 0.332882 0.0533795
147.764 0.167307 0.0096997
155.405 1.49198 0.189858
140.903 2.38542 0.229649
237.73 1.20931 0.179056
137.779 0.316867 0.0164773
143.611 2.54543 0.295372
70.7565 3.27011 0.38403
80.6189 3.09383 0.343244
174.347 0.036879 0.00226174
86.3674 6.51791 0.812292
267.105 2.69206 0.370656
139.773 0.65954 0.0558751
154.343 1.05879 0.139599
165.399 0.0880354 0.0267533
84.1689 4.38514 0.586178
219.638 1.93623 0.252789
77.4331 1.70314 0.205587
79.0605 1.92927 0.312013
264.03 4.02103 0.545122
130.978 0.337778 0.0382707
92.5131 1.34326 0.219714
258.344 3.00931 0.40339
165.219 0.609387 0.108247
176.663 1.41868 0.274613
178.521 0.740555 0.0931879
151.962 0.362841 0.0510257
179.05 1.13744 0.223262
167.876 0.820055 0.145496
89.2653 1.59373 0.20087
144.776 0.157704 0.0380295
154.904 1.37004 0.228608
99.0609 0.15391 0.00933276
78.4498 1.86328 0.267786
186.299 3.50923 0.648198
90.6008 0.642963 0.145271
121.707 0.325264 0.017718
143.907 1.57875 0.237744
93.003 1.33597 0.216153
92.6534 0.637746 0.0923634
56.8516 2.04577 0.349553
138.653 2.47263 0.44841
137.256 1.11175 0.180149
203.416 3.0219 0.659019
123.207 2.10429 0.312028
62.3696 3.10498 0.472181
88.7593 0.873986 0.161906
228.425 5.23705 1.1378
59.8836 3.91979 0.582009
35.256 8.92391 1.68768
73.4377 2.83899 0.790428
127.433 1.83197 0.214561
135.318 1.98046 0.414767
58.4351 1.9035 0.318833
76.9658 0.92843 0.173788
43.2605 2.98059 0.646456
106.418 1.29652 0.263091
160.746 3.06538 0.663131
115.554 0.368119 0.0616458
108.538 0.141933 0.0482262
81.2512 0.371825 0.0615445
29.6661 6.44788 1.4146
71.5646 0.864258 0.332883
140.461 0.737242 0.0755826
165.856 1.83075 0.290356
230.133 7.8408 1.91829
65.2997 0.776724 0.0850735
114.666 1.27948 0.272369
117.755 8.76942 2.05135
100.705 1.76515 0.673446
24.4378 5.88299 1.34296
65.2812 0.365512 0.108137
38.8224 2.84401 0.599781
54.0205 2.09977 0.591072
132.288 3.68136 0.987265
86.6519 0.00635284 0.0234045
79.0745 2.49256 0.497787
46.8934 2.49421 0.723573
111.126 0.508768 0.153607
119.126 0.878094 0.171273
84.3666 0.189838 0.0243462
85.8353 0.14383 0.0759014
53.8078 0.695875 0.203948
72.8389 0.511335 0.0990732
96.0512 0.940722 0.160055
71.6926 0.800811 0.269197
184.423 5.85756 1.4242
71.2113 0.541871 0.163893
150.164 3.76323 1.09303
99.8433 1.24433 0.405324
78.2904 0.238198 0.191341
58.5341 0.0751856 0.023474
82.244 5.45253 1.26082
30.2606 2.79984 0.653148
50.848 0.991008 0.310045
110.844 3.40271 0.982958
60.1134 0.280193 0.0643367
82.7916 1.58607 0.469083
62.7646 0.0843643 0.0333297
89.6975 0.659646 0.273311
47.6606 0.972442 0.23055
76.4536 0.0890289 0.0271031
102.388 1.80624 0.859834
7.98253 7.91223 2.03821
56.749 1.27095 0.349299
85.4585 1.3347 0.333896
45.0949 2.87324 0.912097
85.9496 1.89657 0.72909
66.1212 0.109297 0.00725456
57.5265 0.41968 0.187432
91.8603 5.20843 1.57288
59.7192 2.30082 1.06044
114.768 2.80943 1.07871
39.0363 0.723198 0.279541
59.7903 0.991315 0.166579
101.802 2.40238 1.03838
28.2068 1.28147 0.245855
28.6746 7.41816 2.12673
27.5263 4.27811 1.43235
20.8279 5.67627 2.55335
100.617 1.76369 0.548655
93.8001 1.09693 0.358476
44.8511 0.515629 0.32674
81.1482 3.86568 0.964526
114.638 3.07764 0.892047
78.98 4.38262 1.25598
45.9137 5.07679 1.95168
118.261 5.35842 2.04942
66.1039 0.525419 0.412187
46.921 0.11365 0.00455225
45.8721 0.175237 0.0557638
61.8742 0.29109 0.0682
34.9531 1.86828 0.701869
75.4502 2.65148 1.14724
97.5055 2.33661 0.821061
72.4126 1.03518 0.599411
20.9437 3.14498 1.08953
105.644 5.18317 1.67123
47.1906 5.6171 2.26264
58.4383 0.133108 0.0324966
67.963 1.85618 0.996866
16.1378 5.96148 2.43304
112.442 6.20175 2.22133
51.761 1.33854 0.86137
19.1979 3.06431 1.03701
33.3044 2.22486 1.5449
118.883 7.32697 2.31956
70.7348 1.42517 0.803066
45.2851 0.757064 0.181071
83.9167 2.69318 1.26209
40.2995 2.35785 1.05448
62.9198 0.868891 0.650921
22.1833 1.29875 0.252103
17.1164 3.65035 1.53527
60.8882 0.475164 0.153891
61.2875 2.45354 1.46475
29.4194 1.26726 0.247225
18.2287 4.07135 2.06976
94.9253 4.88365 2.35574
44.2889 1.88814 0.42146
22.7295 2.91761 1.10695
48.8595 2.41748 1.10203
43.4587 0.452524 0.328645
17.324 4.53823 2.87343
105.364 4.36559 1.30234
55.1563 0.741114 0.310786
43.0081 0.117015 0.10609
52.7707 2.67529 1.18439
37.256 0.470586 0.397126
65.823 1.55532 1.16436
34.1651 6.14402 2.19009
88.3638 9.5474 4.75065
34.1131 0.382287 0.405897
30.0816 1.44938 1.32237
91.6589 4.60816 2.24758
20.4869 2.71492 1.08024
89.1663 6.81806 2.93207
26.6283 1.11972 0.369934
38.0189 0.594451 0.327937
38.4657 1.16231 0.762646
8.54654 9.42027 5.02939
77.1214 4.62876 1.77672
45.3308 0.00363577 0.0306734
65.1234 1.31344 0.622996
55.052 4.13181 1.54484
37.9844 0.556559 0.209023
100.401 13.2932 7.11094
12.1419 7.22705 3.86104
55.4105 1.38197 1.03264
47.0318 0.343841 0.287219
36.965 5.50304 3.80885
20.3312 2.59311 1.10041
29.5236 2.24369 2.04954
45.6963 0.141027 0.0609954
47.0305 0.163384 0.276645
23.423 4.67081 3.47458
104.473 6.44627 2.05555
56.321 1.30952 0.430223
57.0611 1.18125 0.428161
85.7184 8.89978 6.25005
93.4239 17.5422 8.88924
18.4093 0.981963 0.294517
36.5856 0.433336 0.340967
52.0618 2.58746 1.75462
24.8229 1.87879 0.943878
78.6106 5.67393 3.16837
39.6961 4.46622 3.47685
59.6429 6.63505 2.9751
26.5318 3.26564 1.95089
28.3609 0.220362 0.195162
56.016 2.83952 2.10441
23.1206 3.21797 1.29383
36.2237 1.95657 1.45673
27.0558 0.392002 0.349171
53.9444 1.50931 0.833272
31.0047 0.226691 0.170043
27.9687 0.132241 0.0941228
11.1259 4.87922 3.51316
49.1244 0.314998 0.211354
71.9039 3.97823 1.82303
30.5312 0.108571 0.213467
72.7446 4.79598 2.32291
61.0069 4.3363 3.37222
30.1968 1.1871 0.894206
20.5214 2.00477 1.36562
43.0033 0.707493 0.683096
37.026 0.758424 0.465519
42.7304 3.19871 2.40471
32.7235 3.90383 5.11622
44.0538 5.75619 1.81613
20.2028 1.8323 0.514195
20.593 2.38027 1.19235
32.5029 6.59035 5.46245
87.5719 9.59661 5.4769
22.4886 2.63098 2.20456
70.9823 12.0613 8.17051
32.0005 0.201115 0.760586
25.7144 2.57171 0.906564
79.1336 10.4137 7.44845
25.0455 9.35327 5.51982
19.5563 1.89725 1.94069
44.8073 1.80906 1.34202
18.256 1.14015 0.733514
30.7097 0.322961 0.0216376
45.7463 3.76077 2.32424
34.9717 1.79104 1.76789
27.1902 3.0589 3.45248
11.4364 2.84197 0.997555
27.3737 0.0717526 0.119973
15.9184 2.98895 1.97199
27.1029 0.67225 0.662695
51.5894 8.29113 6.73303
43.0798 4.63857 4.06054
12.1652 4.47145 2.14846
24.3591 1.46665 2.22328
11.6107 4.44776 1.68209
17.4972 1.01958 0.420288
15.6942 6.53681 4.54516
28.049 0.206822 0.312095
5.60794 9.30194 8.48035
30.7184 0.60208 2.78059
83.6898 11.0027 4.24924
64.1496 14.0991 12.1023
6.49502 4.58355 3.01905
28.4701 0.579805 1.07141
13.3239 2.01239 1.94246
16.8555 4.86915 3.55882
18.581 3.26084 5.15989
49.2923 3.82213 2.86878
86.4991 12.4059 7.43193
28.0786 2.18759 1.86512
21.506 0.991236 0.878126
49.0234 2.75715 1.8089
15.8633 1.25088 1.2654
33.8916 0.0233645 0.189356
50.4626 6.13462 5.07319
75.8491 11.8565 7.29291
38.6377 2.78643 2.50762
33.9974 2.56378 3.28874
38.3004 3.09674 3.57121
11.5819 1.38791 1.5519
30.0029 6.57298 3.29608
20.9954 7.60105 9.08223
67.0557 9.81874 5.46028
42.1924 4.79246 6.47437
11.9945 6.626 3.69483
46.4359 7.1592 5.88496
43.4541 4.13557 5.21802
10.0985 2.11763 1.01923
19.4954 0.981058 2.25952
75.8419 11.0529 6.64814
46.7044 7.14587 8.09433
32.4782 3.10466 4.98018
11.8891 0.298144 0.0737135
16.1017 0.460382 1.43822
15.2582 15.0764 13.6049
87.6955 17.7813 13.1502
30.0822 3.84487 7.68348
11.0997 3.49864 0.854322
24.1851 0.219078 1.14213
38.7355 7.69953 6.43781
10.045 8.48256 5.7869
26.4935 0.376309 0.756018
23.9497 4.84707 5.05723
6.69042 3.3111 1.86401
30.0806 0.911331 1.49833
13.8659 6.03665 4.07439
16.3005 0.811388 0.745159
32.3309 3.28095 3.29883
30.4676 2.12471 3.88491
11.0141 3.62775 3.8747
9.59637 3.25028 1.49074
18.9873 0.348286 0.135567
15.3416 3.28848 1.9719
13.3305 17.8508 21.1776
20.5602 3.64749 2.24921
31.0556 4.51628 3.78343
31.6475 6.41871 7.58706
30.8384 3.55582 1.96007
16.9572 0.246344 0.229875
19.6571 3.91135 6.53497
32.4363 15.6811 12.2476
12.969 1.13217 2.31394
23.1863 4.80814 2.88057
5.86752 5.33119 4.18041
13.1658 2.77943 3.91835
21.8253 0.481749 2.05082
45.236 3.26988 1.77633
27.2678 2.13616 1.63067
34.305 5.02281 7.15836
10.6955 1.93582 5.06592
15.845 19.5391 16.0489
44.3882 7.47532 9.76693
24.5251 5.91704 3.28966
26.4728 1.53909 2.31796
10.6981 1.62815 1.48535
17.3454 10.7712 10.7898
25.3357 0.244961 1.18442
16.9866 3.10206 2.69548
28.4651 1.37443 2.38958
22.3507 3.64363 2.23423
48.4327 12.8789 15.9025
0.66123 14.6524 16.2227
57.3643 10.2764 11.0259
17.2075 3.53348 2.1998
25.8696 1.34174 1.54915
14.9955 0.666126 1.14711
28.8597 1.58135 2.05323
20.805 5.88245 11.1591
11.6657 3.22741 0.29469
7.06315 6.08541 3.93607
9.71776 3.63151 4.6791
20.2728 1.47421 2.84114
32.4719 0.930131 0.244929
24.4916 0.450432 0.337414
28.894 2.20028 3.38974
23.853 4.24626 3.55447
25.692 1.17333 1.43036
14.3685 1.12476 1.51701
28.8018 5.01956 6.36755
25.7868 1.15304 2.76912
26.6295 15.0569 13.7893
24.9767 2.03903 2.7126
42.9471 11.5429 15.4922
19.9854 22.9252 20.4224
6.76555 24.261 39.1314
49.4417 12.0913 14.1013
0.600975 27.367 26.8884
37.9053 4.54626 7.58463
19.1939 2.99367 1.89895
8.22512 3.17417 2.75056
8.44113 3.51589 5.45368
26.3402 0.866953 0.685239
15.8376 3.02898 3.35523
14.4417 6.59311 13.4435
2.41596 15.8533 13.6597
4.95037 17.4289 35.776
42.2427 0.598131 5.89304
67.3016 19.7468 12.9001
9.69171 1.21553 3.02555
28.2624 5.74154 3.97284
33.4721 4.76459 7.04981
14.2915 0.21732 5.39138
34.0653 25.528 20.5714
29.996 2.53341 3.54125
6.68196 2.48465 4.22303
38.4803 25.8123 23.6153
16.3988 3.88843 9.45904
9.90385 8.05811 7.53948
10.4604 19.8376 32.3218
38.2431 4.31654 5.92634
47.7917 8.99921 6.24725
23.4056 1.93302 5.70773
39.611 10.6182 6.89229
27.9016 8.71768 14.2887
8.40014 1.03505 2.52585
13.195 0.68519 1.92125
27.7627 7.83954 6.94789
12.593 0.447368 0.398757
12.2289 1.10082 0.978412
6.66858 7.29325 15.1651
37.4096 7.2104 9.50304
28.5743 0.750965 2.17132
23.5958 11.8006 16.5103
47.4129 5.72303 4.02159
46.902 21.8053 29.3421
55.821 17.8027 10.3262
45.7711 15.9994 20.0277
18.0814 5.94379 16.5357
17.2957 26.4197 34.4611
61.9912 20.3772 21.865
11.3833 0.716877 3.02045
22.5585 2.17401 4.2052
18.8183 3.73681 14.8077
19.3095 11.4103 8.43737
5.82526 5.85733 11.1784
31.9327 9.84896 6.12583
21.2184 1.1844 0.788788
23.102 1.89428 3.81995
20.8037 3.65901 1.56706
45.3364 17.9997 28.5218
6.36722 0.25031 2.4692
17.2752 23.117 22.1185
23.3833 1.92018 2.30161
21.6243 5.82167 10.1024
9.87376 0.369392 1.38584
13.7805 4.86218 11.6003
9.01537 5.50884 7.41517
10.2685 6.6124 2.2903
7.77232 19.7359 26.6816
15.1103 1.96466 5.86524
33.6783 16.6873 23.457
37.5229 9.96765 18.4396
20.674 3.45652 6.95534
5.01039 4.49326 4.19246
15.6354 9.87607 14.7967
12.8136 1.14569 6.54907
41.5096 9.00915 10.9068
23.2076 3.82113 5.95821
15.5114 1.32674 7.29914
22.8298 6.89614 14.7216
23.5096 45.1781 61.9383
10.5311 4.54627 0.602231
0.475573 17.7898 25.0169
33.7156 7.85509 14.5334
6.35542 10.3274 14.2642
35.4796 5.64567 5.19689
12.5553 3.67967 12.0867
30.4805 29.8366 41.3091
20.8199 1.61515 2.35757
11.6352 3.41574 18.7698
20.8798 19.5502 12.2367
3.60738 9.29876 12.5307
24.2216 3.93841 5.6012
8.88323 0.821752 1.1992
10.3132 1.55836 3.67664
18.7528 8.31702 12.3156
26.662 4.18614 8.9527
15.1019 0.54227 0.701574
13.7001 5.38767 5.89316
16.1866 0.111864 0.0464131
14.3224 1.11813 2.76283
36.2787 13.3981 25.791
3.9053 2.17825 0.148602
13.0694 7.3064 12.0322
12.879 3.67586 4.49502
10.2623 0.0804956 0.91115
12.8309 8.82158 10.3397
4.78723 5.97466 13.9392
15.5502 7.83528 6.97004
12.719 2.54772 9.47555
32.7695 14.2938 19.8008
6.37276 0.813029 1.5239
6.03089 3.19577 5.70731
21.8208 12.1765 16.8477
12.1875 0.722086 0.536161
10.7578 2.11448 6.47089
30.1812 6.00692 9.89148
16.5794 8.0216 22.7551
1.09515 25.9896 23.7435
9.02957 4.25864 7.81739
6.00407 15.9471 42.5188
43.2664 5.65231 4.75578
21.8449 6.81002 6.80237
18.75 1.73468 6.06471
26.1302 6.73334 10.1336
35.4841 19.2543 31.2369
13.4373 3.06126 2.47298
6.19403 4.59225 5.93011
16.6194 3.70035 12.6088
18.9492 2.56037 0.226436
26.3084 13.799 21.0212
20.238 5.19853 17.4142
1.10857 13.4873 14.6518
16.3769 6.05754 12.6125
16.5431 3.65872 2.90751
7.15405 1.55692 2.09911
10.6936 7.52392 17.1422
18.5727 1.40537 0.761526
9.9598 6.53173 24.5632
51.9759 18.7977 18.6498
10.8231 4.1486 7.8127
4.26839 4.88068 8.79986
18.316 5.65437 19.7074
21.5489 7.16963 13.0091
45.0511 16.9403 22.5641
24.2476 17.2764 26.9231
8.88315 4.15384 6.22881
15.9105 1.82418 0.906489
18.2781 5.18861 18.4103
1.93854 27.7634 39.0719
13.3049 8.33358 26.415
26.9493 0.506445 8.85324
40.5501 8.0497 3.70412
19.8422 0.516772 2.61431
28.4965 11.8614 20.9078
39.0363 7.04225 3.61709
51.2516 26.101 19.953
32.5901 21.0504 36.6076
10.7709 2.63511 10.2644
6.26038 5.05794 19.0055
45.6375 26.0036 33.0869
10.8507 2.91089 17.1348
11.0255 12.7775 12.5025
18.126 2.61545 4.79928
11.3941 1.90898 16.016
22.8081 27.7342 25.5706
30.9911 25.9151 52.3857
14.664 0.191925 5.18041
39.2471 22.5774 30.5196
16.7087 8.97833 26.8175
6.59075 2.11681 8.66112
6.70528 4.11332 10.2988
13.2231 2.34047 8.90758
12.5178 13.4317 38.4569
4.47429 4.98706 2.36807
10.9958 13.2967 32.6289
21.211 3.25069 17.1424
22.9115 16.6873 25.0985
4.67491 8.85391 26.8032
32.7829 22.5045 23.1036
14.134 4.31563 14.9224
4.55247 4.21848 10.4057
10.8254 2.46024 4.26226
37.8643 37.3282 106.941
8.26494 31.0388 41.0684
19.8041 17.8137 26.7545
14.0021 4.3971 9.38992
15.1451 8.48912 24.8308
1.50502 20.5381 40.5657
23.4716 7.20433 31.2852
2.02307 30.648 45.097
27.4631 3.43587 4.99019
16.0462 22.1067 30.4773
21.7654 2.39331 1.61543
22.0376 7.85642 16.9641
14.7721 6.79817 9.4328
12.5948 13.0258 27.9422
7.41023 0.257747 3.03768
12.5901 9.53311 35.6192
11.7204 3.26019 16.4915
6.91128 10.9317 22.732
3.9716 1.79839 0.259162
15.9658 9.1817 54.1671
4.40976 41.4958 52.5101
40.3734 29.0241 75.5167
0.0801409 5.35551 8.45586
1.30538 10.2397 2.52261
2.5793 3.68687 6.43509
3.22822 17.0713 10.4611
9.36757 33.5454 67.1076
29.3557 8.05771 19.2304
5.0432 27.6616 58.6977
6.11613 11.3019 19.8593
10.8445 2.53066 26.1079
41.7505 38.0889 58.2947
1.31258 11.1008 29.0453
30.8071 18.3794 31.6375
0.22966 18.1401 30.4238
13.7927 0.52179 7.68121
25.033 5.93139 7.44073
11.197 11.216 55.8023
31.3767 21.1654 26.4847
3.97155 1.51968 2.38946
12.3002 19.4959 33.0506
1.64648 6.27485 15.9287
3.83743 2.18996 3.79364
3.41524 20.0693 27.9421
13.993 0.0874168 1.41963
5.99474 19.4649 46.5478
30.0352 11.0179 28.345
3.4532 2.59892 1.15199
11.2843 10.5301 26.3786
0.360328 22.9247 21.0334
7.8147 6.6963 18.9304
10.318 12.5769 20.666
12.0687 0.261999 5.24235
3.5865 32.2517 58.1032
18.215 0.577651 3.02707
4.73119 23.2015 35.332
9.8774 7.44486 35.3037
10.6658 19.5238 61.8358
45.7666 20.1693 26.4925
3.94972 28.2417 61.0512
20.9621 7.63021 15.4434
13.8205 2.55384 2.16231
0.0131234 56.7207 210.336
91.9497 51.8918 31.7809
19.5255 11.4343 30.7861
1.60426 9.54345 20.8195
18.8019 1.1357 12.3276
43.6311 32.4373 57.6392
1.68614 3.62993 12.4166
23.9855 15.5308 30.8993
5.25599 2.70542 2.08292
10.9119 1.34132 10.1537
21.7906 19.2681 40.1451
9.16694 4.77364 7.25228
4.09618 2.80605 9.8654
13.5272 8.67659 16.009
34.1164 29.7868 81.1148
2.14447 18.6481 26.0038
17.0941 4.50165 4.57466
4.17729 13.4708 21.1413
18.6878 13.7454 42.6112
8.47034 4.7619 5.31189
8.05065 12.0991 24.2626
13.7572 15.0809 80.63
33.6722 14.5276 9.75743
3.70954 4.29963 25.4214
19.341 20.6984 57.2163
57.6473 44.1231 49.3393
12.44 8.98418 31.3964
12.0524 11.9111 59.2684
0.510249 9.27492 0.873719
2.19956 13.6665 31.1899
9.28672 2.36253 32.4489
35.0754 50.3795 82.5736
16.7119 6.05549 19.7146
4.10408 28.0745 56.5403
24.1582 3.94102 7.24798
21.8571 8.64027 14.4073
8.12465 1.3659 7.99135
18.6174 6.49443 17.5824
14.8832 9.48355 42.7228
1.54049 11.055 7.95785
3.1307 8.3736 37.8636
24.0495 31.2901 48.6651
10.4439 1.11784 8.75318
16.8781 5.92836 24.7455
