# pn-170911/RbIIR-44-AMC2-1280-1959.psd
# Power spectrum* (dif=0,1,2) (really just |FT|^2)
# NOTE: only the first half! (symmetric)
# weeks: 1280-1959
# 485 clock-days, 63 excluded
# PSD: 1441
1549.55 0.121182 0.0517989
102398 2.76346 0.0960581
190098 2.87612 0.0979426
53700.8 1.33046 0.0885663
36067.3 1.87611 0.104195
14830.8 0.832862 0.0949611
9949.73 0.753404 0.105094
7009.35 0.745951 0.110291
5736.78 0.805681 0.105184
4184.09 0.678391 0.0996965
3449.64 0.680478 0.0941894
2783.19 0.680764 0.0936944
2430.37 0.722605 0.110221
2110.51 0.724355 0.111413
1960.85 0.793486 0.110775
1757.35 0.853157 0.104804
1472.24 0.918858 0.0914464
1405.07 0.990331 0.103324
1304.87 1.07914 0.0965859
1236.37 1.07851 0.0927242
1140.89 1.2528 0.104859
1140.68 1.43834 0.102435
1127.42 1.4812 0.112157
1005.42 1.51673 0.0967999
1098.89 1.80286 0.111886
944.179 1.8127 0.106592
930.656 2.01404 0.102552
893.25 2.04991 0.106449
889.439 2.31621 0.108876
909.761 2.61009 0.117734
860.379 2.86993 0.125151
892.097 2.97957 0.115136
794.845 3.00336 0.116755
834.527 3.3272 0.114292
815.945 3.33683 0.112573
832.717 3.79509 0.122399
848.05 4.04076 0.119796
792.264 4.12552 0.126633
763.781 4.35237 0.130965
732.175 4.42669 0.136153
738.91 4.6309 0.128819
731.088 5.09022 0.134428
771.739 5.43626 0.147788
730.72 5.36897 0.14543
693.509 5.59289 0.144718
668.085 5.57048 0.154626
662.081 5.47196 0.156439
712.077 6.56003 0.159358
808.586 7.72898 0.171359
691.418 6.98989 0.176799
639.993 6.69224 0.16751
640.277 7.23131 0.180551
670.161 7.19653 0.186194
662.331 7.759 0.19367
623.78 7.69312 0.210786
596.109 7.55909 0.221918
578.205 7.70282 0.2178
571.945 7.92332 0.218085
631.742 8.92331 0.252897
554.386 8.09561 0.228211
532.246 8.11425 0.223989
571.981 8.95246 0.243577
538.328 9.01453 0.26063
544.914 9.43706 0.255541
560.621 9.97333 0.285772
512.453 9.39508 0.283052
549.002 10.2985 0.301581
501.249 9.72734 0.29662
494.626 10.1317 0.30233
444.097 8.94565 0.274742
466.622 10.0824 0.338328
481.573 11.0158 0.36292
510.554 11.637 0.366001
502.143 11.9064 0.367484
434.409 10.4464 0.364656
458.1 11.453 0.377827
415.798 10.5101 0.367305
395.382 10.4155 0.378572
461.944 11.9178 0.419222
377.563 10.1511 0.406719
387.103 11.0543 0.433835
380.047 11.046 0.427936
339.107 9.94299 0.404431
379.746 11.6321 0.443415
396.882 12.2253 0.478092
350.843 11.2718 0.484316
344.594 11.1318 0.476893
327.597 10.7693 0.485591
371.735 12.885 0.539776
343.084 12.156 0.539516
337.295 11.6927 0.549987
377.227 13.3799 0.596822
360.921 13.6592 0.64414
324.812 12.0834 0.547195
324.281 12.5476 0.622146
286.991 11.2129 0.57294
510.353 21.135 0.938294
284.744 12.3344 0.599782
298.347 12.5736 0.640576
279.166 12.4525 0.631125
284.437 12.1771 0.662582
295.457 13.1491 0.724522
333.742 15.3296 0.815887
291.438 13.754 0.779224
250.275 11.7928 0.709991
267.962 13.0693 0.751059
283.12 14.0803 0.771632
269.603 13.8184 0.81276
275.123 13.742 0.822741
224.04 11.8231 0.75905
236.292 12.4729 0.789747
244.245 13.3126 0.849755
240.888 13.4398 0.910072
242.676 13.5919 0.865083
273.268 15.8142 1.05487
243.105 13.9124 0.926728
219.859 13.0656 0.929979
223.826 13.3045 0.887998
221.849 13.5675 0.917656
212.471 13.1657 0.940503
247.319 15.5912 1.13222
228.941 14.3614 1.06892
193.641 13.0068 0.982659
201.229 13.4688 1.02494
209.672 13.7163 1.07511
210.567 14.2902 1.11791
234.285 16.7153 1.27561
206.953 14.5437 1.17676
179.577 13.2402 1.11295
188.367 13.847 1.16093
205.689 15.1869 1.2554
199.725 15.1452 1.28585
235.94 17.5666 1.43709
197.979 15.2474 1.30555
171.989 13.4749 1.20936
187.77 15.1884 1.35717
176.783 14.3903 1.28189
188.072 15.7629 1.42905
187.124 15.5208 1.39105
173.301 14.7054 1.37908
186.497 16.259 1.59333
150.675 13.3069 1.28887
164.619 14.3169 1.4109
167.421 15.416 1.49356
189.974 17.7621 1.84088
171.268 15.4485 1.5076
150.898 14.2474 1.48749
164.122 15.1692 1.6223
152.442 14.8754 1.58013
146.775 14.2119 1.5357
178.967 18.051 1.95812
153.275 15.6573 1.7175
151.918 15.6117 1.72851
140.07 14.586 1.6496
141.35 14.5719 1.66907
149.585 16.4493 1.94854
168.34 17.8426 2.03005
142.28 15.5274 1.82886
152.583 16.7312 1.97878
138.95 15.7616 1.92897
126.718 14.2328 1.75669
150.607 17.7004 2.16356
143.452 16.8106 2.06602
139.698 16.0817 2.0425
135.916 16.5067 2.10234
129.011 15.3129 1.93465
120.176 14.8742 1.97909
132.96 17.1025 2.20912
151.61 19.3094 2.56903
134.305 16.5546 2.23493
127.089 15.9208 2.16813
132.895 17.2434 2.44033
137.755 18.0788 2.56312
121.843 15.8988 2.31607
136.759 18.5786 2.65196
126.429 17.1764 2.52407
131.769 17.6761 2.63327
114.093 15.5542 2.38434
117.054 16.6074 2.48975
124.157 17.2902 2.65661
133.313 20.1092 3.03945
116.9 16.8831 2.57072
117.8 17.3941 2.7178
118.967 18.0114 2.83912
116.566 17.3522 2.77502
122.661 19.1617 3.12725
132.244 20.037 3.19767
111.786 17.3996 2.86367
124.814 18.874 3.12026
106.64 17.3322 2.94862
109.498 17.7291 3.05055
115.354 18.5663 3.30175
231.372 38.4139 6.23403
111.54 18.0567 3.24052
93.2808 15.4995 2.68761
103.68 17.7486 3.24791
103.498 17.7614 3.16168
93.5933 15.8245 2.87737
129.56 23.3127 4.31643
105.045 18.1136 3.40444
100.9 17.7322 3.25926
102.98 18.459 3.53862
108.651 19.9429 3.72662
101.397 19.6611 3.96712
112.462 20.8296 4.02707
98.8985 18.384 3.61794
109.468 20.6012 3.9793
93.6614 17.3102 3.52408
102.123 19.3951 3.93599
93.2706 18.3977 3.73376
99.3725 19.7905 4.02428
86.7658 17.068 3.62229
90.6854 18.2194 3.77496
93.2232 19.4492 4.15885
91.2893 18.0742 3.95292
100.544 20.8045 4.52718
96.5302 19.6453 4.14728
103.316 21.5893 4.77912
88.5007 18.251 4.17771
102.51 21.8338 4.8135
83.8136 18.0865 4.15845
90.0966 19.5099 4.44993
101.268 22.1615 5.13281
102.34 21.8084 4.985
81.2359 17.7187 4.11674
91.7763 20.1034 4.74848
92.2443 20.4652 4.77955
92.5001 21.3171 5.19363
89.4085 20.8635 5.07077
83.3711 18.5923 4.54939
91.611 21.3909 5.17562
73.6641 17.6796 4.42103
78.6903 19.0306 4.84645
89.6192 21.1002 5.27999
93.2614 23.0451 5.82569
77.9808 19.606 5.03068
84.8643 20.6028 5.18527
77.709 18.9406 4.9348
75.3831 18.9218 5.10855
83.3099 21.566 5.85357
86.5259 21.9468 5.94509
83.5217 21.2235 5.59144
83.9476 21.3566 5.74656
74.992 19.8529 5.57492
72.91 19.0132 5.32886
74.5748 19.8657 5.47864
87.1922 23.7231 6.58088
76.2273 20.9767 6.01185
77.3536 20.5413 5.79962
74.3557 20.2148 5.88817
73.4482 20.1756 5.82462
70.0801 19.941 5.89052
85.1256 23.5017 6.8217
74.1978 21.0016 6.32369
70.6022 19.7162 5.74475
74.4806 21.9359 6.57288
71.487 20.051 5.97854
78.3375 23.9915 7.44947
78.1188 23.011 7.21956
71.9833 20.5426 6.21806
70.3977 21.0146 6.53886
70.6216 20.8439 6.49039
66.1449 20.1493 6.51114
70.7456 21.8578 6.97504
76.0762 23.6073 7.47081
73.9764 22.9158 7.35035
62.2416 19.4945 6.27479
66.0591 20.9374 6.9659
60.7297 19.5423 6.59968
62.3964 19.7561 6.44601
67.5837 22.9983 7.79168
69.8315 22.386 7.59823
65.3946 21.4077 7.35055
62.1381 20.9318 7.16908
65.4932 21.7617 7.50449
66.5845 22.1742 7.76993
71.4743 23.5967 8.15955
65.8377 21.453 7.25183
62.5071 21.5462 7.67647
65.6125 22.0246 7.92325
65.2791 23.0289 8.31754
67.8127 23.2622 8.36699
61.4548 21.9955 8.18716
60.351 21.1157 7.62551
64.1173 23.4215 8.69763
58.4507 20.2829 7.63724
58.7629 20.5765 7.92575
61.897 22.2228 9.10728
154.625 56.3177 20.3754
58.4845 21.4362 8.42581
59.0403 21.9118 8.63307
61.4467 22.8671 9.07968
60.9783 22.7268 8.86936
59.662 21.9065 8.4541
62.1636 23.4298 9.44745
61.5192 23.3509 9.27403
55.3665 21.1949 8.48485
60.4458 23.4425 9.5142
56.8817 22.8606 9.28204
56.4903 21.6498 8.90676
56.7514 23.0156 9.65122
58.4776 23.0001 9.54471
59.8905 23.0846 9.65564
50.6611 20.8888 8.86292
50.6075 21.3024 9.08581
54.5776 21.8698 9.53722
57.562 23.4641 9.91357
58.5289 23.855 10.2454
53.8352 22.6584 10.0407
51.2574 21.4856 9.59058
51.3358 20.9661 9.20219
55.3462 23.4161 10.3251
56.4206 24.0987 10.5226
53.7173 23.1884 10.372
50.7846 21.8479 9.7707
51.0515 22.4398 10.4542
50.7206 21.9901 9.73922
51.354 22.2477 10.0144
48.7647 22.4077 10.8466
56.6169 24.4925 11.3977
51.7364 22.8658 10.5522
51.9437 23.659 11.1746
49.1842 21.9879 10.2954
51.298 22.7481 10.6084
47.5891 22.2113 10.7816
48.8645 22.8159 10.893
49.0417 22.6357 10.9989
50.2601 23.6546 11.2333
41.6652 19.9803 9.96246
47.5193 22.0921 10.8019
49.5591 23.9287 11.6538
48.2431 22.7287 11.1952
48.8127 23.8617 11.9117
45.9729 22.2712 11.4627
51.9898 25.5194 12.9997
44.9943 21.1334 10.7577
49.3134 24.1598 12.2109
46.1874 22.7504 11.6854
45.7549 22.6631 11.7821
45.6308 22.1205 11.3032
48.5994 23.9762 12.5567
42.5804 21.6584 11.5001
45.9302 23.5416 12.5049
43.5633 22.1135 12.0539
43.913 22.6932 12.0091
39.8836 20.6508 11.2907
45.5932 23.1919 12.3113
40.3819 21.0682 11.5282
42.9784 22.9898 12.7463
42.5441 22.1775 12.5071
49.2319 25.7911 13.7168
42.2457 22.4781 12.5244
41.7428 22.4617 12.6249
40.7356 21.9581 12.5081
41.9256 22.4826 12.5472
40.4961 21.5445 12.3986
43.0959 23.6088 13.2807
39.1832 22.0085 13.0188
42.1777 23.6565 13.8532
39.5716 21.5724 12.3626
40.7522 22.671 13.1484
37.6189 21.4088 12.8801
38.9191 21.5596 12.7244
42.1423 24.1327 14.4246
40.4908 22.8453 13.8163
40.9558 23.7928 14.3086
38.7579 21.6217 13.0899
34.6938 19.8135 12.0349
39.7125 23.5123 14.1884
41.9511 24.2246 14.5335
40.2436 24.1173 14.6999
38.7344 22.4468 13.584
38.4892 23.4133 14.7152
38.2324 23.3751 14.5409
39.2793 23.8729 15.1684
37.2758 21.8399 13.5139
36.3499 21.583 13.9012
37.5873 23.0207 14.7067
36.813 23.1082 14.7104
36.8691 23.3891 15.2264
37.8777 23.4015 15.2753
36.2847 22.2825 14.6472
35.0227 22.4412 14.8851
35.111 23.7291 17.8616
85.9576 54.1294 31.8164
35.8235 23.5903 16.3104
35.9698 23.6254 16.2444
36.2623 23.1589 15.2737
36.6183 22.8974 15.4066
34.9697 22.3691 15.1207
35.0743 23.4706 15.9923
35.7537 22.8313 15.6976
33.7696 22.1246 15.2444
36.6908 24.0921 16.7441
34.8143 22.9193 15.5515
36.7277 25.1715 17.1875
35.4893 23.7802 16.9055
32.5968 22.111 16.2379
36.2147 23.4644 16.2552
33.8492 23.7728 16.9127
33.2931 23.215 16.7804
32.6711 21.7951 15.1359
29.187 19.7218 14.4075
33.2401 23.3728 17.1099
33.1086 21.7905 15.8956
30.3127 21.2925 15.6692
35.1467 23.877 16.7391
30.5605 21.9216 16.1948
32.5521 23.034 16.893
34.2898 24.158 17.8923
29.2233 20.7239 15.8861
31.5554 22.8637 17.4273
31.7623 22.7902 16.8771
32.8175 23.2322 17.5027
30.1212 21.5032 15.91
30.2194 22.5675 17.5195
29.9083 22.6337 17.7451
30.6916 22.0096 17.0873
29.5058 21.673 16.6484
29.9257 22.9249 18.0868
28.7998 21.4629 17.207
30.6251 23.1911 18.2886
31.0084 22.5185 17.8361
31.4523 23.7025 18.0889
27.5897 21.3187 17.5562
32.1414 23.9891 18.7072
31.1294 23.2082 18.4911
31.4296 24.4082 19.7152
30.8931 23.7216 18.8664
29.7618 23.5136 19.212
29.772 22.7883 18.5574
31.291 23.9753 19.2025
28.4873 22.716 18.948
29.2454 22.3241 18.3636
30.443 24.5403 20.1279
28.1632 22.8333 19.329
31.5329 25.922 21.4688
28.3192 22.0634 18.1936
27.2479 23.0447 19.8642
27.1549 22.4717 19.5735
28.3182 22.3972 19.1743
27.706 21.4092 17.7253
28.765 24.0548 20.8785
28.9286 23.5709 19.9334
25.5761 21.3778 19.0229
27.8363 22.8285 19.3839
24.4931 21.4359 19.2345
26.2288 21.8714 19.2044
26.8252 21.9028 19.2018
28.5758 24.1813 21.1977
28.5077 24.5169 21.5999
25.7764 21.4771 18.855
24.3832 22.0548 20.1756
25.7761 21.5746 19.4253
26.254 23.4528 21.3061
26.7506 22.8839 20.9097
26.0465 21.8177 19.4124
24.2293 21.2562 19.5146
25.6488 23.1509 21.1429
24.1982 21.4284 20.361
27.2887 22.981 20.3946
26.3136 24.3001 22.6639
26.2094 23.6988 22.2913
26.2563 22.9139 21.4864
27.0224 24.2654 22.5793
25.0332 22.7766 22.3418
25.736 22.6951 21.4633
26.9236 24.4369 23.5348
27.1775 24.6116 23.648
24.768 21.6856 20.1481
26.8666 24.6334 23.0439
25.5982 24.8352 24.8612
25.9278 23.2816 22.0895
25.4326 22.9318 21.8
22.0159 20.5902 20.0681
22.2353 21.0882 21.307
23.935 22.4271 22.4806
24.2879 22.5558 22.4684
23.3865 21.8115 21.5012
23.8261 25.1094 30.7995
64.0028 59.5472 50.4695
22.5095 21.9314 23.7708
25.0268 23.4056 23.2234
23.2669 22.8754 23.3365
23.4574 22.6103 22.7479
22.7276 21.3712 21.5892
23.0753 22.4642 23.2938
23.0908 22.0123 22.4583
24.2638 24.2042 24.6356
22.756 22.3463 22.4772
21.3158 22.7636 24.4034
23.7132 22.7042 24.325
21.8502 21.5088 22.4011
21.3438 20.8499 21.5254
20.8861 20.9054 22.725
23.2433 22.4041 23.1915
23.7716 23.933 25.1534
24.7378 24.6489 25.1424
21.7024 23.1353 25.5682
21.4594 21.791 23.7899
23.2275 23.5333 25.0582
21.4982 20.9531 22.2506
21.5999 22.0503 24.2042
20.6115 21.2638 22.9952
21.8774 22.806 25.5144
22.4657 23.1792 25.0164
22.1096 23.5521 26.486
23.6692 24.1884 26.4381
21.0358 22.7959 26.4039
21.7822 21.6856 23.9855
21.7651 21.9821 23.3182
21.1774 22.4625 25.0908
21.7944 22.4438 25.3362
19.5618 20.8516 23.444
21.5104 22.7625 25.2775
19.6302 21.5298 24.4711
19.7956 21.8232 25.5878
21.7617 23.115 26.5667
21.9263 22.8011 25.6692
21.3518 23.7581 26.6738
19.9403 21.8455 24.9173
19.953 22.4964 27.0304
20.151 21.8428 25.2433
20.469 22.661 25.5018
19.8454 22.5343 26.4052
19.8808 23.1285 26.9493
19.2042 21.8058 26.3909
19.5347 21.7343 25.5234
19.6914 21.7221 26.1234
20.3926 23.4307 27.8166
20.4232 22.2649 25.9002
19.488 21.799 26.0673
19.2356 21.3307 24.9703
18.6367 22.2518 27.5203
19.2206 22.614 28.7277
18.3508 20.1266 24.1142
18.6755 20.7484 24.9899
18.714 22.0172 26.5592
18.9454 21.7797 26.4581
17.984 21.0727 26.439
19.1231 22.2232 27.337
18.6888 21.3067 26.7165
18.3421 21.5067 27.1944
17.8197 21.0264 25.6649
18.4167 21.1922 26.2996
18.5767 21.6601 26.7126
17.2286 20.8776 26.5739
17.3963 20.848 26.358
17.5532 20.2429 25.9176
18.4202 21.8885 27.319
18.7212 22.2737 27.2484
17.248 21.3623 28.7781
17.7342 21.381 28.2806
18.0532 21.4898 27.2613
18.3604 22.216 28.258
17.1841 20.4908 26.3209
16.9141 20.3324 26.0956
18.2344 22.324 28.9144
16.6661 21.0793 27.8339
16.4281 19.7276 26.4718
18.6337 22.1087 28.2367
17.3211 21.9485 29.5305
17.9725 21.924 28.4128
16.2512 19.8058 25.518
17.2855 22.285 29.8788
16.2621 20.6022 28.2677
15.8604 19.4851 26.1446
16.0303 20.5873 28.3235
16.2973 20.9178 28.7144
17.5611 21.9361 28.6193
16.5786 22.2081 30.0273
16.9541 21.4344 28.5234
15.7262 19.5138 27.0609
15.154 19.6078 27.7571
16.9813 22.1222 31.9442
15.6441 22.6453 42.8662
45.6352 56.074 59.6146
16.2042 22.4001 31.8263
16.3653 21.1342 30.3783
17.5195 23.2141 32.493
16.8939 21.6645 30.2314
15.4078 20.122 28.0366
15.552 20.4878 28.2366
15.0742 20.2663 27.7616
14.5574 19.8312 28.2538
15.6859 21.5359 30.8508
16.2593 21.7537 31.4513
15.1248 19.831 28.8523
16.6391 22.6619 31.3648
14.8656 20.1044 29.5328
15.8565 21.0079 29.7527
15.0566 21.3631 31.3775
14.7873 19.9486 29.4005
15.208 20.0692 29.6637
15.7932 21.0143 29.8499
14.433 19.864 29.3607
15.3807 20.9812 29.6495
13.6462 19.3338 29.1351
16.0336 21.2722 31.2492
15.2827 20.4864 29.6094
15.3862 22.1054 33.107
14.2481 20.2195 30.3769
15.0353 20.2348 29.9437
14.3661 20.781 31.5463
15.4521 21.0923 31.5233
15.7969 22.2924 33.4589
15.001 21.0499 31.3362
14.0251 20.4982 31.0006
14.6458 20.7402 31.0382
13.8252 19.7089 29.9226
14.0866 20.324 30.832
14.703 21.0444 32.4328
13.27 19.5205 32.0101
15.3249 21.3781 31.2792
13.9731 20.516 31.4308
14.3648 21.9737 34.6
13.6354 19.1872 30.7484
15.389 21.4656 32.0806
14.4407 20.9154 31.6696
13.1129 19.1624 29.8825
13.6116 19.5788 30.3833
13.3911 19.6529 30.7847
13.4268 19.3322 29.8487
12.8857 19.6429 32.9702
15.6876 22.914 35.1872
13.1243 18.9259 30.0079
12.0189 18.5177 31.1954
13.291 19.3676 30.325
13.7584 20.5406 34.124
15.0619 21.8952 33.956
14.2322 21.9903 35.5374
14.3147 21.55 33.0935
12.8073 18.9626 30.9024
13.2433 20.1892 33.0001
12.5958 19.3908 32.194
13.0246 19.3826 29.9029
13.4155 21.6247 36.7044
13.1398 19.8718 31.729
13.6372 21.5411 36.0315
12.9661 19.8857 33.1732
13.3212 20.4901 33.234
12.6503 19.6616 33.2555
13.4215 20.1074 32.6456
11.5645 18.3975 31.5782
12.8269 19.4645 32.7131
12.2382 18.8311 31.4461
12.2653 20.1563 34.1478
13.0858 19.2563 33.1481
14.013 21.391 34.496
12.2977 19.7434 32.628
12.2093 19.2094 33.0098
12.3862 18.3628 30.0533
11.065 17.9741 31.6646
12.2817 20.0054 33.1839
11.778 18.4972 33.3388
13.0217 19.9335 32.5319
12.568 21.144 36.404
12.8589 20.8317 36.7606
13.3364 20.6379 34.824
11.7958 19.252 33.1511
12.1051 20.2479 35.8072
12.3454 19.7459 33.7748
11.949 19.1202 33.6131
12.397 20.245 34.525
10.9087 18.1579 32.6453
11.4131 17.8237 32.3717
11.7992 20.1583 35.602
10.8788 17.6621 31.7458
11.3636 18.6016 33.553
11.0797 18.9758 34.0404
11.2294 19.7097 38.3427
12.077 23.0487 61.3746
35.094 53.2788 67.0415
11.9986 21.4148 37.1248
11.2575 21.1959 39.771
11.5313 20.1002 37.6986
12.5808 20.4407 36.2288
11.4007 18.8771 33.456
11.5965 19.7329 36.5
12.4578 20.7174 37.3432
11.0958 17.4488 31.0553
11.4263 20.315 36.9468
11.6119 19.9881 37.4978
11.563 19.0123 34.7428
11.7901 20.2953 36.8494
10.6349 18.7472 35.3876
11.9159 20.554 36.6267
11.032 18.7301 34.6329
11.2958 19.6083 36.0301
10.8591 18.5402 35.8555
11.6567 19.8502 37.3437
11.6285 19.6079 35.6837
10.9141 19.0105 34.9028
10.3293 18.3932 36.9822
11.2184 18.7554 34.2262
10.1789 17.7336 35.1853
12.0856 21.1041 38.2244
10.9432 19.7013 37.2682
11.0113 19.5666 37.1009
10.3876 17.5735 33.1633
10.232 18.1276 35.8606
11.1352 19.8248 36.3126
10.545 19.0489 37.3488
10.534 18.5159 34.7105
11.0986 19.8248 38.4922
10.3157 19.0001 37.3209
10.2451 17.903 33.8809
10.4319 20.2919 40.4742
10.3324 17.1043 32.3913
9.72035 17.8777 36.3564
10.0564 17.3678 33.9612
10.5273 20.453 41.2766
10.9082 19.2918 35.7999
9.63402 17.7775 36.0059
10.2726 18.6674 37.0223
10.43 18.9513 36.3596
9.51109 17.2999 34.8094
9.9216 17.794 34.3146
8.72502 16.1534 33.7924
9.47035 17.0042 35.2693
10.1278 18.0465 35.4769
9.54621 17.3451 34.916
10.7309 20.2547 37.041
8.38126 15.9466 33.9634
9.43221 18.1381 37.1882
9.78696 17.8498 35.8437
9.62083 16.8953 34.1274
9.40501 17.7585 35.8005
9.95138 18.7163 37.0934
9.11306 16.812 34.0048
9.17465 18.4886 38.8729
9.24277 17.1104 34.716
8.7387 16.8973 34.8315
9.31688 18.3209 38.645
9.92236 18.313 37.1065
9.39183 17.399 36.8666
9.78833 18.5275 36.0349
8.83533 17.4738 36.3734
8.42838 16.179 36.0904
9.08011 16.6711 35.1906
9.55184 17.4959 35.8062
9.14849 17.2268 35.3129
9.29892 17.8771 36.0054
8.76676 17.3619 39.128
9.7397 17.7 35.9281
9.15174 18.355 37.2999
8.37611 15.9486 35.2721
8.7524 15.7092 32.6997
8.96158 18.3923 39.4319
8.69243 16.4328 33.9326
8.41171 17.0044 35.8392
8.41917 15.9364 34.5872
8.0824 15.0228 32.8913
8.65706 17.1426 34.9808
8.30523 16.3554 34.6548
8.31892 16.865 37.3036
8.2186 16.8556 36.4957
7.93234 14.9327 32.9734
8.29271 16.0271 34.8067
8.54079 16.8414 36.1043
8.02614 15.2222 33.0966
8.09535 15.1906 32.2439
8.50112 17.4459 37.7125
8.25078 16.8165 36.2425
7.76708 16.0404 35.9656
8.01729 16.7968 38.035
8.06939 17.5857 39.7727
7.79249 19.6309 75.7322
26.2513 48.549 68.7454
8.02265 17.8976 39.5887
7.63597 16.6621 39.1974
7.7102 15.6532 37.5495
9.1739 18.3811 39.9544
7.96111 16.0413 35.3239
7.68899 15.5838 36.0724
8.11477 16.4656 35.717
7.77876 16.3058 37.4113
8.23832 16.5798 36.2297
7.79011 16.233 34.5277
7.15418 15.7638 37.6074
8.39352 16.6727 37.8504
8.12676 16.5092 37.2064
8.21271 17.0074 37.0675
7.08597 14.3769 34.3067
7.90483 15.343 34.4393
7.20721 15.195 36.1594
7.40817 14.7246 34.4999
7.95268 16.0654 36.7847
7.63522 15.2341 33.6781
7.24718 15.5095 36.2363
7.79952 15.399 33.7087
7.31984 16.1122 36.2385
6.97942 15.2547 36.7014
7.20285 14.4828 33.1856
7.26333 15.2175 35.6019
7.42362 15.0467 33.1929
7.16672 15.8749 37.0899
7.38203 15.9505 36.6328
7.26617 15.763 36.6832
6.93003 15.1186 36.1793
7.24395 15.8882 37.8257
7.73751 16.3619 36.7808
7.30407 15.6014 36.4264
7.11819 15.0384 34.5417
6.57759 14.7181 35.6486
7.00234 15.1432 35.8052
7.23313 15.3058 37.3645
7.85324 16.3392 36.8285
7.27187 16.0202 38.7798
7.2213 15.312 34.9896
7.00169 15.1437 36.9114
6.88482 15.2113 35.5712
6.84265 16.0322 40.5442
7.41922 15.6338 38.483
7.47375 15.0118 35.0702
6.93792 15.4619 35.746
6.29002 13.7533 35.4125
7.18705 15.3468 37.1897
7.03656 14.3058 33.7573
6.45699 13.8502 34.0346
6.62853 15.3332 37.0418
6.8273 14.9634 37.4154
7.07831 14.2022 33.2626
6.64538 15.6257 37.7094
6.86145 15.2245 36.5362
6.65996 14.4717 36.6094
6.67349 13.648 32.1839
6.6023 14.3991 35.8289
6.57494 14.738 35.927
6.36397 14.0716 34.9212
6.82854 15.983 37.9179
