# pn-170911/RbIIR-54-TWTF-1280-1959.psd
# Power spectrum* (dif=0,1,2) (really just |FT|^2)
# NOTE: only the first half! (symmetric)
# weeks: 1280-1959
# 10 clock-days, 0 excluded
# PSD: 1441
1037.61 0.162746 0.0315848
14686.6 0.407955 0.00563672
172090 3.64631 0.00579995
24158 0.572444 0.00557146
26291 1.8104 0.00523021
7148.63 0.571391 0.00624358
1962 0.194514 0.00606187
2264.71 0.55024 0.00506201
3659.4 0.745183 0.00558068
2412.43 0.799749 0.00572975
913.76 0.48405 0.00547389
1256.5 0.651294 0.00616366
1243.07 0.611938 0.00568377
899.113 0.518988 0.00479632
671.257 0.664131 0.00539247
995.744 0.738678 0.00541237
1394.67 1.26924 0.00668072
969.93 0.759518 0.00695476
713.377 1.0238 0.00641601
1517.75 2.54372 0.00963322
762.203 1.48378 0.00835014
750.474 1.17108 0.00751388
696.922 1.36131 0.0110651
624.118 1.16855 0.0106609
781.7 2.05776 0.007844
1001.17 3.27179 0.0156749
923.229 2.28824 0.0160294
1314.97 3.3839 0.0148146
1191.59 3.75637 0.0162228
847.577 3.05647 0.0166956
708.642 3.07607 0.0142998
734.097 2.52535 0.0154711
979.295 3.87415 0.0289692
350.604 1.92935 0.0232308
425.103 2.60554 0.0212205
622.696 3.11576 0.0178363
848.038 5.42493 0.0425761
724.785 3.93694 0.0220488
510.884 3.06886 0.0295273
392.044 2.49829 0.0288079
341.258 2.77815 0.0163275
646.244 4.32111 0.0381206
452.787 3.62745 0.041226
413.896 3.72521 0.0315371
584.416 5.13113 0.0523344
424.767 3.46331 0.0384783
1114.45 11.3346 0.112088
667.371 6.34894 0.0786371
443.427 4.67133 0.0534354
710.189 7.86802 0.0840527
944.813 11.4452 0.145046
829.724 9.27322 0.114606
402.462 5.59933 0.074333
378.506 4.36148 0.0481922
724.587 10.4887 0.156729
581.48 6.86054 0.113919
334.811 5.44145 0.0683162
841.971 14.4364 0.214397
920.412 13.5598 0.219984
261.44 3.92571 0.0788861
454.598 7.61167 0.13581
456.835 7.01558 0.116835
229.225 3.84912 0.0836168
752.429 13.4697 0.242517
362.543 7.37997 0.172204
761.497 14.1077 0.317821
458.986 8.67076 0.19414
411.954 8.15151 0.177383
638.852 13.2258 0.323872
259.425 5.21027 0.12346
942.98 21.4522 0.528101
318.913 8.43069 0.223275
632.445 15.201 0.348183
784.906 18.9771 0.510011
312.77 9.06485 0.245361
396.908 10.3369 0.287104
549.351 16.0698 0.474483
421.767 10.4187 0.264555
489.837 14.2621 0.458456
398.384 10.3944 0.274872
557.299 18.784 0.598254
829.099 24.7412 0.794069
450.25 13.9091 0.452477
635.581 21.0466 0.74639
828.882 26.244 0.803847
277.137 9.63267 0.37655
455.525 14.6535 0.548132
448.122 15.8993 0.597129
268.567 11.553 0.479713
503.255 15.7151 0.554631
286.384 9.91551 0.345517
595.348 22.7368 0.842937
261.268 9.84477 0.419672
498.47 19.5932 0.895465
214.791 9.15277 0.379579
209.749 7.59117 0.282237
428.966 18.8826 0.792789
373.365 15.6957 0.753033
431.116 19.4147 0.936594
808.828 35.8709 1.66296
464.786 21.8458 1.05966
144.711 6.76337 0.32598
471.939 22.5575 0.971106
497.349 26.5121 1.33113
294.293 14.624 0.74716
250.244 14.1126 0.737136
273.093 14.5126 0.766532
285.32 14.2543 0.864999
367.838 18.9649 1.02559
185.298 11.7277 0.678194
237.502 12.5684 0.683771
203.342 12.5829 0.798652
315.133 19.4946 1.08882
371.717 22.3042 1.31799
274.162 17.5191 1.13863
147.38 8.5023 0.504969
210.407 14.1772 0.896042
244.449 15.1939 1.00302
591.301 35.9865 2.2708
386.189 26.7643 1.85617
401.845 27.2533 1.86821
279.874 22.197 1.64321
325.703 21.1453 1.50731
282.106 19.4003 1.24365
315.078 23.8109 1.7405
232.806 18.3794 1.37907
144.369 10.0636 0.789463
343.585 23.7495 1.79006
316.78 27.2173 2.06114
417.348 32.2831 2.58098
292.388 23.3642 1.79116
360.448 28.1452 2.24023
316.292 28.3943 2.48204
176.717 15.4723 1.41267
198.003 16.8474 1.34428
296.11 26.0531 2.26466
238.866 19.9773 1.61657
289.741 24.5327 2.12715
279.357 26.691 2.53229
175.138 13.2211 1.08497
354.945 32.5859 3.10322
353.017 31.3929 2.79909
371.945 35.561 3.3118
245.247 23.6584 2.20429
377.757 37.5889 3.80838
195.837 17.0321 1.60647
377.104 38.0518 3.96585
393.568 41.6947 4.14394
234.568 25.3947 2.79827
286.593 27.8579 2.69302
199.831 20.6268 2.24258
254.495 23.6474 2.39683
265.188 30.1522 3.53639
226.957 24.3082 2.77843
259.768 27.6224 2.82042
369.787 43.1863 4.61489
165.308 19.9834 2.30809
142.807 15.4394 1.76031
231.907 28.2175 3.50664
117.747 15.9138 2.04699
86.4509 9.12871 1.05478
199.136 23.9241 2.78723
452.599 55.4841 6.99426
117.208 16.4156 2.27299
144.185 15.7231 1.97003
169.313 20.663 2.3407
206.792 27.2885 3.62842
103.406 14.1786 2.03281
128.568 16.8958 2.25419
356.032 47.8172 6.40021
108.416 17.5761 2.52498
162.039 22.6126 3.31251
138.508 19.315 2.76564
201 23.1437 2.69562
292.087 41.9245 5.93635
168.513 26.0997 3.87317
171.213 28.04 4.14805
126.005 20.9344 3.16297
237.68 35.0841 5.57181
120.191 16.8766 2.34019
117.158 16.7491 2.52916
190.209 29.1641 4.71327
116.144 17.6475 2.84076
292.842 46.9258 7.17851
176.007 26.8686 4.37751
134.038 20.1672 3.21361
234.534 35.6997 5.3563
176.365 30.1078 5.39467
262.173 41.7002 6.42665
337.554 64.5924 12.112
154.645 20.7429 3.07084
128.368 21.6294 3.84559
242.632 36.0669 5.57999
200.664 33.675 5.81848
131.115 23.964 4.69969
178.826 29.8446 5.23572
148.762 29.1856 5.51843
160.194 27.3274 4.68645
75.5198 15.7187 3.29681
133.931 25.6831 5.13788
130.314 21.0433 3.60747
121.307 21.9259 3.69957
98.1638 22.6771 4.67182
143.955 24.1087 4.32419
170.024 36.5478 7.66391
128.681 22.3225 4.3984
259.441 48.8774 8.81908
133.919 29.3593 6.21891
179.817 40.8127 8.32066
162.514 37.7387 8.17307
170.964 35.7963 7.59658
129.381 22.0545 4.33343
144.209 28.7489 6.0931
98.972 19.5946 3.77275
103.734 23.3255 5.58663
99.685 20.4656 4.0963
129.74 29.9632 6.69356
214.92 45.4314 9.25406
96.6083 20.3311 4.3358
103.695 25.2368 6.09362
112.078 26.9717 6.44731
156.181 33.9862 7.60565
139.387 35.5578 8.82887
123.338 28.4594 6.83845
172.439 40.523 9.54458
92.0251 23.4443 5.56354
93.3255 22.7019 6.0878
75.3777 18.2048 5.02113
165.904 37.9416 8.68557
67.4156 15.9976 4.07398
203.853 50.9643 12.0398
97.3719 22.8718 5.59132
91.5178 18.9206 4.286
130.268 31.5632 8.10239
122.638 29.6877 7.27172
102.136 25.5486 6.17998
82.8896 25.8589 7.57323
211.774 49.977 11.95
78.7723 22.9164 6.70568
129.624 34.5318 9.62593
123.231 33.703 9.30537
94.0938 25.2349 6.98733
137.95 34.9627 8.79886
85.333 23.6662 6.6306
117.585 32.0488 9.3407
101.737 30.383 8.80244
124.913 38.1909 11.268
135.56 36.3193 10.0169
190.921 53.8513 14.792
79.8674 23.3831 7.33767
113.576 33.3089 9.51219
101.842 32.2538 10.3132
75.5084 18.4351 4.8474
189.705 56.6235 16.3687
96.9154 28.1685 8.01704
83.604 26.1174 8.5989
108.483 25.9993 6.78676
129.53 36.5531 10.332
117.566 40.3862 13.1542
129.119 44.1673 15.4169
88.622 26.4085 8.74104
93.7461 27.8624 8.4956
99.6626 28.5288 8.45563
116.307 40.6684 13.6048
89.6548 23.8112 7.10702
171.96 56.8629 18.3485
50.9026 19.8855 7.98224
93.5317 28.3627 8.44421
62.5872 22.4247 8.0162
89.509 28.5749 8.72375
121.854 42.9478 14.8102
84.0563 22.7957 6.61647
57.434 22.5133 8.60446
101.269 35.3077 11.9222
95.3803 28.5731 8.71734
48.2997 21.7711 8.67615
56.1579 16.53 5.48428
86.1695 27.4982 9.23915
46.0266 17.8162 7.4709
62.2395 22.5674 8.02951
85.0083 31.0057 10.9611
59.9367 20.6485 7.01725
45.0291 18.3625 7.87097
74.2736 25.9036 9.17436
103.535 39.5816 15.3604
66.7745 22.9856 8.32804
70.0822 25.4537 9.15029
53.5343 22.2578 9.59922
43.4372 15.5977 6.13798
82.4189 30.664 12.0743
102.519 42.7454 17.031
163.792 51.6272 16.636
53.8349 24.1521 10.9097
55.6957 19.9421 7.81771
73.6507 28.9656 11.7482
63.5583 24.2744 9.34521
91.7909 35.3866 13.3664
56.4951 24.2595 10.4627
61.1689 24.0027 10.222
64.0558 25.2254 9.03028
66.1659 28.7617 12.9232
39.205 15.7696 7.21494
66.428 27.5307 11.1066
57.3893 23.2073 9.1168
82.9448 41.618 20.5498
98.2715 41.6355 19.1813
134.789 50.7864 18.3475
68.5923 28.3704 11.7103
80.7814 37.2862 15.2522
108.265 54.043 25.1233
76.2429 31.9422 13.9739
42.8694 19.4847 9.9412
47.0375 17.8551 7.58261
49.2075 19.5253 7.78044
56.969 25.7997 12.2209
67.2718 31.5036 14.0034
60.2778 26.5678 11.935
38.0005 18.9877 9.06644
93.104 38.8644 15.7251
48.0723 28.3748 15.3787
55.6959 27.8776 14.7703
91.1016 36.732 15.4281
77.0306 38.0218 18.2866
68.0125 35.0627 17.2706
90.1662 43.8421 21.7103
82.5578 36.0184 16.4185
74.861 38.7187 19.301
94.5891 46.1891 22.4972
67.4117 29.2818 13.4054
54.201 24.6634 11.2617
53.9061 26.4693 12.7756
87.7291 45.3022 21.8026
68.5673 39.0825 21.2158
56.1296 28.8772 15.1003
67.4571 33.6762 16.7935
69.7492 36.2257 16.1068
34.3491 23.775 14.467
49.2196 26.337 15.1498
54.732 23.3034 10.4438
30.1031 18.4368 10.725
50.8961 24.7341 12.4244
70.3158 38.1131 20.8044
57.0096 27.4913 14.7301
55.8422 30.1949 16.4953
70.7548 39.1142 21.244
89.2697 43.8481 20.9548
63.562 40.4598 23.464
69.6059 33.3706 17.2522
86.248 53.9254 32.0865
59.9288 32.4638 17.9113
59.4741 37.1601 22.8188
68.5464 36.4333 19.486
75.624 42.396 24.9278
118.501 59.0027 28.9047
40.1297 24.1674 14.7977
44.2078 24.1657 13.5296
54.7345 31.6598 18.7749
53.4154 33.4647 21.4434
66.3498 32.3741 15.9922
43.1451 25.3263 15.277
61.2808 29.7721 14.1545
63.2752 41.474 25.8992
59.569 33.6626 19.0482
35.9239 23.295 14.585
33.2385 19.2735 12.3325
64.5555 38.5158 23.8375
29.4919 16.8796 10.3695
39.287 20.5361 9.82491
49.1364 35.1714 23.2276
57.7964 33.4181 19.3478
33.6974 25.8036 21.7674
56.858 26.5988 12.5018
40.0695 25.9375 17.4588
55.1078 35.5002 22.2016
37.8962 24.9126 17.6551
37.7663 18.9184 10.2657
43.6365 27.1472 17.6761
79.0913 52.2445 32.7119
38.0462 20.0961 11.2371
23.4763 16.7697 12.8913
47.8856 28.9824 19.3157
61.9105 35.281 19.7864
33.6142 24.1024 16.2278
39.8097 31.5145 23.6525
34.3367 17.5559 10.1934
38.7872 25.1992 16.0993
38.0854 29.2788 20.2951
43.7152 26.2235 16.0571
38.5936 28.1355 19.5967
53.8821 33.9222 20.4298
32.184 23.4661 16.9231
44.7035 29.6785 20.8998
51.7921 37.5231 26.7224
56.0549 33.0465 20.0868
36.1763 28.0357 21.117
36.9952 23.1587 15.1855
30.8339 26.6231 21.6108
39.2303 24.294 14.3229
41.5094 38.7995 31.4264
47.6901 32.9922 23.7955
36.0924 27.1274 22.7987
42.2333 26.3275 17.5031
33.2935 24.0745 18.6262
44.2357 27.1097 16.8274
40.2672 29.2982 21.0072
45.5187 30.9841 21.12
34.1464 26.5434 19.591
35.9467 30.7926 24.3671
26.205 16.4012 12.1174
18.271 12.9863 11.1266
37.0523 21.0678 12.6874
26.5995 21.8046 17.7334
33.0229 30.045 27.7603
42.321 29.6025 21.608
53.2669 34.257 23.1352
40.2806 31.2651 24.3104
29.2765 19.2146 14.9249
40.1953 28.5637 19.2624
41.9663 34.2031 25.6943
36.9883 34.9603 30.4856
33.9383 22.8422 17.9226
26.7691 20.5574 16.9239
50.2999 43.1313 36.1029
41.1873 25.7887 17.362
32.7539 24.5323 19.5182
41.7953 32.4909 22.9796
34.8424 30.8615 24.8786
27.697 25.9161 24.663
42.5363 31.2115 24.614
49.4443 38.2611 28.4349
26.8453 24.2003 20.7921
36.7797 29.3231 23.4056
49.2237 47.0036 43.9984
30.2815 17.6181 12.1091
30.85 21.6635 14.3315
16.2921 18.8646 19.9908
28.7345 17.4831 14.5632
47.4973 35.2455 24.9678
37.4814 35.5417 32.6411
33.136 29.1698 25.4568
27.1277 21.2679 18.7337
35.3765 33.7085 32.647
36.9641 25.8181 17.9931
31.3004 30.9994 28.3291
36.1411 33.3705 30.4471
34.6889 30.2006 29.368
36.6394 28.1719 23.2797
24.9183 21.724 19.4878
21.848 18.6803 16.8218
26.3088 21.3118 16.7951
28.2436 22.2951 16.0943
20.1314 17.3623 13.6532
21.1058 21.0125 21.1355
22.6175 20.7283 19.6763
31.0309 22.845 13.9439
24.757 27.2675 24.0959
15.8361 16.2215 14.7694
20.1718 24.4797 24.4105
14.3153 12.34 12.5059
22.055 22.8064 24.0011
24.4179 19.02 16.7391
31.2675 31.5779 30.6693
38.8503 37.2883 36.7924
35.7838 26.3566 17.7622
38.7462 39.6934 37.0038
29.4686 27.3696 24.6708
9.53934 9.55594 12.2948
24.9343 25.5774 25.6866
27.6587 25.8284 27.6764
33.0925 28.1291 24.3954
31.1189 27.9886 24.1002
13.9615 18.2057 23.5282
37.6577 28.9433 24.5146
53.7557 57.8242 56.5961
27.8515 28.3472 30.0191
37.1218 39.7339 41.5875
33.7197 29.8276 28.0638
26.542 24.3904 27.023
40.6637 38.2361 34.119
28.5155 23.9202 22.5825
25.4215 26.0292 28.5649
50.9882 44.0764 36.1359
22.1771 26.8343 30.9302
26.3524 23.0315 22.2899
27.0288 27.0243 23.8204
13.1679 14.1349 15.2691
18.5739 21.8327 23.7576
21.932 23.0856 27.0078
30.0112 35.5081 41.2226
26.7971 20.5544 15.7926
23.2171 29.6876 33.9272
28.5938 28.1812 32.6044
39.6789 44.4078 47.0806
35.1152 35.2027 37.8992
28.8085 25.3519 22.6743
23.5661 25.9089 26.51
12.989 10.7999 12.1966
20.6219 20.996 21.8468
22.2616 21.9158 22.8328
29.4796 28.3658 26.1012
28.9496 35.0433 38.6636
14.7133 14.5517 15.4849
21.6343 24.8283 27.1379
41.519 49.9296 51.9016
25.3684 33.8169 45.1548
29.1326 27.2748 27.7975
13.4681 15.4988 20.9761
15.5213 15.5241 17.2887
22.5646 23.2029 23.4506
18.7185 21.0658 23.3897
11.2684 12.0673 17.2506
21.7246 27.5424 34.4577
20.4524 14.3071 12.2056
18.4615 17.9194 19.6092
33.8043 39.7918 41.8073
28.4275 34.7216 40.634
23.8327 25.8383 30.1734
37.3813 38.7263 37.687
22.2747 28.9972 32.0047
18.2038 20.2311 25.5065
24.2606 22.9555 21.5796
26.8897 31.9928 32.1915
13.6762 18.6393 23.5863
18.4869 25.5063 33.767
22.945 25.5618 28.7573
32.4301 43.7471 51.8784
20.6239 22.2522 21.9545
16.1208 21.6258 26.5391
14.1506 20.6677 29.8148
18.9483 24.0481 30.813
12.7076 11.3996 16.0413
31.3572 37.5932 40.0395
18.2617 20.8014 28.9548
29.5762 33.1881 35.565
17.4435 23.2157 29.6645
18.7356 21.8269 23.8957
17.0087 23.4916 28.3239
14.8978 21.4261 29.2595
16.676 19.7378 25.6988
28.4859 35.0045 41.143
18.0953 25.7794 37.901
24.8107 26.5208 30.4523
8.44565 8.58762 15.5761
26.3901 27.8078 28.2065
17.1617 22.9141 33.2974
19.8528 19.7193 22.4267
22.9403 26.0064 28.2525
21.8124 29.482 36.3528
18.1807 27.5787 44.0446
31.8391 33.0867 34.7107
21.7601 28.4598 34.4503
31.2272 39.1667 41.0122
16.1632 27.0164 41.8036
18.3877 25.9613 35.4524
13.1745 18.5975 26.7811
18.033 24.3445 30.7012
9.68444 14.3602 24.7304
19.6298 25.0843 34.3304
24.2762 33.4189 46.2536
33.224 40.6351 47.1671
11.0475 12.3042 15.7415
8.31939 11.5352 17.086
15.1897 26.735 44.1737
19.1191 23.2279 32.8863
20.2305 27.4412 43.2162
32.7474 36.7846 40.2733
21.4447 27.4831 30.7684
9.44931 12.8698 21.4737
16.7369 28.37 49.9711
31.4089 30.89 24.407
12.6323 22.1018 30.209
17.9973 27.715 39.1089
16.1221 22.0023 31.899
20.183 29.0415 42.6352
14.7507 16.7237 25.1717
22.5254 27.0327 31.0085
24.4839 35.194 40.1053
14.2413 31.6007 54.7333
14.7003 15.8895 26.071
17.3728 20.6195 28.5396
18.5039 25.6098 37.5495
21.5173 28.1794 39.9451
17.8585 22.0199 30.9127
25.8996 34.6021 44.9778
17.9989 25.2799 32.4557
20.2064 33.2431 48.9028
17.3416 18.6842 23.5562
8.87615 10.9698 16.2357
9.8782 12.2708 23.3755
30.2662 37.0458 37.8613
16.2258 30.1103 45.9109
11.1447 20.3034 41.6218
22.9166 29.1945 38.1316
14.0153 16.7275 22.9024
16.7288 25.971 40.1888
11.0954 13.4374 20.7864
14.5192 17.5253 19.5624
9.00488 16.7718 26.4858
14.1911 19.1635 24.2853
13.9827 29.4253 50.6278
12.606 15.2417 29.3203
20.7096 24.1542 27.5414
14.4255 22.141 27.9824
12.4815 23.8306 38.9813
22.5173 36.4153 57.3526
15.5964 20.0715 29.0986
14.2066 25.374 41.3362
15.1876 19.7399 31.0509
20.5212 33.5346 49.8782
17.6041 24.2726 29.7631
5.83936 10.4514 21.3049
7.85979 9.38015 12.527
11.5482 23.4112 42.2722
11.7709 12.9447 21.2764
18.3968 28.2 39.0701
8.1824 13.4226 28.6789
15.8307 21.4093 31.2726
14.9068 22.4932 35.2806
20.188 28.0879 27.089
7.83537 23.1732 48.0687
11.466 12.739 19.9183
16.731 28.7168 44.535
15.7175 21.9455 32.6636
11.3646 18.4133 34.7284
20.4621 33.2673 53.4803
21.3833 30.0269 39.0768
16.1721 31.4853 52.6007
10.2644 15.3724 32.3366
19.7243 28.0141 44.2332
14.5316 23.0691 38.7563
17.0144 27.3401 50.2338
22.789 30.7052 43.2931
32.4519 52.7512 70.1421
6.03233 11.8489 27.2656
11.84 16.7442 26.6344
14.3757 31.1305 62.5966
21.7275 29.5941 48.9775
18.8449 26.808 41.6222
21.2568 33.1211 41.3335
11.914 25.8079 44.5715
8.86736 20.8056 51.6903
21.269 25.2408 29.4382
9.65276 16.7417 34.9408
18.3996 30.441 49.0737
17.8805 27.8457 39.6302
14.6349 26.6869 46.1901
14.863 30.3081 63.9954
26.2713 37.3536 48.5227
12.7368 21.288 35.4569
5.96764 8.8866 22.3485
13.8499 21.4019 35.4561
14.1675 21.1992 29.2832
8.72549 16.6823 25.9756
8.26143 15.6114 31.0653
13.911 22.0104 32.0237
12.7951 28.7869 55.1253
11.1901 13.7029 26.3087
14.8691 24.5715 37.9386
17.0679 37.3569 70.8446
13.5391 19.7268 37.6715
9.66826 11.0458 16.9983
10.8475 19.268 30.8989
13.6362 24.6315 39.8028
8.30935 15.5959 30.9654
9.25652 14.3774 24.0034
13.1898 25.8072 45.9017
14.523 21.6776 34.2237
8.65502 15.9883 33.0949
10.9013 16.0697 29.36
13.4216 21.8923 32.5097
11.7261 23.8943 40.9256
9.57803 23.1277 62.3582
24.6505 36.9611 47.77
10.9129 24.1934 54.2888
14.7743 19.2747 23.6542
6.56582 16.0549 42.1424
14.0236 20.2963 31.3943
16.2112 30.78 49.3338
7.061 14.7771 40.1488
15.8592 23.8436 31.9358
8.87169 20.1749 42.3964
13.1345 20.237 38.5248
14.7341 22.9464 32.0652
7.81713 18.5445 37.3702
10.4075 20.6351 42.7659
17.0806 33.9217 60.3083
9.97988 13.4477 32.1569
22.1467 35.0009 45.4569
11.1883 29.3092 62.4882
11.5672 17.1988 27.584
8.07266 18.8967 43.2997
11.0872 15.5154 25.3954
5.9572 10.6694 27.4518
9.27536 13.3733 20.5717
9.41914 17.8808 33.6953
12.5412 23.3878 39.568
8.36554 13.7484 26.0553
15.7028 34.3843 65.3558
8.88326 10.0759 12.0285
10.6311 28.1079 50.2971
7.70284 17.0576 42.1742
10.7188 17.2296 31.2163
7.5984 14.2839 31.6782
7.81359 10.5308 18.3312
7.83098 13.9083 24.4583
6.66171 12.0009 22.1782
9.55965 23.1232 54.407
15.7474 24.1935 35.521
5.21627 10.8703 35.661
18.8622 36.7834 54.1183
7.75922 20.9832 58.368
12.5158 20.7937 33.6404
6.77628 15.7851 38.9332
11.3373 22.9961 48.7695
13.5638 24.7071 48.7769
10.2468 24.0974 65.009
20.8227 33.4495 48.8807
9.86538 17.2818 32.6819
8.95811 19.7043 44.357
13.2045 23.0853 44.7096
12.9261 22.6274 33.3768
5.79983 11.9299 26.845
11.5213 24.9063 48.6975
9.98668 15.23 29.7079
11.1671 21.6654 38.6417
12.9097 27.3646 47.0564
9.19746 19.9102 43.1373
14.0007 31.9713 60.5686
11.1863 23.9406 46.6321
6.87167 11.5574 22.64
5.5332 11.3447 26.2304
10.2415 27.7719 54.8313
8.94642 17.3769 40.1967
7.75456 16.719 45.7707
11.2595 17.2374 31.0508
8.45714 15.7377 37.125
13.9566 25.7499 37.3412
7.01061 18.5925 40.8
8.77954 16.5084 25.418
6.16592 14.0425 24.5232
4.44818 15.7499 40.7827
7.99331 13.6769 29.7181
6.94757 11.529 16.6046
3.56453 10.3066 27.0113
8.71795 24.582 63.4416
12.083 21.1785 50.5727
13.3373 24.517 39.43
5.95196 11.5461 29.4544
9.10557 18.8211 36.0712
9.5533 20.297 36.7104
5.80382 17.1664 45.8523
9.24567 16.9072 38.7439
11.6905 22.063 31.3705
6.52768 20.4366 53.8312
8.62001 15.3973 35.2317
12.509 29.8038 58.5855
6.04023 10.5709 30.461
10.5388 16.7588 24.784
9.46991 26.9421 51.7039
7.77728 17.8074 44.1569
8.2644 18.7522 42.8742
8.51834 18.8601 38.8129
7.85613 18.5292 42.9625
7.80091 13.9518 28.6935
4.90836 9.48008 23.8039
7.38379 15.147 27.1598
5.12958 12.3209 28.5555
8.2758 22.1871 46.3552
6.65026 13.6752 30.7909
7.18267 19.9953 53.1743
8.54418 15.4019 29.1856
6.85177 19.6161 66.5856
15.7564 27.4171 48.7476
11.3913 30.0996 73.1853
13.6751 22.9497 43.2604
12.4698 28.9045 55.5284
7.83359 15.53 28.9055
4.95295 12.7434 32.7652
8.77606 20.664 42.7627
5.04877 11.5274 33.4524
6.91729 17.4419 46.9344
8.28006 16.2193 42.5325
13.5182 27.8548 42.3648
4.62545 13.4853 36.3571
7.9167 17.1864 39.0257
7.74854 16.3953 27.1189
2.86707 11.3797 34.1048
7.93967 23.2772 77.7687
15.27 25.8928 45.4442
8.35446 15.0813 22.7484
7.87797 22.1282 47.1204
6.81105 16.7692 36.7405
4.80133 14.0648 48.3841
9.98038 16.9253 24.9073
6.17894 20.2104 53.971
7.01201 13.784 35.4322
8.58184 21.3348 52.2884
7.15684 12.4924 35.262
10.4939 22.9745 40.9834
4.71091 13.9654 38.8481
7.55634 16.7055 41.392
9.61913 28.1997 65.7201
6.83753 15.4284 49.6368
9.76896 13.8242 27.6752
8.56803 23.3065 47.3644
8.49045 20.3723 48.6031
6.02247 11.645 26.9282
5.73935 14.7682 30.4454
2.541 5.22959 18.0151
5.42991 14.1077 33.0808
4.26674 10.8699 43.8541
9.81322 17.5136 26.5005
4.59079 10.3031 28.664
8.22483 20.4707 35.8372
3.82622 14.2696 47.9607
8.08613 13.5148 24.2549
5.08738 13.8808 41.0481
8.3968 19.6566 43.2982
5.29312 14.0341 41.8482
7.36655 14.5833 35.8937
8.07072 18.6484 39.2842
5.7093 11.8932 23.6736
6.33981 20.471 53.5132
6.82951 15.7959 37.126
4.62812 8.96813 25.7822
7.76562 20.0645 40.4656
5.16403 13.0394 30.1709
5.2135 13.1202 24.1485
4.67737 19.5937 52.5834
