# pn-170911/RbIIR-43-KOKB-1280-1959.psd
# Power spectrum* (dif=0,1,2) (really just |FT|^2)
# NOTE: only the first half! (symmetric)
# weeks: 1280-1959
# 7 clock-days, 0 excluded
# PSD: 1441
419.493 0.232703 0.100126
27655.4 1.75604 0.0320706
93079.7 2.41198 0.0318407
44602.1 2.17079 0.0332753
19882.5 2.24046 0.0327358
14356.7 1.14769 0.034607
6856.49 1.04695 0.0338547
4574.23 0.934835 0.0314988
9577.88 4.48134 0.0352673
5625.41 3.04505 0.0342861
24068.5 13.6114 0.0438034
4415.42 2.07738 0.0382946
8514 5.11836 0.0374507
4786.98 1.72282 0.0310752
9335.41 9.69321 0.0321857
3592.64 2.75887 0.0318924
18173.2 21.9661 0.0636262
5083.99 4.54466 0.0528407
13451 16.3787 0.0548058
8669.55 9.30356 0.0551169
10798.9 18.4717 0.0515581
4834.41 6.16983 0.0271406
8564.06 19.3873 0.0823073
3579.66 5.61776 0.049978
13091.7 29.7656 0.130553
8073.36 16.7294 0.0933795
9404.95 27.1838 0.117778
5689.91 13.5659 0.0653793
6022.54 20.5827 0.130234
2040.3 4.54283 0.037978
7534.37 28.5834 0.186982
4129.78 13.6434 0.116375
7894.23 34.4379 0.231239
3595.17 13.575 0.0721101
4088.89 20.2123 0.146836
1515.38 6.27336 0.0454776
3932.83 23.401 0.170425
1959.6 10.1772 0.0994709
3367.99 23.0022 0.198458
2445.38 13.1004 0.131905
3185.32 23.1549 0.2397
2329.64 14.382 0.0900191
2673.82 21.4301 0.197348
1486.14 9.81443 0.131657
1518.94 15.2879 0.185379
1510.44 10.527 0.15542
1632.52 16.0204 0.220256
1047.45 8.93784 0.0792074
1126.8 10.5938 0.149381
1068.34 11.4856 0.114472
889.713 13.0893 0.173256
1205.88 11.2963 0.222403
768.942 9.17347 0.146167
936.074 10.5528 0.161747
888.43 9.17089 0.107691
662.68 8.48937 0.129924
666.919 10.6723 0.168556
656.631 9.46348 0.217319
680.651 9.38106 0.225335
408.861 5.38274 0.136077
743.529 9.22134 0.173443
296.711 3.94382 0.0577578
450.602 9.50135 0.137819
217.654 5.78898 0.151176
485.02 12.9294 0.33481
171.789 3.65418 0.13365
629.816 7.95714 0.24667
422.515 7.74564 0.139857
261.461 4.09297 0.146302
295.627 6.00571 0.15384
182.417 4.72236 0.161843
114.518 2.3371 0.101328
292.152 4.86551 0.19332
402.423 6.43724 0.208053
301.555 5.20576 0.140547
223.254 5.13018 0.170127
126.994 3.37239 0.120093
301.556 5.56977 0.178629
216.674 4.08409 0.106058
140.312 2.99188 0.141221
316.67 6.79778 0.296948
332.156 6.11008 0.229159
189.233 4.06526 0.153784
168.321 4.4394 0.213636
204.61 3.78319 0.164185
167.208 4.91357 0.209946
227.89 5.07501 0.246527
226.838 5.94822 0.26324
214.443 3.7015 0.183576
211.302 5.27382 0.281652
190.695 5.43481 0.231531
100.294 4.79851 0.190962
208.139 6.90875 0.309942
226.118 9.9622 0.495287
204.718 7.99349 0.335401
333.473 11.8501 0.603038
193.544 5.09553 0.259173
118.447 4.26351 0.194697
225.537 9.11424 0.410825
102.163 4.13124 0.213048
253.144 10.0713 0.543436
202.781 7.28283 0.333924
278.82 8.81068 0.416774
181.519 7.4061 0.377538
124.342 5.78406 0.26468
200.16 6.7922 0.391741
172.409 6.40072 0.305435
146.874 7.84275 0.480137
269.873 10.4653 0.732289
275.945 13.6274 0.97321
134.065 4.9649 0.355386
234.808 10.8876 0.582513
194.513 12.0386 0.749053
129.326 10.2193 0.669778
109.22 6.37873 0.401818
265.807 13.6327 1.09076
215.412 10.2965 0.789695
116.08 6.37213 0.272413
189.987 10.6939 0.630423
99.6286 9.97513 0.675119
170.112 12.6935 0.942713
214.947 9.51572 0.686728
145.005 9.125 0.66833
138.711 8.61978 0.565937
194.006 11.5349 0.888364
217.334 14.2566 1.26394
137.187 8.39302 0.496546
107.636 6.46728 0.516432
165.727 14.1525 0.951998
157.524 13.0741 0.998889
61.8327 3.74628 0.264995
54.595 3.46888 0.261151
174.868 10.9845 0.847632
73.0152 5.54099 0.536598
184.406 14.3155 1.51224
118.179 9.45569 1.03651
116.308 9.53989 0.902264
105.189 6.32512 0.591181
139.732 12.1009 1.05566
49.9245 5.9528 0.674831
78.2641 8.23292 1.02102
75.9635 8.84108 1.09627
230.659 16.9811 1.22791
150.589 12.0142 1.36856
114.658 9.54959 0.913854
94.7705 7.72975 0.819917
53.7357 5.02577 0.531766
79.9094 7.96546 1.06338
90.2446 9.40123 1.03815
70.9204 5.71008 0.605489
152.877 17.0399 1.68906
104.937 12.9454 1.37649
93.8823 10.756 1.06412
96.5936 14.0934 1.62153
122.592 12.881 1.4084
66.4017 8.43639 0.917338
94.514 10.5987 1.11452
73.3867 10.7006 1.18961
129.532 12.6714 1.58712
168.904 18.2142 2.47684
80.758 8.27049 0.834713
68.1089 8.90824 1.46039
121.889 12.438 1.52987
129.091 10.7744 1.20865
77.7634 10.3667 1.47858
69.4126 7.07038 0.84617
112 8.28043 0.941689
100.406 9.89123 1.30368
72.8186 8.25754 1.0856
150.725 15.5541 2.25467
79.2096 10.1103 1.21187
87.9022 9.81186 1.39074
85.2308 10.9491 1.70664
66.4188 8.7526 1.42448
146.901 15.6354 2.17738
88.5333 10.7989 1.40348
103.345 16.1467 2.53727
138.309 15.4016 1.86831
42.0235 4.97471 0.823972
67.3865 10.6196 1.72553
245.407 30.1853 4.4084
72.8123 8.8382 1.08374
85.0633 9.97758 1.59168
87.2457 12.345 1.93761
60.7462 8.64984 1.22375
47.4622 7.16809 1.36179
59.8659 8.01526 1.29476
91.4967 9.67793 1.86582
38.757 6.17005 0.983225
78.6607 12.6365 1.85367
59.7721 10.749 1.84587
47.6033 8.29613 1.75208
95.7109 14.6482 2.36672
106.993 12.9868 2.22809
89.8661 11.6811 2.16411
122.895 22.5049 3.63296
53.9021 7.54915 1.44659
94.6578 19.1447 3.26743
73.8863 13.146 2.34436
92.3451 13.3607 2.51953
64.2317 9.73865 2.08939
99.2123 15.9704 3.17894
77.0877 15.0106 2.84871
70.9303 13.449 2.43796
97.0916 20.6241 3.84941
89.3997 13.6763 2.77364
53.4021 13.9318 2.47509
72.7956 11.2725 2.4974
98.0726 21.5061 4.33047
65.3871 11.0117 2.42037
30.5896 5.56868 1.13172
73.9075 16.4273 3.72559
41.7621 8.54751 1.79515
68.4064 14.2068 3.54653
59.1521 11.0452 2.04729
108.581 17.9069 4.34427
84.4647 20.127 4.6517
114.235 18.921 3.83074
128.689 24.7893 6.13863
26.3172 6.34306 2.10993
99.4669 19.1359 4.04134
48.0967 10.0249 2.34299
84.4868 18.9004 4.04269
92.8032 23.3604 5.27908
89.594 17.7112 4.45847
113.44 24.4686 6.2347
61.1274 14.8538 3.68534
62.7609 13.6312 2.55707
45.4403 11.1943 2.2052
25.4106 6.46611 1.2591
82.0899 23.2827 5.81338
58.368 8.79353 1.6583
59.5187 15.8374 4.29609
107.58 22.9767 6.01266
95.8985 21.0739 4.94155
66.4498 17.324 4.30907
58.0244 16.7611 4.3201
40.5331 11.546 3.69032
65.041 16.4054 4.52395
62.591 22.2058 6.57726
113.465 34.4478 9.34202
120.268 27.1383 6.64623
59.0792 16.5458 3.89323
52.501 11.4249 2.95754
86.6709 24.1636 6.90075
46.858 13.6886 4.07964
50.9977 11.9462 3.14701
53.8946 12.2749 3.02901
49.6119 13.6868 3.64114
38.9601 15.2605 4.58514
56.7276 12.0254 2.7041
71.6505 24.066 7.65258
45.6653 12.6529 3.58636
75.5125 19.1731 5.88604
55.7368 12.9081 3.53098
37.9711 9.92959 3.78521
117.502 34.1383 9.41964
66.0417 18.2012 6.07287
88.7653 23.4356 7.77324
49.1652 17.4677 6.14785
88.7149 26.1026 7.61287
96.3473 20.0776 4.85329
73.489 21.213 6.91076
74.1437 18.7283 5.34336
60.2261 16.413 5.91112
34.1664 11.3395 3.34321
58.8085 14.9995 4.50506
66.8422 23.422 6.95557
63.3149 20.646 6.46028
78.4149 25.4709 9.06877
64.1331 16.5475 5.0061
36.3157 11.4412 3.47323
32.9993 10.2431 3.38428
32.5339 11.0815 3.73793
72.9633 22.8196 7.80998
48.6288 11.9608 3.9282
34.7545 12.6806 4.65255
38.2085 16.3178 6.36612
50.0524 13.2965 4.46883
82.351 20.2851 6.34073
75.945 24.4143 9.71118
38.5251 13.0145 4.86836
82.3611 29.7 11.3898
42.6396 16.7653 6.76477
53.8616 21.5222 8.5259
44.7557 14.7255 5.49193
83.2377 27.5326 10.5126
49.2465 21.0437 10.5968
130.755 45.884 17.4465
88.0701 31.6904 12.2363
73.0037 25.1151 9.75014
75.0923 28.9955 11.3093
46.1047 12.5369 3.90581
25.8174 8.25639 4.15967
70.3631 24.4697 7.13035
36.1185 15.5358 5.86341
31.9407 15.8771 6.4739
42.9882 21.6266 9.46329
54.1386 15.5552 6.15361
71.8575 31.1574 13.9674
52.806 17.3784 6.64387
41.4185 15.0381 6.22888
55.6391 19.8854 8.29679
52.0306 22.317 10.2725
46.761 16.4826 7.34842
26.7941 13.3478 5.67185
35.5537 10.2277 4.21715
69.4635 28.3032 12.1352
29.1079 13.1151 6.45101
65.7948 27.8632 13.3212
37.4597 18.5871 8.29633
54.6467 19.9454 8.80887
53.9505 22.114 8.66607
49.2338 18.3773 9.69816
45.0828 18.4915 7.26711
43.1931 17.3899 6.23689
33.185 14.0904 6.32215
55.052 27.3969 11.7402
112.114 47.1323 21.477
27.9658 14.4055 8.5894
42.4781 16.1623 5.38281
49.1047 25.68 13.2273
46.6228 20.7865 9.59413
35.8355 12.0816 6.39013
49.5337 22.5223 10.9899
50.278 26.0522 13.6434
46.7043 16.2292 7.77407
22.1359 9.91291 3.46059
47.0546 27.2367 15.2951
21.9604 8.84205 4.6594
15.7126 11.3734 6.31206
59.5969 28.5271 12.5945
42.7773 20.9289 10.2971
35.8896 15.5248 10.4905
78.0246 35.487 15.1685
44.1186 24.6756 14.3897
176.466 88.7583 42.4189
26.3901 13.7086 9.12151
42.9718 20.3111 12.5297
62.64 24.9659 11.2595
45.4148 18.9476 9.17646
50.2584 27.999 15.9862
42.9815 21.432 11.3627
59.8955 28.301 13.8994
40.0281 23.3202 13.8745
21.212 11.7693 5.58178
60.1969 36.4081 20.0978
62.2931 26.4031 11.8491
30.8424 18.7822 11.8882
46.8784 22.462 12.2316
64.8076 36.8615 17.9139
28.4707 20.6075 12.4746
68.2738 39.2489 21.6632
31.2764 17.4134 8.47349
35.6212 19.624 10.6845
51.3457 31.6511 16.1519
49.0563 32.5959 19.2134
54.9958 37.6137 21.1905
45.1087 25.6811 15.9613
28.8702 20.7016 14.3316
32.2152 17.0135 9.95284
38.3507 19.1993 11.6962
34.8708 19.0105 10.3501
31.2612 21.1913 15.1427
28.5439 16.6999 13.2001
36.9075 14.341 7.3256
53.8828 30.5223 16.7077
35.4265 18.7065 12.2905
29.5705 19.2311 10.2958
24.157 16.5629 11.8825
51.1794 25.1715 17.5282
40.7388 19.7295 8.73416
62.2855 36.6752 21.6684
46.6965 33.5668 23.1114
19.7543 11.5251 7.43063
50.4381 30.117 20.2009
42.4923 22.8269 12.751
24.2632 13.8122 11.2105
31.7063 21.1464 14.3929
29.7613 15.9384 8.40311
54.6735 39.2453 22.8498
25.6832 14.4971 8.25724
56.5488 41.105 31.2322
75.5028 50.2353 29.0854
139.462 123.858 96.9208
80.347 29.9899 13.4562
45.398 20.7852 11.8421
26.1609 20.2398 15.1936
45.943 24.8424 16.2948
29.4017 19.52 13.788
31.6054 18.6716 11.7465
47.3582 36.6326 24.69
43.4242 22.5207 12.1013
27.9443 22.8637 16.5348
45.8492 33.6824 22.1248
59.6938 35.9057 25.1
65.3565 45.6924 32.8634
29.5589 14.8595 11.5041
44.4559 29.6897 22.0137
59.934 42.8794 35.8699
186.023 132.67 88.0523
47.958 33.4809 23.3976
57.6025 35.4943 23.9358
21.6251 13.7192 11.4791
45.7102 36.0482 23.2612
24.446 17.858 12.4198
14.1932 14.6867 14.48
46.975 30.9598 21.0812
21.028 18.5718 15.933
32.2373 20.0646 11.8124
13.9079 15.8911 14.0169
30.7751 25.202 20.1004
33.5185 24.2851 18.7891
25.3614 18.1384 12.5055
9.74016 8.84261 10.783
54.783 35.2696 25.3747
55.3358 38.1977 28.3942
36.5892 27.6441 25.0886
18.7981 15.3833 13.6401
24.3968 16.0178 11.9629
20.9218 14.4781 10.2835
36.5928 25.9284 18.195
34.5701 18.9268 11.8204
22.5904 17.3465 16.2185
77.4624 50.2045 33.1945
43.4803 28.8056 21.8198
37.8595 34.1176 29.7174
18.4429 17.6674 20.1685
25.9865 19.0539 14.6818
15.7266 15.0514 12.9905
17.3715 16.8904 15.9371
24.113 22.0581 19.5637
19.9682 15.7326 12.1169
21.1304 16.259 17.7684
32.5533 27.1967 22.1698
15.8233 15.5832 15.7488
40.0337 31.755 21.1605
27.0575 29.2023 28.4174
43.8835 34.3447 22.1384
25.2068 24.144 18.8673
19.6088 19.5216 23.1691
52.4853 37.1964 25.3996
41.8921 36.3116 27.626
18.6815 20.182 16.9857
22.3775 27.2847 24.6297
20.6766 25.8905 24.3216
25.591 26.7337 28.2592
37.5983 30.1725 26.5764
35.6987 34.8351 35.9373
46.4456 33.4189 27.0791
29.1513 20.204 18.6005
20.5247 21.4488 22.3897
36.4045 29.1496 28.5928
41.4743 25.7613 16.1419
28.6128 31.2907 34.4914
34.4823 26.9798 22.5844
18.2356 15.0777 15.2357
42.0855 35.156 31.8504
33.5887 25.0469 19.8505
20.8796 24.9315 24.0742
33.4719 34.5585 38.4008
18.4972 16.7346 15.4791
24.7081 16.0254 13.7347
20.6723 23.0512 23.4206
25.7989 19.9331 12.8206
16.4393 21.319 16.5906
23.1324 30.721 33.2833
28.5052 18.1706 11.7345
13.0324 16.0332 21.6881
38.6214 31.2037 27.3674
7.69317 8.09413 8.39544
17.9915 14.7588 10.9426
40.2422 49.2061 49.4912
39.1268 43.2922 41.2915
16.5067 21.2558 27.4467
25.1442 17.3645 21.6062
28.8726 19.138 13.3392
26.197 30.913 32.7789
23.0842 25.8911 31.4281
32.4723 24.3963 27.3903
36.4383 28.4608 23.3173
45.8035 30.2516 21.2538
31.4887 27.7225 22.906
58.6836 53.2924 41.9016
14.6154 11.6615 11.558
48.3453 41.7023 40.1095
49.2366 47.4533 42.9175
46.3936 44.0412 40.3865
20.9991 21.4459 22.5339
33.3073 42.423 47.9469
18.75 19.9759 24.555
20.7918 18.0536 21.0457
28.3693 24.362 25.7849
38.529 41.3558 41.3578
10.307 10.3403 15.657
21.7735 23.7808 22.7096
22.7823 24.8133 28.0593
39.3417 43.1969 39.9094
40.2521 45.5844 40.9339
13.6933 18.2817 20.3245
14.2251 11.0074 11.1276
29.7367 38.898 44.1959
29.4839 29.8969 30.4125
14.6963 19.7846 26.1319
7.22329 8.84916 15.0383
33.6919 33.0543 30.3699
33.4719 37.7868 36.6543
12.6048 17.313 21.6382
24.6863 23.4068 21.6576
23.1376 31.9402 40.0208
19.9382 20.5247 29.3587
15.8436 15.1713 19.5507
32.6128 30.3291 36.1342
34.2768 31.4481 28.9935
20.555 25.6449 32.2353
20.6183 21.688 26.6609
15.2722 12.926 11.2692
11.3859 20.0147 34.8227
34.7033 33.354 40.3399
13.3892 17.5354 25.6772
34.0545 27.1694 25.0559
26.6453 33.7931 37.3968
17.4392 24.9742 28.8011
19.1903 26.4257 32.9794
21.6096 20.2136 22.2929
41.1629 48.2076 52.1949
38.4088 43.8144 42.5409
12.4089 28.1471 43.7861
31.462 35.8432 43.0748
14.7794 12.3583 14.7118
9.84923 10.7752 11.8819
25.4742 37.5931 54.6269
18.0501 15.6359 20.3109
19.5783 24.3099 23.8379
19.9562 25.6676 38.3115
29.1599 38.0396 40.9764
22.7156 21.0301 18.7524
18.3874 30.7099 48.5875
47.3113 57.4575 61.0823
17.3947 23.1963 33.8025
25.3726 25.4619 36.2645
13.4125 20.3053 33.883
45.8278 43.717 42.7723
21.1166 25.7316 35.299
33.7411 37.5102 32.3357
26.375 41.8533 58.1081
20.414 18.1888 26.8293
17.8134 16.4598 13.6621
17.819 20.6968 26.1416
12.2518 15.6852 18.7149
16.0881 20.1516 23.7814
28.8514 33.4267 35.9349
26.8154 38.7367 51.8913
28.3335 32.3505 33.7097
24.2326 34.9257 43.3378
13.3014 18.3254 22.3737
19.3499 29.9439 44.5069
21.5851 28.5215 29.4797
16.0116 29.7443 47.9951
25.3675 29.6943 31.9295
19.3297 26.8115 37.5447
27.9267 29.7072 22.8536
15.6299 26.1861 30.6602
12.701 30.7137 48.3177
19.7332 31.0149 38.8539
6.79669 13.8502 28.0905
15.0446 15.4526 25.3492
18.8165 24.3861 31.0706
12.3169 13.1292 17.1393
18.5307 31.5986 37.7681
12.7653 17.3008 27.9354
10.6909 6.39003 7.20265
16.033 20.4587 25.5271
11.1643 24.1693 45.1139
20.7314 25.5131 37.9488
27.7957 41.8457 55.7146
31.1481 30.046 23.6128
29.0581 45.9506 55.7658
11.8336 23.6364 36.96
11.3572 13.0794 16.4456
5.72156 12.1318 27.3622
21.0753 30.0908 35.3529
8.25138 10.9494 15.0575
14.946 26.8457 42.6136
11.2269 19.9891 40.7594
22.3089 26.898 39.0688
13.5335 14.3194 26.0449
18.6837 23.3695 29.2192
16.9372 17.205 24.5152
17.0321 16.1775 23.0303
11.5573 15.3723 31.5231
21.0215 26.7575 34.2225
21.7077 31.5357 34.6626
11.0188 26.0259 40.4906
22.2962 33.5137 42.7171
15.507 29.7309 62.5892
29.8137 27.5226 31.4238
31.6931 49.9553 62.7866
11.051 15.8164 27.0017
13.6201 24.2674 42.4495
25.1764 37.6269 53.7058
7.9646 11.2041 26.6799
21.9045 27.6195 34.8241
14.6123 19.146 30.3886
11.2599 21.2167 37.607
14.082 18.365 30.6678
25.1232 34.316 47.2419
11.4123 11.7566 16.6981
14.3946 26.04 36.8044
13.285 15.9535 23.1497
9.25787 19.5787 39.114
16.7817 21.1271 34.9777
23.326 31.2988 37.717
13.9679 21.8466 35.0729
13.8 22.2189 45.9305
26.2938 32.6253 42.0532
15.937 17.5954 26.7827
18.3725 23.4742 27.0033
20.8054 42.3901 61.6492
15.6004 22.2685 35.5274
13.4115 17.7489 33.3009
15.3947 21.2755 27.039
11.7643 22.3704 50.9391
21.4611 29.865 27.0705
4.03097 14.5534 21.0887
6.85127 24.2883 55.9309
29.8024 33.2652 39.497
14.2732 29.5074 63.4893
24.8183 29.928 46.3494
22.0942 35.5917 50.2003
5.95801 8.86528 23.0016
16.266 30.8507 37.5042
4.21002 11.2732 33.2912
13.6117 12.0508 22.2236
24.903 38.6068 52.1838
6.97648 10.6896 20.7942
6.03814 5.56432 5.63704
10.2951 20.6464 26.9959
6.09688 14.3989 29.2473
9.42516 9.12278 17.328
14.9227 31.4106 54.9602
14.7113 23.0334 34.127
13.1922 26.1123 43.7475
19.9646 37.9638 58.675
11.4563 13.4382 26.1338
8.21624 13.8859 35.0724
22.8112 32.6528 48.9815
7.47107 9.6384 17.0983
12.6357 21.5731 39.8963
20.2979 30.3414 40.4693
15.3421 27.7989 55.8209
13.346 20.6835 44.6062
15.4683 26.0532 52.0346
28.5362 36.4801 43.0787
17.7 38.8897 65.3861
7.91315 13.3872 43.2438
13.6379 12.2524 23.1631
18.3947 25.9043 37.6469
13.1757 17.7633 23.8017
6.75798 10.1614 17.5191
11.8418 21.1046 34.8776
18.5383 37.9563 74.9473
25.3133 40.053 62.7152
18.4457 27.0967 43.8282
11.6254 22.1423 47.9947
18.3076 24.9401 34.1369
13.8362 30.4316 51.7591
15.1458 21.2654 36.2132
10.005 11.8034 14.5249
8.69413 16.9184 35.4229
10.6035 18.0614 35.1591
11.9521 23.6412 52.23
22.2261 34.7735 65.9465
20.1055 34.4321 67.5568
11.5464 20.5332 38.1435
19.7316 39.1904 61.7844
13.4279 22.0196 42.8258
14.0962 21.3772 32.2444
11.8986 28.5616 54.7219
14.9369 25.4505 51.2513
6.62445 12.7584 22.903
6.9092 12.6139 24.0482
11.3267 20.3578 33.415
8.75811 14.9805 28.4305
6.74749 17.0665 38.7344
10.6572 16.1862 23.118
10.5357 27.7778 43.6951
9.3494 22.148 59.5844
18.309 24.861 37.1571
15.1382 23.947 39.9425
14.6555 23.6163 33.1054
8.61405 20.4874 37.559
14.5616 38.3862 62.5023
11.0108 18.8096 34.3723
16.2442 37.3954 51.6516
7.85049 19.4321 34.0088
5.66117 20.5459 51.6838
20.336 42.2805 77.9677
11.5686 21.0352 38.7781
11.7635 28.4258 59.9438
12.9656 21.0931 40.3847
12.4231 38.1802 78.9929
9.95873 19.5183 71.4087
25.2135 30.5039 50.9055
12.908 22.1641 39.7706
10.2058 20.4302 56.4282
9.68644 19.5975 47.7401
7.67572 13.3274 43.7022
14.9957 28.6982 97.4637
39.4324 54.9969 88.8178
19.8554 19.8249 38.7173
26.5173 37.0682 61.4423
19.0347 19.6558 19.1653
14.897 21.1798 25.3213
9.94138 19.2639 49.5244
15.6186 21.4123 42.4775
23.7254 29.2642 38.0954
22.0969 35.877 48.7942
13.9384 31.4868 48.5092
13.4962 33.8361 70.1055
11.1845 17.9425 43.9192
16.1808 25.99 35.4685
13.0555 29.9733 60.5161
18.1284 23.0934 27.3471
20.7801 47.661 79.4682
13.3396 43.9471 108.596
9.70567 10.6912 29.0202
12.4362 31.1916 63.4794
14.0958 25.1499 51.9556
13.684 39.4009 92.297
14.4769 32.7815 106.48
23.7311 36.5222 68.9513
11.431 21.388 66.9417
17.2742 23.8457 40.3794
6.79977 12.5219 30.0901
5.71067 12.2244 41.3652
17.4442 26.4559 43.795
11.1091 23.0322 69.0333
27.1027 48.6148 98.9486
19.835 30.3156 56.6815
14.1086 28.0649 60.0594
11.6085 25.0406 57.6276
12.1592 14.7727 27.6423
18.5098 33.82 44.5162
6.60433 17.3073 37.5092
12.4096 23.6215 47.7848
11.4518 23.325 41.3963
20.2811 50.9226 93.4138
18.0691 42.3367 84.0577
15.2997 27.6208 32.7866
7.14109 20.3219 35.5052
4.44438 16.8287 62.5292
19.7731 39.0636 58.8082
6.96377 22.4885 59.1285
8.36918 25.9982 75.2296
7.11405 15.2576 48.7397
9.20623 14.8574 30.5583
4.01509 11.729 28.2033
5.6393 9.28067 26.3521
8.39394 25.6985 90.0048
21.7761 36.9148 42.7732
7.63206 17.4582 48.6529
11.6789 26.5113 50.5215
8.80955 23.1498 48.8379
7.5154 20.1866 47.7312
11.1236 14.7708 20.8166
4.17188 10.5959 20.2921
7.15594 14.3545 35.9593
17.4244 54.9149 105.88
8.0726 8.75705 26.4998
12.6741 37.7629 67.0727
8.69907 20.8781 50.4978
10.9797 27.2493 66.0383
10.8726 12.3551 29.7012
9.79986 28.3879 58.4475
9.78577 17.5426 33.1767
12.5308 40.2935 71.1316
5.01627 13.3925 56.7149
15.824 24.6698 45.1192
7.01426 15.0387 40.9012
10.4905 15.5935 35.2414
6.28385 17.5085 46.9971
8.49382 21.289 38.9295
5.77879 20.6023 57.5359
12.2979 24.7415 50.0258
8.63468 18.8476 58.1178
13.1618 15.371 22.6263
10.3942 24.6146 60.2116
14.831 27.8156 53.1173
10.7356 19.4009 46.4132
6.89981 18.6374 63.6571
18.7378 35.0902 67.8224
14.2159 25.9175 59.2154
16.0763 28.8059 52.2239
12.695 26.628 59.6609
7.28908 14.7487 56.5952
15.1902 22.9657 35.7683
9.05253 21.6635 47.3493
10.2632 20.9617 64.8428
15.7114 24.3313 36.1233
7.74462 18.8724 46.0267
12.8816 24.8789 57.6101
17.6778 39.7833 70.1271
6.51272 15.0516 44.758
17.8033 42.3229 82.3255
23.9566 55.7251 94.4863
6.27611 30.7164 106.506
14.4164 22.3081 47.4756
6.75318 15.5016 38.75
7.20403 23.1039 61.0325
6.55804 12.4823 54.3483
15.7003 23.8126 34.4816
8.05077 17.9042 33.4702
7.63095 20.809 40.2395
6.53678 30.0931 91.4836
5.72213 7.30088 19.3905
4.40725 17.3078 52.0936
6.89493 17.5551 47.347
3.79445 8.80175 27.5195
5.75514 12.3634 29.4195
4.41028 12.7306 20.3712
2.7064 16.995 62.9993
10.0886 17.3701 32.9103
6.89812 17.5125 47.8975
5.62717 16.9676 46.3033
11.1964 31.2542 70.7979
8.25104 14.6264 35.3347
5.92084 22.7114 65.6738
11.6994 19.8047 49.9402
