# pn-170911/RbIIA-27-RbIIA-1280-1959.psd
# Power spectrum* (dif=0,1,2) (really just |FT|^2)
# NOTE: only the first half! (symmetric)
# weeks: 1280-1959
# 327 clock-days, 100 excluded
# PSD: 1441
4822.97 0.226656 0.0178568
636429 8.82713 0.0101062
3.15494e+06 66.4216 0.0122814
454144 16.9296 0.0116177
349835 22.3064 0.0116933
185749 18.3434 0.0121563
119317 16.7091 0.0143251
87415.4 16.2989 0.0121757
67077.6 16.7948 0.0135736
43379.8 14.1611 0.0157882
47390.6 18.6079 0.0171889
36538 16.3829 0.0212344
30349.2 17.8928 0.0219721
26469.9 16.9182 0.0226684
18444.8 13.9315 0.0226733
17304.8 15.1559 0.0259067
15560.4 15.0307 0.0295649
15242.1 16.7684 0.0339539
14907.7 18.6995 0.0377464
12589.7 17.5775 0.039658
9616.66 14.569 0.037693
9086.7 15.876 0.0411126
7651.37 15.0392 0.0446357
7280.97 14.4898 0.0457067
7347.56 15.3854 0.0530498
7204.3 17.5091 0.0651012
6586.93 16.8138 0.0613466
5044.61 14.9181 0.0582193
5061.45 15.7767 0.067374
5616.07 18.6554 0.0900489
4150.08 13.4272 0.069097
3977.41 15.6318 0.0803804
3670.24 15.4841 0.0833363
4377.66 18.5727 0.107439
3770.43 17.3766 0.102784
3425.06 15.8874 0.104057
3395.72 16.7267 0.109934
3200.7 16.5702 0.122189
3157.77 17.3806 0.133982
2312.69 14.7389 0.116844
2835.65 17.8809 0.149265
2379.84 14.5776 0.124498
2388.53 16.8294 0.150761
2385.45 17.6214 0.165782
2281.61 16.7812 0.159833
2127.5 18.1542 0.184759
1933.74 16.5728 0.178132
1795.38 15.5908 0.171628
1857.91 16.5392 0.19575
1637.55 15.3991 0.190847
1575.46 16.6809 0.211015
1835.06 17.5499 0.228808
1553.7 15.4638 0.210549
1362.25 16.1695 0.224191
1584.97 18.0831 0.245924
1425.85 16.2634 0.239117
1185.46 15.3159 0.244172
1297.2 16.1405 0.246753
1147.14 13.6041 0.23032
1252 17.2692 0.29446
1201.47 15.6918 0.273168
1029.31 14.3441 0.259418
997.561 15.8515 0.290708
1092.16 16.316 0.319488
1036.72 15.8711 0.326723
916.208 14.5665 0.303134
959.638 15.9791 0.347243
910.453 15.9005 0.359135
781.058 14.327 0.333519
831.709 15.777 0.37564
943.209 16.7015 0.396247
878.021 16.828 0.409783
731.372 14.7866 0.367
841.051 17.2926 0.443025
757.047 16.6376 0.447222
728.833 16.4153 0.453514
646.004 15.8225 0.438749
819.125 18.5893 0.534588
673.807 16.4748 0.507545
669.538 15.694 0.472867
630.002 15.7137 0.484349
556.193 14.3164 0.467377
588.039 16.5419 0.540142
655.65 18.7615 0.616858
651.351 16.9079 0.572906
579.387 15.2394 0.540749
567.94 17.8413 0.640248
573.04 16.3835 0.598456
553.86 18.4285 0.677791
514.497 16.1784 0.624017
485.444 15.6346 0.613725
510.98 16.6114 0.65591
577.498 18.7563 0.750757
508.095 16.515 0.732817
373.763 12.9038 0.560254
442.962 15.703 0.678061
410.468 15.4718 0.687227
414.814 14.4838 0.639141
401.441 14.5514 0.657487
404.947 16.1986 0.771207
421.807 16.0118 0.755775
339.38 13.7737 0.689861
463.188 17.1916 0.850071
407.675 16.3872 0.8369
429.08 17.6597 0.925583
371.367 14.7569 0.768781
362.951 16.7166 0.907951
357.92 16.1157 0.871823
316.488 14.8369 0.848778
411.547 19.0157 1.06737
345.803 15.67 0.9111
332.311 16.7794 0.968124
325.283 16.1304 0.957886
371.335 17.8588 1.0844
320.02 15.6272 0.942776
311.073 16.8985 1.0578
318.023 15.5637 0.986618
302.901 15.1318 1.00209
297.969 15.6742 1.04587
307.218 16.9128 1.13794
325.292 17.7555 1.22609
305.791 17.5221 1.24156
280.433 16.4155 1.14427
234.441 16.0365 1.14123
298.767 17.7825 1.2765
228.296 14.2516 1.06038
270.72 16.8975 1.29011
235.746 14.0708 1.08064
234.716 14.2936 1.12847
245.072 16.0251 1.27021
256.135 15.8102 1.26524
224.455 14.6952 1.20642
210.433 15.9742 1.34804
221.271 15.4599 1.32125
230.189 15.2453 1.30274
243.27 17.467 1.4883
228.761 15.502 1.38433
222.642 16.2438 1.43966
194.74 15.2553 1.36378
206.324 16.908 1.53189
213.153 15.7573 1.47142
203.803 15.8626 1.49735
197.982 15.4408 1.4371
196.65 14.8228 1.42989
204.746 17.0933 1.64605
198.067 16.3326 1.64988
186.972 15.3741 1.52421
199.465 15.5486 1.59715
182.298 15.3878 1.59362
190.768 16.2715 1.69905
168.597 14.2088 1.49444
145.719 12.9996 1.45143
157.431 14.1533 1.54909
177.886 15.5633 1.72623
142.234 12.2408 1.38238
173.967 13.8296 1.59364
179.778 17.3325 1.9828
194.077 18.3519 2.15562
173.208 16.2171 1.87736
181.246 16.7137 1.9627
155.399 14.7655 1.76059
160.972 15.5423 1.90284
142.402 14.5687 1.81849
145.228 14.3445 1.80205
166.285 17.2545 2.21349
148.642 15.3563 1.98874
164.855 18.0325 2.3747
164.161 17.3023 2.23303
167.847 17.8043 2.35272
130.634 14.1254 1.92284
140.584 16.1627 2.1942
139.603 14.7286 2.03613
148.467 15.4939 2.20133
144.315 16.0011 2.27262
146.22 15.4103 2.1767
129.047 14.4853 2.15829
149.341 17.1075 2.48464
108.683 13.3738 2.02761
127.61 14.9898 2.21599
138.349 17.2964 2.53145
133.544 16.5188 2.53011
130.688 15.85 2.44662
126.364 17.4091 2.80812
121.852 14.9321 2.33667
126.607 14.8154 2.33486
117.071 16.3883 2.58708
110.479 14.5034 2.3987
114.927 15.1555 2.50987
97.2755 13.7391 2.32786
106.442 15.2424 2.55975
125.886 16.9485 2.92274
102.327 12.8722 2.22265
103.385 15.1428 2.61329
117.135 15.4978 2.78971
99.3686 14.3098 2.52681
93.0783 13.7818 2.57009
112.025 18.0667 3.24622
114.174 16.4129 2.89546
93.6405 14.3979 2.63253
107.931 16.5701 3.06052
103.001 15.0869 2.84622
88.7114 13.6393 2.56793
92.7754 14.3544 2.73632
108.301 15.66 2.99678
93.8711 14.7326 2.86513
92.987 17.0947 3.43978
87.2713 14.4069 2.87488
91.7128 15.0276 3.09138
107.836 17.8103 3.56916
91.2035 16.3331 3.31286
95.4783 16.2104 3.32456
92.0024 15.0206 3.12326
82.8821 13.0206 2.6857
87.5606 15.4891 3.33654
94.2647 16.5148 3.49157
87.7359 15.9736 3.38573
79.795 14.592 3.20458
90.3433 15.1609 3.31211
80.4017 15.0301 3.44791
82.1559 15.289 3.43609
89.1079 15.7871 3.57987
92.3277 16.9948 3.81695
106.973 18.5384 4.14692
76.6898 15.1414 3.51917
87.3381 16.4039 3.82462
86.065 16.6224 3.94665
77.0791 14.0267 3.33423
71.0152 12.2608 2.9933
78.1927 15.0955 3.61807
82.7754 16.0103 3.80742
74.5839 16 3.89685
66.3103 14.2035 3.62051
64.2639 13.0286 3.20823
73.3488 14.5726 3.78746
68.3265 14.9515 3.8443
66.3799 14.5926 3.83674
77.8718 14.7323 3.85092
75.0463 16.4914 4.32928
74.9896 16.913 4.55161
74.4874 16.3025 4.28815
74.6165 16.3547 4.43549
61.2621 12.5758 3.51752
63.7112 14.458 4.07081
73.7756 15.3089 4.1505
70.7998 16.6869 4.49822
69.5069 16.7347 4.77494
78.5513 17.9885 5.03239
76.5477 17.7482 5.08715
65.5267 14.5445 4.31068
67.6118 14.628 4.05971
64.1136 14.4448 4.20692
62.3676 13.6409 4.06453
57.1788 15.0228 4.41227
61.0785 14.053 4.12574
59.1986 12.5568 3.80252
70.2768 17.4372 5.08981
60.1726 16.4016 5.05358
61.8043 14.2126 4.08272
58.4449 14.9911 4.84348
62.298 14.9704 4.8095
63.3912 15.7508 4.95326
65.8741 15.8113 4.94374
61.339 15.6927 4.9659
52.4764 13.4806 4.45841
61.3018 16.3293 5.28329
57.196 14.2354 4.49313
50.2471 12.8205 4.24963
62.0237 16.0847 5.32633
55.7471 14.7513 4.84382
58.5561 14.8037 4.87527
50.0245 13.0701 4.49575
47.874 13.9649 4.69716
55.7484 15.7004 5.43451
54.4957 15.1776 5.38179
63.7219 16.8021 5.64067
58.9627 14.5668 5.12013
57.2135 15.2264 5.36994
45.9972 14.5439 5.32199
52.1215 14.038 4.73825
58.748 14.9803 5.28462
58.4514 17.2031 6.28522
49.3601 13.9056 5.0997
55.3581 16.5042 5.95662
49.8451 13.9922 5.13723
55.8274 16.7515 6.17128
46.3459 13.8275 5.25949
50.9643 15.8924 6.29004
55.2232 17.6519 6.5286
50.0428 14.8269 5.66003
53.114 16.2088 6.3071
48.6394 15.3218 5.88071
43.1612 13.869 5.52797
49.0389 15.0436 5.83918
48.3878 15.107 6.1643
54.9495 16.7248 6.41963
42.9575 15.2141 6.10707
48.9815 15.3148 6.13865
40.4803 12.7603 5.1568
42.0618 13.6826 5.65227
49.6544 14.8861 6.0523
35.0452 11.1716 4.60765
51.1411 15.7855 6.33495
43.3795 14.4524 6.22815
47.2124 15.7954 6.90285
53.1422 18.6418 7.96111
39.0456 13.6602 6.02173
43.891 16.1379 7.18725
43.5581 14.8171 6.05797
44.8491 15.4014 6.54671
38.2987 12.924 5.82305
43.9927 14.9511 6.75479
42.0621 14.8307 6.60368
45.2532 15.0337 6.36959
41.212 14.244 6.21672
34.9696 13.1458 6.25765
44.1555 13.5289 6.00923
42.5382 14.8162 6.76494
42.1539 15.0988 6.76732
41.3022 14.4214 6.61436
35.3584 13.258 6.37517
40.0239 15.4894 7.12072
42.5537 15.916 7.27461
39.706 15.4652 7.35674
37.7823 15.175 7.13955
35.3084 14.7434 7.4697
40.7697 15.736 7.68957
39.7601 14.8299 7.22312
41.0537 15.1029 7.12176
35.008 14.5123 7.34545
36.0499 14.9713 7.42067
37.4779 14.8141 7.50357
37.2827 15.1351 7.64454
39.1116 15.5087 7.51702
31.4886 12.341 6.25961
33.8202 14.0745 7.25291
37.98 15.15 7.64207
37.5531 14.9058 7.93532
40.386 15.4285 7.88878
40.5517 16.8079 8.57195
33.5309 15.5093 7.85693
35.0684 14.2009 7.65081
37.6818 15.7383 8.22935
34.5829 15.3232 8.23675
32.313 13.5441 7.41908
31.8203 13.5756 7.23818
30.707 13.4996 7.2606
31.9149 12.8349 6.96552
35.3614 15.0432 8.21032
35.3906 16.3367 9.17249
33.5965 14.3388 8.05659
34.0317 14.1245 7.47027
32.9253 14.1225 7.62683
33.2524 14.1719 8.06993
35.1817 16.7181 9.35996
34.5654 15.5047 8.93116
28.824 12.7067 7.60652
34.1578 14.5832 8.01643
29.8004 14.4702 8.37207
30.7752 12.9585 7.30168
30.749 14.4515 8.57693
32.9519 16.0197 9.37316
30.149 14.3473 8.37807
28.8365 13.6295 8.11616
26.7147 13.0676 7.71003
28.4616 14.1454 8.33527
32.5226 13.9296 8.2848
32.0807 15.3806 9.42728
29.6893 14.4209 8.81804
28.7443 14.3018 9.12414
27.2177 12.2345 7.25004
30.4247 14.4784 8.85474
26.8409 13.059 7.88241
31.2962 17.5957 11.3943
30.0248 13.9103 8.56429
29.4099 14.2819 9.12085
30.5023 15.9479 9.95691
30.7796 15.0821 10.0163
31.7387 14.7484 8.94727
25.7073 12.7406 8.09856
29.9221 14.8207 9.68819
30.0926 14.5838 9.47935
28.9512 15.0428 9.44146
29.3335 14.6729 9.67177
28.1874 14.8271 10.0206
25.5443 12.96 8.916
26.0743 15.1108 9.50502
25.0035 12.774 8.9172
25.187 12.8992 8.50133
24.5806 13.0176 9.10586
24.9825 13.7824 9.46148
25.7106 13.1104 8.66127
23.1809 13.005 8.78496
23.6039 12.4652 8.95894
25.5731 14.2295 9.91051
26.1673 13.731 9.68455
24.0945 13.1417 9.14768
25.5842 13.5882 9.54939
27.0399 14.928 10.4026
25.5623 14.5503 10.6515
22.7008 12.453 9.12782
23.0652 12.4214 8.70127
25.018 13.5393 9.59123
26.623 14.7076 10.2351
24.1781 13.6545 10.1089
24.4668 14.467 11.064
24.2599 14.2169 10.0781
22.9247 13.1627 9.54056
25.1253 14.7832 11.3388
24.5898 14.5301 10.4566
23.8699 14.0649 10.3379
24.7756 14.2782 10.7715
24.4839 14.5809 11.3888
22.912 13.6871 10.1418
21.3918 12.9851 9.41883
20.729 13.1696 10.2624
21.3291 12.5802 9.25753
24.6343 14.7121 11.5636
23.788 13.7987 10.3633
23.528 14.3904 10.677
19.3095 11.9703 9.86116
25.697 16.0458 12.4029
20.5746 13.1808 10.4593
23.1731 13.8469 11.159
21.1016 14.0168 11.345
20.2169 13.3344 10.4456
21.6967 14.7027 11.7942
22.4562 14.9766 12.3107
25.5335 16.1502 12.5164
18.737 12.4881 10.3443
23.1126 15.1604 12.4234
17.3519 11.6847 9.6995
24.8072 14.5859 12.1761
21.8481 13.8858 10.905
19.7756 13.4244 11.3511
25.5765 15.6899 12.808
22.8192 15.2143 12.7361
18.4706 13.782 12.3569
19.0465 13.3664 11.4135
24.0845 15.5844 12.8516
19.0984 12.702 11.1825
23.7744 16.3191 13.518
19.5286 14.6301 12.8079
21.1368 14.1127 12.5834
22.4511 13.948 11.7839
18.8104 13.1545 11.106
17.979 11.8402 10.7417
21.1768 13.8148 11.8428
20.1122 13.4759 12.3728
21.4599 14.8506 13.1525
18.0473 11.9932 10.7682
21.4285 15.6061 12.6852
20.6295 13.573 12.4061
19.8323 14.304 12.8672
19.0856 12.9703 11.4356
16.3699 11.5235 10.4639
17.4293 12.1854 10.441
17.0281 12.1963 11.0325
20.1575 14.9393 13.1672
16.7169 12.2604 11.7039
18.4199 13.8419 12.5603
17.5796 13.1491 12.1382
18.9087 14.255 13.2909
19.6946 14.3374 13.4716
17.1708 12.5835 12.3406
19.6168 14.0075 12.9143
19.2209 15.1607 14.8948
20.0742 14.0966 12.3057
17.564 11.6808 11.6094
17.9427 13.9405 13.115
19.1585 14.8995 13.9084
17.3461 12.8325 12.1942
16.0597 13.5687 13.2708
18.1894 13.2488 13.3344
17.2733 12.4758 11.8724
17.3998 13.4573 13.122
16.2372 13.1826 12.8386
19.2188 14.945 14.8911
16.5452 13.5462 13.3544
16.0853 12.6652 12.5749
16.8146 13.8255 14.1019
17.7519 14.4067 14.0852
14.9896 11.6441 11.9023
16.9417 14.0735 14.4356
18.4198 12.4167 12.2128
17.2742 13.5179 13.7939
17.5378 13.922 13.7987
16.9527 13.6256 13.8286
16.7233 13.7526 14.2548
16.7095 12.5267 13.4638
18.165 15.2655 15.9042
16.3662 13.5041 13.1519
14.7216 12.4523 13.6037
19.543 15.5628 15.9952
17.0631 12.6652 12.9452
15.1514 11.659 12.8722
14.4608 12.7376 12.8902
15.7124 13.3421 14.6635
16.5028 14.5651 15.364
13.682 11.8806 13.6414
14.3322 12.1192 13.0466
15.4238 13.9745 15.1101
15.7893 13.2564 14.2876
17.8355 14.5411 15.4617
17.7376 14.4846 15.2508
15.634 12.7314 13.6117
15.1963 14.215 15.1921
13.5296 11.1532 12.3373
14.5681 13.036 14.3425
15.6186 13.0476 14.6785
13.6362 12.884 15.2284
16.5866 14.242 15.4421
13.2801 11.6472 13.4476
14.0913 12.5334 14.4339
14.3331 13.4731 15.3354
15.936 12.3718 13.2426
17.4662 14.5813 15.7994
15.7116 14.4302 16.7171
13.9684 13.2543 14.8604
14.5665 13.8314 16.0621
13.6714 12.2296 14.1334
15.7421 14.8511 16.5216
13.826 12.694 15.5019
13.9303 12.6857 14.2003
15.1178 13.3487 16.3719
14.9885 14.179 16.5299
14.5232 12.1601 13.7524
13.8753 13.3163 16.2314
12.5758 12.2171 14.7497
13.8406 12.9305 14.7629
13.6548 12.0637 13.4799
12.7642 11.8144 14.3359
12.9276 12.5379 15.9495
13.1381 12.4829 15.4914
14.1913 12.1787 14.3153
13.4279 12.2408 14.748
15.1125 14.3398 16.756
14.247 13.2212 16.1037
13.6283 12.8629 15.7416
14.1452 13.9872 16.78
14.4247 14.2737 17.3725
13.2268 12.7926 16.4325
14.8262 14.1558 17.4285
12.0948 12.2774 15.9397
13.5612 12.674 15.1587
12.2617 12.9498 16.6613
13.6265 12.9321 15.7031
12.0286 12.1733 16.3893
14.3006 13.9945 17.5198
12.9255 13.2148 17.3359
13.4233 12.7347 16.6568
13.3391 13.5734 16.3981
14.1114 13.6928 16.446
11.6961 12.8477 17.3647
14.4974 13.9994 18.761
13.7463 14 17.8076
14.3895 13.7157 15.8658
11.3848 12.0855 16.1174
12.4978 12.7733 17.1001
13.8903 14.5207 18.7348
11.9401 12.7145 17.126
13.2716 13.3257 17.6018
11.7872 13.0184 17.7655
12.6593 12.5357 16.2588
13.0388 13.3528 17.2684
12.3575 12.9651 17.6117
13.4734 13.444 17.5526
13.8537 12.8342 16.8947
12.3351 12.2426 16.2842
11.8608 12.6592 17.1896
12.5798 13.0243 17.9971
12.6579 13.5042 17.7904
12.6351 12.8186 17.6919
12.6504 13.6065 18.5655
10.9062 12.4809 17.6973
12.4043 13.4167 17.3442
11.4445 12.2235 16.8151
11.5995 12.8423 17.6902
12.2155 12.3164 17.3703
11.9865 12.8532 18.0483
12.5024 12.6672 17.9068
11.6875 11.5231 15.4093
11.3551 12.1175 16.3832
10.4394 12.5103 17.8195
10.7853 12.1606 18.3956
11.7294 13.5717 19.2392
12.5269 13.6058 19.3176
11.3877 12.8584 19.1128
11.9749 13.7437 18.6698
11.018 12.5705 17.8034
12.9932 14.8265 20.8637
11.8797 13.6292 21.2654
11.9698 12.2974 17.8638
12.1887 12.2883 17.1008
10.846 12.5832 18.3705
11.3017 12.5747 18.0975
10.2391 11.8123 16.8822
9.80692 11.004 16.7703
10.8277 12.1252 18.1329
10.8142 11.4954 17.5156
11.8693 14.662 22.4458
12.2232 12.7562 19.2068
12.2057 13.4025 18.3516
10.5737 11.9869 18.341
11.1293 12.1508 17.7975
10.786 12.2212 18.3732
11.9963 13.2279 20.2067
10.8018 12.3707 18.3777
10.1791 13.5806 20.7415
12.3151 14.6542 22.298
11.1013 12.7464 18.5007
9.53022 11.9383 17.8361
10.1313 12.4007 18.7006
11.0497 12.9661 19.7293
9.87705 11.3512 17.6569
11.3065 14.6291 23.567
12.0902 12.6508 18.8057
9.18557 10.4075 16.2202
9.82343 12.3835 19.1554
10.12 12.255 19.9753
9.40233 12.0531 19.0626
10.889 13.1204 19.6368
9.79401 12.1847 19.2411
9.53138 11.1882 18.4642
12.2598 14.9319 22.5058
9.00425 12.3009 19.2247
10.5411 13.0886 21.7981
10.3209 13.366 21.5241
11.1655 13.2481 20.0532
9.38271 12.8139 21.5131
11.0799 13.6286 21.0705
9.71904 11.4758 18.9264
9.76853 12.2463 20.5565
10.1285 12.4341 20.9891
10.5123 12.3069 18.2617
9.20928 11.9821 19.9192
9.80356 11.3912 17.1078
9.44396 12.2277 20.2011
9.54609 11.8606 19.2271
9.17285 11.4944 19.5985
8.79571 11.3066 19.2336
9.28076 12.3289 21.0471
10.0966 12.2497 19.2759
9.2882 12.8028 21.8753
8.6716 11.1164 19.8732
8.75254 11.458 19.2097
9.31487 10.8435 18.1222
9.15333 10.6011 17.9039
8.79725 12.9537 20.5623
8.37694 11.1726 19.1979
8.60325 11.5613 18.5937
8.49871 11.0662 18.6353
8.77684 10.9044 18.8984
9.79159 12.63 19.7322
7.44239 10.9211 20.4594
9.1797 13.3911 23.2143
10.2245 12.4958 20.7968
8.34135 10.7488 17.723
8.48038 11.091 19.7544
9.02403 11.2241 18.3234
8.69506 11.1858 20.0875
9.02073 12.2646 21.0423
9.2345 13.0007 22.6525
8.89874 12.401 23.4215
10.3403 12.9659 21.7811
8.68743 12.0308 20.8137
9.86096 12.5959 21.8843
9.29282 11.1081 19.7382
9.42759 12.8203 22.6378
7.99796 11.0772 20.2933
7.81221 10.6625 19.4372
9.82441 12.8834 21.5335
8.64949 13.5256 25.1393
9.56666 13.1002 22.5394
8.25393 12.2956 22.7022
9.35637 12.8522 22.7039
7.6856 10.2037 18.9439
8.22557 11.157 19.781
8.15242 10.9946 19.9878
8.29868 12.9365 23.6827
7.82006 11.7844 20.3526
8.03652 11.7303 21.2274
7.82917 11.268 20.9971
7.43914 11.5619 21.8425
8.98899 12.3866 25.1432
9.63057 13.3846 21.8425
8.11347 11.2199 20.994
8.66423 11.3173 21.5701
9.73478 12.492 22.5772
8.2852 12.4987 23.2138
8.65595 12.2577 21.8688
7.62651 11.1222 21.4879
8.16508 11.3321 21.6865
8.68379 13.3067 24.5314
8.07067 10.9778 20.99
7.4374 11.1113 20.799
8.13403 11.1681 21.8083
8.41627 11.4064 20.5433
7.0927 10.3283 20.4247
8.5139 12.5345 24.1551
9.19258 12.3086 22.7611
8.0427 12.0251 23.0463
7.39886 10.7716 21.329
8.67178 11.7171 22.5842
8.12193 12.2008 23.653
7.93609 12.5424 23.5318
8.4017 11.6776 22.5581
7.64687 11.9451 21.7459
7.78296 12.7133 26.2428
8.27653 11.3661 22.332
8.07766 11.5806 22.9952
7.90707 12.4244 23.8132
7.41989 10.9623 22.6231
8.28342 12.5559 24.8659
8.53353 12.5441 23.0301
7.17955 11.5999 22.624
7.95362 12.4412 24.7526
6.98006 9.63827 20.4111
7.5683 11.4583 23.6881
7.85859 11.8958 22.5789
7.4477 11.1004 23.1274
7.80975 12.4877 25.1768
7.86312 12.0694 25.1242
7.74738 10.967 22.304
7.08921 10.6897 22.0473
8.0396 11.5985 22.6721
6.77796 11.0941 21.2335
7.59729 11.37 23.589
7.85763 12.0242 25.5019
7.942 12.1111 24.2529
8.22538 12.2363 23.4266
6.85816 11.1576 23.6491
7.14044 10.9506 23.535
9.00501 11.6176 22.7207
6.49132 11.4042 23.3197
7.32067 11.4947 24.493
7.55668 11.2514 23.2952
7.27316 11.4318 20.3757
5.95596 10.0837 22.5022
7.5246 10.94 22.462
7.78982 11.054 23.8959
8.12851 12.2028 24.2544
7.7565 12.5416 25.3265
7.13594 11.5238 23.5327
7.45493 10.6603 23.0568
7.30753 12.215 27.2246
7.08873 11.4984 23.6022
7.23979 11.7435 24.6743
6.68113 11.3887 24.8574
7.90683 11.2651 22.3288
6.66141 12.3876 26.3696
7.01444 10.3926 22.3235
6.79758 11.8859 26.1212
7.08555 11.6972 25.9233
7.1091 10.9473 21.9181
6.65202 11.8401 24.7859
6.88542 10.6797 23.826
6.38505 11.1637 24.7501
7.73222 11.4131 24.347
7.81796 12.5376 26.2809
7.1455 11.1346 24.2546
6.62502 10.3352 22.8887
7.01011 11.5523 24.8039
6.54228 11.7409 26.672
7.43935 11.7795 26.5369
7.16476 11.2938 23.2787
6.60827 10.7923 24.8182
7.78645 12.5539 27.2448
7.51227 12.8325 28.2094
6.91651 11.218 22.6431
6.13823 11.7357 27.2878
6.68623 10.9283 24.6799
6.60146 11.0571 26.1384
7.89872 12.381 25.0928
6.06677 9.71635 22.0292
5.93184 11.7371 24.6456
6.06342 10.6847 26.7638
7.14126 11.4563 24.9887
7.14484 10.9077 25.3037
6.52967 11.4397 23.9264
5.96194 9.87008 24.1976
6.89186 11.6016 25.4256
6.4671 10.8108 24.2733
6.23264 11.5059 24.7466
5.73082 10.8286 25.9652
6.15142 10.2172 22.5922
5.61502 9.56202 24.8515
7.02272 11.1123 25.1925
7.23305 11.9423 26.9749
6.91601 11.7812 24.6684
5.72447 9.33265 23.1954
6.36494 10.7483 25.2358
6.64395 10.763 21.4253
5.57722 11.0366 27.5266
6.53828 12.1413 25.9051
5.44738 10.2543 25.6363
6.2823 11.7108 26.6682
6.20613 11.2894 26.5937
6.95585 11.106 25.5481
6.2716 10.0201 23.0249
5.77405 10.083 27.6828
6.34205 10.2788 21.5824
5.73749 10.8884 26.2259
6.60178 11.582 27.5697
6.62627 11.4898 25.8097
6.14007 10.989 26.87
6.13037 11.7519 27.3283
5.80163 10.4484 24.5023
5.78146 10.2053 24.0328
5.91212 11.3573 27.856
6.33581 11.3394 26.7944
6.10082 11.0758 25.4575
6.6567 11.2827 26.7025
5.66651 9.49016 25.4554
6.68843 12.1322 28.4169
6.20258 9.72697 22.7062
5.64278 11.6767 29.9895
7.34133 12.1801 28.3306
6.92923 13.0169 30.2282
6.24557 11.0767 26.5057
6.51498 11.2243 26.8955
5.52185 9.8289 25.5705
5.87405 10.7869 25.2042
5.13073 11.5287 27.4557
5.90596 10.9962 29.2987
6.24092 10.9482 26.3907
5.74558 9.12137 21.9723
5.76704 10.8459 26.5374
6.13816 11.3453 28.4573
6.48242 11.4891 29.3717
6.37887 11.769 28.3151
