# pn-170911/RbIIR-48-PTBB-1280-1959.psd
# Power spectrum* (dif=0,1,2) (really just |FT|^2)
# NOTE: only the first half! (symmetric)
# weeks: 1280-1959
# 4 clock-days, 0 excluded
# PSD: 1441
423.119 0.0202414 0.00958276
18998.5 0.1885 0.00748131
111539 2.42847 0.00732673
12007.1 0.467871 0.00739482
29122.5 2.33093 0.00684934
8048.84 0.612469 0.00828984
1467.76 0.297499 0.00761551
1422.19 0.243266 0.0069556
1312.85 0.380061 0.00859496
1388.15 0.381716 0.00747945
623.779 0.249068 0.00727591
938.677 0.592612 0.00832247
687.348 0.405103 0.0097509
961.781 0.477586 0.00871078
310.369 0.408639 0.00658742
356.344 0.419618 0.00863313
532.8 0.458967 0.00838055
512.081 0.872376 0.0102264
623.451 0.746598 0.00801217
169.809 0.503622 0.0103461
197.056 0.348503 0.00996992
347.992 0.557027 0.00951048
328.097 1.041 0.0109169
156.369 0.263257 0.0119536
556.936 1.32675 0.0130464
336.546 0.827013 0.00870696
342.515 1.06962 0.0072924
275.053 0.933878 0.0167799
352.242 1.3226 0.00798728
276.012 0.774151 0.0128109
295.539 1.27944 0.0101479
124.829 0.628937 0.00644313
171.131 0.635375 0.00467111
348.075 1.54309 0.0159139
219.669 0.982 0.0101423
120.366 0.723014 0.0187054
225.562 1.43233 0.0146959
259.504 1.33628 0.0105756
401.563 2.75747 0.0349022
125.38 0.763983 0.004304
319.488 2.37806 0.0414557
217.24 1.69399 0.0159104
169.919 0.951191 0.0194419
155.29 1.69769 0.0315572
96.9414 0.964916 0.0268634
279.674 2.45123 0.0206379
96.2511 0.751216 0.00984421
161.699 1.68048 0.029629
64.4941 0.673689 0.0131145
195.989 2.99889 0.0428112
79.4594 0.656787 0.0244638
187.583 2.21524 0.0287261
306.109 3.7963 0.0495408
209.451 2.73408 0.0330523
99.6779 1.20658 0.0266633
179.793 2.73437 0.0380446
174.241 2.30334 0.0523034
166.182 2.60959 0.0521253
294.32 4.0899 0.0556044
197.736 2.7177 0.0523184
140.106 2.30357 0.0471986
215.275 3.85434 0.101673
90.7538 1.70011 0.0497078
289.216 5.22711 0.138845
162.46 3.52352 0.0817063
100.485 1.34876 0.0232528
415.533 8.60773 0.186494
180.222 4.00955 0.13424
100.68 1.96641 0.0790182
240.884 4.75081 0.0927715
311.555 7.76476 0.208688
93.2501 1.80793 0.0542567
192.973 4.68664 0.135248
365.479 9.92187 0.255708
105.632 3.22997 0.116213
113.413 2.77501 0.0983296
190.19 4.94464 0.126343
121.279 3.64702 0.138941
207.168 5.82403 0.201095
357.119 11.494 0.364489
84.5684 2.15088 0.0924007
372.221 10.8148 0.374068
350.693 10.3572 0.334781
137.552 5.05591 0.173634
377.593 12.3173 0.382901
179.617 7.26915 0.275318
138.317 3.68816 0.087504
219.802 8.1636 0.244164
177.141 6.23859 0.264127
90.9834 3.44176 0.187075
216.04 7.83678 0.34474
132.448 4.48686 0.226746
140.93 5.54923 0.240918
206.993 7.67265 0.262757
182.333 7.63657 0.314285
64.833 2.7915 0.136167
404.238 18.1203 0.733751
66.1274 3.55815 0.145758
167.998 7.22273 0.311086
213.92 9.94004 0.499873
113.248 4.90818 0.29917
268.695 11.2236 0.56013
105.106 5.27889 0.281792
233.028 11.953 0.623685
302.001 16.4959 0.89651
236.555 10.9016 0.528795
56.0423 2.78604 0.121919
105.107 5.48563 0.269561
186.301 10.7239 0.598974
54.0966 3.87515 0.253922
252.708 14.2259 0.737476
121.19 6.76246 0.403037
124.914 8.0499 0.522778
146.743 9.20243 0.47338
91.3694 5.55373 0.391354
61.378 4.14479 0.268895
198.461 11.4161 0.643154
107.41 6.47166 0.484392
147.722 9.6496 0.568691
101.189 6.33887 0.437111
112.247 8.00239 0.608753
74.5154 4.77693 0.295355
199.71 15.3601 1.07246
110.491 6.82859 0.432545
101.905 7.54102 0.504069
76.5895 6.01953 0.439996
231.99 15.7005 1.14997
186.94 13.4837 1.04121
92.2362 7.0321 0.584742
51.0644 3.08362 0.220675
61.3156 4.92878 0.428477
53.2298 4.03374 0.343668
82.7872 6.8449 0.644865
136.273 11.1049 0.84894
108.535 10.0044 1.00638
206.387 20.1142 1.83036
157.199 11.9714 1.04898
70.3203 6.12286 0.592489
76.9499 7.95261 0.722558
140.325 11.6451 1.05892
160.764 14.6303 1.46925
39.5982 3.35557 0.288146
61.9612 5.59087 0.522208
120.856 13.9641 1.44826
204.289 18.5477 1.86304
36.5798 3.69108 0.451861
104.474 11.7309 1.22305
56.0842 4.47511 0.372035
128.488 13.9694 1.42935
49.2405 6.63712 0.819285
42.1969 3.72174 0.38785
150.489 15.2472 1.51803
50.8641 5.01578 0.526397
173.356 18.3063 2.02527
52.6461 6.71009 0.927036
76.0054 7.7258 0.852988
34.0498 5.02309 0.790638
112.676 12.4691 1.20093
193.417 24.0083 2.64104
37.209 4.05621 0.530943
129.632 16.6707 2.07007
89.6385 10.9735 1.4079
175.954 21.135 2.57432
56.9858 5.98762 0.696978
112.143 14.2969 1.74733
78.1389 10.3791 1.34752
78.9124 12.02 1.65775
213.88 27.0145 3.34347
152.965 19.8238 2.89083
101.205 11.7836 1.43311
90.8841 13.3163 1.86658
108.745 13.7085 1.75705
199.568 30.9501 4.45944
84.9233 11.0441 1.52505
119.154 16.0775 2.31086
79.5279 11.5801 1.80572
52.4795 6.39697 0.84602
117.291 18.2432 2.555
72.1879 10.1716 1.5046
86.7011 13.7693 2.22784
164.851 25.147 4.17462
25.2339 3.01006 0.491576
117.228 18.6543 2.83198
125.311 21.9209 3.76881
46.3265 8.97774 1.70273
78.876 10.1157 1.33655
113.628 18.6549 2.85833
49.4458 7.71416 1.43867
126.387 19.1082 2.9519
52.9243 9.59928 1.74413
171.301 27.3415 4.1118
166.513 29.0166 5.19151
44.7438 10.0302 2.33334
88.6208 11.6825 1.48683
43.1236 8.18594 1.45041
71.0461 11.1212 1.78445
67.4651 12.914 2.31162
91.0525 16.7881 3.18163
25.0152 3.68568 0.661582
73.9854 13.9824 2.60023
135.868 26.1047 5.32842
103.087 19.3678 3.66982
65.9687 11.4629 1.98506
131.794 26.1561 4.63927
60.0141 11.9262 2.3841
39.1336 7.73459 1.46827
104.01 19.9765 4.0238
102.109 19.2361 3.57445
115.795 26.3496 5.42681
104.574 23.124 4.89226
75.1144 15.8966 3.41763
68.8964 13.5109 2.57189
62.3913 13.992 3.06583
69.7584 12.7847 2.50672
130.086 27.7774 5.86777
79.7575 15.7365 3.22815
58.1313 12.6232 2.83241
32.3245 6.47453 1.32189
32.0346 7.24779 1.8769
54.4067 12.8793 2.91411
34.8536 6.78287 1.39029
26.5067 6.75298 1.5673
38.0276 7.71302 1.65129
52.4841 13.6341 3.39796
24.5691 4.36629 0.940905
76.4161 17.3382 4.17301
96.5609 25.4164 7.02926
69.8942 17.3388 4.22717
76.2172 18.7067 4.81138
42.1657 8.20838 1.80603
34.1522 7.87906 2.1041
130.753 28.6767 6.18966
162.161 44.1057 11.7976
74.3843 18.4746 4.94007
103.824 26.9124 7.02117
60.2975 12.6655 3.29009
124.153 29.2041 6.52805
137.479 38.8859 10.2695
19.9659 4.47624 1.15885
61.7945 15.9545 4.23352
116.414 29.78 7.45691
60.4232 16.7105 4.78432
38.5755 9.27103 2.47464
108.461 26.2755 6.68196
53.5687 15.3528 4.48862
145.069 38.0818 10.2482
106.973 31.3989 9.58655
99.4307 25.587 6.22539
61.4579 17.9761 5.27341
37.5385 10.0634 2.69049
29.7234 10.1726 3.40435
26.6356 8.08446 2.77992
79.7691 23.0511 6.76281
29.2397 9.4192 2.78626
53.549 14.6125 4.01775
48.0978 18.0219 6.16751
41.6966 10.7479 2.99015
49.5464 16.1715 5.39176
47.467 13.6678 4.10594
126.432 37.6604 11.0862
23.9945 8.43075 2.98768
62.5767 17.3366 5.21369
87.7693 30.9003 10.9769
55.9775 16.6568 5.28371
61.7587 18.6697 5.37784
43.514 16.7604 6.30506
52.5268 21.0563 8.68724
82.2439 18.727 3.784
45.9836 16.4214 5.46666
64.4487 18.6234 5.27947
16.5585 6.10155 2.47888
44.7382 13.0143 3.55331
79.8677 27.5615 8.92702
22.4323 9.53633 3.92854
44.3055 16.4797 6.02661
60.2139 21.6935 7.85345
81.2861 27.055 9.33372
165.376 53.3169 16.6359
47.948 21.3802 9.58495
53.2059 21.1246 8.04708
39.4456 13.2087 5.15556
50.3862 14.836 4.5281
20.3187 8.11823 3.38853
63.0406 21.8865 6.71813
22.5145 8.63056 3.22216
34.8939 12.5206 4.14572
54.9421 20.0354 7.46659
41.6889 16.5795 5.63452
53.3371 26.8642 12.9674
78.5083 28.1821 9.87034
47.7473 18.1305 6.83274
102.009 36.9378 12.7999
49.3435 23.6144 9.90281
44.6307 19.8447 9.29141
54.3254 20.364 8.33622
65.1815 25.0986 10.1752
82.2389 30.5064 10.2478
109.57 50.6112 22.4526
36.845 13.9571 5.06875
42.7022 23.2777 12.2524
25.4166 7.38266 2.35756
34.3038 14.7174 6.19313
43.6988 15.5793 5.36378
26.6701 12.6182 5.73504
19.5982 9.93479 4.80253
98.1244 42.5304 18.1311
47.55 18.6521 7.08702
35.6587 13.7214 5.53872
26.1311 14.0861 7.48077
33.7625 18.6458 10.9248
68.8299 24.2085 8.59556
39.3549 16.4913 6.29761
23.5429 14.0036 7.7799
56.0128 23.2199 9.55746
78.5414 33.2067 13.3893
28.8402 16.2725 8.7596
76.8219 36.5484 17.3604
94.054 44.2561 20.4073
48.1402 19.8646 8.66693
29.2821 12.6322 5.94916
32.7814 14.1406 6.05404
104.579 54.6528 25.8624
55.0302 25.4583 12.864
39.3169 23.7315 13.6395
55.7646 19.9095 8.1904
42.6757 15.9848 5.76014
69.3339 34.7866 17.0466
49.1948 22.5376 9.24891
26.0363 15.0844 7.96281
21.8753 13.9325 9.00876
53.0352 22.4153 9.04054
51.8941 31.2742 18.1085
51.4809 21.86 9.49524
18.2139 9.65818 4.83242
30.6281 18.7287 9.85541
25.7494 13.0909 6.88767
17.4241 11.066 7.70829
19.3742 6.84542 2.90243
42.1037 21.9417 11.3407
30.4177 17.1723 8.88566
10.3391 6.89958 5.81568
101.429 49.9859 24.9179
32.586 18.2724 11.2669
64.0387 31.9383 14.738
30.1996 15.779 8.70662
33.6144 18.6695 9.58733
53.0321 29.8336 15.5842
28.9289 18.2584 10.6346
45.5759 29.6034 19.3258
79.7605 39.9703 19.7651
33.1664 19.5371 12.6377
60.6118 28.9697 13.6888
36.2184 22.9243 13.7644
41.2861 23.5865 15.131
103.018 53.3047 25.8658
35.491 16.7478 8.09411
22.1687 14.4034 8.97618
48.0926 35.0292 24.417
44.1844 19.2287 7.97271
22.708 17.0036 12.5614
31.207 17.6902 12.2198
98.9506 53.006 26.3331
36.5003 23.5573 13.865
47.4166 35.169 23.8555
52.8351 31.1765 20.2572
68.1942 35.5779 16.6932
11.7075 7.54103 3.73035
41.1358 35.8042 26.4289
32.5257 14.6842 7.36612
11.1635 8.0274 6.54085
62.5763 37.4925 21.7385
15.8346 16.5742 16.0345
67.2394 35.1069 18.6062
21.3898 14.1017 9.98799
42.9098 24.1822 13.2049
53.5449 38.2162 27.3926
83.8888 48.4346 26.8745
8.74224 5.96434 5.18742
35.4816 21.4195 12.5614
11.3079 11.3559 10.7149
36.948 18.884 9.73625
5.88893 3.99675 3.51725
27.6444 18.0166 12.1693
19.6791 18.5712 17.715
77.4487 50.4625 35.2192
77.2093 38.2261 16.2242
47.6986 40.6039 30.7589
44.2374 21.4037 10.5612
30.1763 19.5801 12.2321
46.2662 36.0588 26.8779
40.6362 21.6771 10.0153
48.1513 36.8219 23.7106
26.1416 24.7007 21.1681
30.5477 21.8249 17.96
38.0158 21.0091 12.2931
17.394 12.3729 9.83432
33.8701 19.4233 12.8035
52.7829 31.806 17.0503
41.4139 32.1251 21.177
27.0838 25.6254 21.8166
25.3827 21.0695 18.8464
49.0074 35.6505 27.0582
36.1324 21.7337 15.0282
55.1316 40.7597 28.8203
33.5865 22.2375 15.1295
29.7231 21.9207 16.9379
18.061 14.3579 14.0343
45.9786 29.347 18.1286
58.1545 44.6174 29.3833
27.3172 18.8108 11.9917
24.6477 22.5847 17.501
17.3064 15.3256 15.5036
47.1512 34.1227 23.1307
22.2861 16.3705 10.1331
25.1066 29.2188 29.4488
43.3876 25.5491 15.3397
32.2525 25.4317 18.3956
29.819 26.6672 22.7696
45.3429 33.4943 26.0557
32.3663 23.3839 16.8995
13.4088 8.66931 6.6249
52.5445 40.4219 26.8803
33.294 33.3355 28.9461
14.9797 14.619 14.6476
17.9317 12.6 10.1466
22.4934 20.6971 19.122
28.3468 20.569 13.6121
7.6337 10.3858 11.8586
19.2347 15.2675 14.5067
15.3896 11.3653 11.0555
48.7346 42.4182 35.7316
46.3077 35.3479 29.5587
50.8233 37.6173 27.4271
19.6512 13.4977 10.8798
50.7793 41.5358 31.556
21.852 15.9099 11.5967
15.9206 16.1822 13.3868
7.11652 7.2457 7.83505
7.23754 4.35082 3.62816
9.73179 8.00665 6.6418
13.2255 12.3802 11.2356
15.3126 14.7308 14.19
33.9239 27.8047 21.2565
18.7842 20.8167 23.2679
55.9308 48.4599 38.4053
18.1802 16.0095 14.3015
10.4078 14.1988 19.5932
28.1229 17.0278 13.5555
39.5213 29.3245 21.5759
30.017 24.1941 18.8555
46.1119 43.1323 36.5084
26.2808 27.4717 28.8851
27.7712 22.1781 17.5798
38.4103 41.8161 41.8243
43.4435 37.7164 33.7606
45.5433 40.2981 33.346
10.3997 10.372 15.2813
34.6943 25.5559 18.8873
12.4607 9.57217 7.88281
11.4797 11.5421 11.8742
23.8027 22.6468 21.8618
40.1412 31.7239 22.9896
23.1168 33.1054 41.0967
34.8273 22.5918 14.47
25.7363 26.5205 24.2285
19.3485 18.6366 20.4433
21.6556 22.3893 24.3311
28.6657 19.7626 14.0007
32.7266 32.8881 31.2391
26.3312 22.8296 18.1699
21.9369 27.1087 31.319
34.3886 34.8305 36.614
31.9368 25.0688 17.8582
17.4649 21.7201 26.924
13.8243 10.564 11.0666
22.4032 18.9578 15.4215
33.0654 38.023 40.1936
26.8406 22.5746 19.5061
13.6473 12.3469 11.7935
20.2457 20.5151 20.446
24.9144 23.7976 20.402
12.5065 15.3588 19.4335
26.6491 25.1686 24.4269
21.5181 18.8131 15.1782
17.2794 19.3922 19.1285
29.7633 34.0352 36.8704
12.7624 9.62181 8.14839
2.9312 4.51533 7.87316
7.22836 6.78195 8.63319
20.3958 22.0155 20.3435
25.5634 33.0383 41.2792
28.4727 21.3262 15.0193
21.9005 29.9502 36.8285
36.6526 33.8059 34.2469
37.9419 40.3299 40.2384
13.9449 10.5126 8.55733
21.3883 25.224 24.0519
6.80245 15.6807 28.4267
20.4849 13.9391 10.2093
27.7947 26.8278 21.0433
13.8861 19.4178 21.8915
5.80284 10.8304 18.3292
17.1591 19.704 24.9294
21.4588 25.6518 31.0727
27.9896 25.355 24.323
16.4893 15.4182 16.6525
17.7239 20.1948 25.4788
32.4772 29.6106 22.6421
24.8942 30.9784 31.4587
8.84524 6.03265 4.51659
11.9538 15.7032 21.7672
36.9478 37.4715 30.7086
15.4868 19.2145 19.5116
17.377 20.8825 21.7062
8.57459 7.45103 5.52354
32.0532 47.1989 54.5511
16.0397 20.0793 26.9838
24.6656 25.2766 21.1583
12.7599 25.3233 37.8185
15.6612 17.6149 20.2162
17.1798 30.2308 47.5614
26.2659 26.6798 34.4655
16.335 12.3081 10.9372
17.7442 22.003 26.1434
8.73727 6.11651 6.59966
36.3317 53.5293 65.5037
19.6478 13.425 10.7929
14.2236 15.3699 15.0175
17.7776 29.1142 37.486
7.56413 12.4926 25.8473
18.2996 19.6267 23.266
13.2061 12.1767 14.489
35.1796 46.3865 55.5961
24.9699 22.2088 18.9648
21.6154 34.0553 42.2444
13.8786 16.7455 22.7193
16.9966 24.4001 39.2892
36.7437 43.9657 47.1912
23.9291 33.219 42.7762
8.69943 3.84213 4.73871
17.3335 18.7716 15.8463
3.7357 13.1033 24.4461
7.32124 11.6118 22.8538
14.7272 23.339 48.3727
47.8292 42.9263 32.8999
10.9785 16.3977 24.4726
17.5351 23.2849 32.9044
23.2348 20.2812 18.8793
29.9269 39.506 42.4414
4.11598 5.53619 8.26516
9.11655 24.3705 48.633
18.2128 11.2394 12.4859
24.7254 23.9917 22.3971
18.3849 19.04 15.4525
18.069 23.1248 21.2887
23.0032 40.3401 49.433
10.6162 20.9166 34.7585
7.66824 14.5437 32.355
21.2162 20.6252 20.7283
18.0757 31.635 53.1518
22.2547 18.5695 16.5781
18.8119 27.7501 37.4623
15.6393 23.4616 37.8414
28.0563 36.3034 41.3033
6.96281 8.49946 14.553
13.7268 24.0759 41.306
18.9325 20.922 29.4633
20.9362 23.2477 29.7854
13.0382 15.1505 25.0138
39.092 49.3331 52.4503
4.14603 11.5654 33.0855
30.8397 34.2177 38.521
21.0277 29.2541 40.4957
13.7353 12.9865 19.5784
19.1572 18.6525 18.8866
25.9962 38.4384 52.8344
20.6664 25.243 32.4474
25.2743 33.0063 39.8503
27.3999 35.6858 39.8877
12.7164 21.3173 30.4582
7.29263 12.3047 23.62
12.399 14.8273 18.0198
16.8743 37.794 69.0863
24.2131 16.5247 8.83126
11.4299 25.1188 48.2192
23.5029 23.9194 25.2229
19.5169 27.5557 33.584
11.5502 17.4192 24.832
5.07247 8.69194 23.1843
21.877 27.3641 32.7971
19.2187 28.8247 42.7026
13.7291 10.8093 7.46597
8.04948 12.7781 22.5316
22.1921 29.3831 31.4845
15.4189 33.1359 59.331
16.3306 15.1773 16.5545
15.3317 22.9383 24.8899
2.24884 7.04136 23.7952
27.9294 34.7591 38.4628
17.9026 26.0539 33.5478
14.3894 19.5446 26.0177
18.4124 26.3655 33.3448
19.5728 34.8173 48.2927
11.7253 19.3901 29.778
10.6126 27.3239 60.1035
25.6717 35.3753 53.3357
31.6383 45.2877 51.8116
8.97101 16.976 29.8462
8.29783 14.4497 29.8155
10.0515 14.3094 31.3036
21.8408 22.773 16.7151
10.4417 25.1564 42.2686
5.6781 10.804 27.0023
17.0983 22.0462 29.8528
10.583 12.5486 10.9092
13.8537 37.0211 72.1526
22.4908 26.3344 31.4974
8.91463 20.2278 43.7817
10.2913 7.52029 10.9797
11.9043 16.7171 21.5629
10.3378 15.6157 23.2939
15.7045 32.0359 65.084
38.11 58.0734 74.2968
7.55581 11.9043 28.5665
9.06552 8.81855 14.2827
12.4628 16.5531 25.5332
20.5861 31.8908 38.858
9.20432 18.5509 32.3792
15.305 28.3654 50.365
15.4264 19.3652 23.8365
6.67422 14.3448 29.9852
11.6864 22.4525 44.6767
16.3744 24.3504 40.3575
16.6797 25.4361 44.5518
17.8549 24.5417 41.5709
23.1618 27.1788 23.1709
12.6835 21.4895 24.9534
10.5345 22.4298 30.3064
7.66397 25.3572 56.6932
11.3261 14.4311 22.5207
6.78696 12.7434 25.3907
11.485 24.107 52.6937
26.5513 41.1316 54.2939
6.70844 12.7385 30.1261
15.2216 32.9324 62.7171
11.7574 9.37799 15.5938
12.6705 16.8724 14.8636
5.63907 19.3805 45.0462
18.1708 29.2873 47.4204
9.76056 21.2227 50.4612
15.1865 13.8491 13.563
13.9344 26.8332 37.3315
9.08907 23.1021 47.3185
8.90222 15.4017 34.7686
12.9996 24.7042 60.6351
35.3272 56.8963 87.6936
22.2457 35.1657 56.8947
14.2276 20.3687 34.5403
10.6573 13.8234 20.2887
8.99148 11.3773 10.5917
4.08547 11.4593 29.6674
19.223 34.3915 54.726
10.827 14.8064 26.6537
14.7298 26.6033 40.8404
10.0121 24.4972 52.8521
7.85063 7.26337 13.4388
10.4412 16.5273 21.5903
6.03194 11.3947 25.1322
17.0764 36.4859 57.942
7.01487 11.241 23.6243
6.19721 11.5325 22.4848
7.79857 28.0127 91.785
42.5127 58.096 72.5961
14.2956 18.5109 16.6824
5.86438 14.7919 25.5072
7.24515 20.809 51.12
9.57404 13.8862 31.869
12.5816 15.9145 13.3355
4.12339 18.3873 54.8141
16.2312 16.9876 18.9179
16.1987 33.9831 61.698
16.3752 25.3333 36.2123
22.7867 55.2951 96.5405
14.6708 24.7591 38.2551
2.25138 7.32898 30.3426
14.6025 24.8213 38.1983
6.91974 16.0894 39.4983
10.1694 11.2078 15.5161
5.8262 10.129 13.5324
4.22123 12.2143 26.4608
5.09392 11.4425 30.212
12.8718 33.8095 81.5013
14.2575 10.8704 14.8834
15.7395 31.6691 60.8893
20.6597 36.6579 54.2388
6.09435 9.64777 26.3351
15.8197 28.9152 53.9985
18.8153 32.3729 38.6718
2.38245 11.0859 37.849
15.9997 32.1267 53.006
7.61174 7.79072 6.49246
3.11902 12.0122 27.7788
4.02225 8.30339 25.8512
8.06713 13.7129 26.3664
5.29807 10.3189 29.0349
11.9968 18.0973 25.5893
12.2288 29.6679 55.7034
7.01219 7.67768 11.6853
8.68028 27.5049 69.6829
14.3085 20.789 29.5588
5.64331 11.3915 22.273
2.12435 2.7384 8.82797
2.94026 10.0783 45.1388
22.9637 41.0111 58.8164
13.5405 27.2426 50.8671
10.633 19.5963 31.9733
6.82785 17.1952 34.4696
4.07431 9.68516 38.8411
15.9143 23.0948 22.891
4.03677 13.7341 28.238
4.2213 21.3193 80.5509
20.1517 22.3566 26.2161
13.1237 29.4046 54.1583
8.55005 18.1142 40.9969
5.41097 8.5865 38.7407
16.3585 22.4576 35.3796
14.834 21.9948 17.5353
7.44108 20.4422 32.6574
8.34415 29.8406 69.2876
9.14757 12.1938 33.7159
20.316 40.1537 46.2795
1.65727 20.2454 75.842
13.2598 18.2464 34.5017
6.35061 13.376 40.0829
10.2368 13.8362 18.1675
5.50435 12.0988 25.5971
7.21091 17.8871 48.3176
14.561 24.7468 44.0849
10.1372 16.8222 21.6535
4.21891 10.5191 23.6516
6.09335 13.836 36.3763
15.2563 31.4571 52.2961
7.33661 16.484 33.281
6.8887 18.385 40.6308
3.82287 5.37532 22.7765
12.2915 25.3601 40.6821
7.30223 15.6012 34.7353
8.95321 18.5043 33.239
6.87948 20.2883 50.3047
8.15058 17.2405 41.8151
7.95433 16.7618 38.8215
5.55176 6.45382 19.4173
11.393 24.5023 41.5206
6.40104 13.4181 31.0659
10.5449 25.181 52.5389
6.88451 9.87309 15.2991
5.13836 14.071 30.4572
3.18858 4.64475 14.0697
9.31741 26.4943 56.1466
7.76429 20.2674 58.1502
9.18517 12.9241 22.2246
5.475 8.98821 15.7196
4.69991 14.0929 35.6736
8.66559 18.8912 38.4283
7.05143 16.9698 38.7319
6.77886 13.1358 30.8495
5.64546 15.3504 53.8676
8.07327 4.47027 18.2199
20.296 45.4469 70.5235
11.9388 25.7078 32.4089
4.69622 16.8916 34.9572
4.27398 24.7667 85.7047
11.0291 9.81652 16.5796
10.0977 27.1778 56.9722
6.82106 22.7179 88.1203
19.27 20.7984 15.6454
8.24163 23.3107 49.0954
8.02141 12.652 14.5997
4.73728 14.716 27.3192
6.92719 28.0035 87.7227
17.06 32.547 58.0696
7.31509 11.715 20.1198
6.9199 24.9441 65.609
9.53648 15.4109 34.3133
11.1254 25.9808 43.2682
1.8003 4.61317 29.8818
12.8263 31.0072 65.8282
10.1672 20.4827 48.9298
6.07265 4.93117 2.72797
8.30453 29.6913 68.6139
12.248 25.6218 49.4438
8.49069 17.8662 32.8612
9.21811 26.7997 39.7456
2.10737 21.0795 86.8265
12.3958 14.901 26.3695
7.96319 20.7565 42.2671
3.62585 8.75662 29.0737
5.67663 9.5841 19.3787
5.757 16.5741 35.7726
6.21993 21.2565 58.7736
7.16561 13.5627 34.8648
11.3104 31.8734 64.2805
6.39687 21.7695 88.383
14.6854 16.1165 7.19436
5.24862 25.2297 70.1349
8.4619 16.2443 35.561
4.27725 12.5168 41.6334
5.40713 8.96934 24.3219
3.7285 7.36013 23.7265
3.83357 5.83516 20.6977
4.03115 3.92331 11.332
6.52615 13.6225 11.5994
2.32835 11.834 35.369
5.27681 15.0788 58.0492
15.8334 32.1836 39.8722
2.53817 9.0079 30.7114
7.0337 16.2058 33.1717
4.83219 12.5691 23.0063
5.28707 25.3843 79.6942
8.82467 11.6658 24.2638
5.72488 9.39354 12.4918
2.86299 11.6352 28.631
3.84627 10.8916 38.2364
7.29084 16.086 28.0266
3.84423 11.1979 32.6601
