# pn-170911/RbIIR-43-RbIIF-1280-1959.psd
# Power spectrum* (dif=0,1,2) (really just |FT|^2)
# NOTE: only the first half! (symmetric)
# weeks: 1280-1959
# 2051 clock-days, 492 excluded
# PSD: 1441
681.611 0.213909 0.0308455
39871.8 0.684952 0.0500723
169327 4.60404 0.049731
26118.8 0.965892 0.0500679
104127 8.7794 0.050526
8879.71 0.839776 0.0472379
9522.42 1.89269 0.0480147
4422.43 0.86502 0.0466378
7101.04 2.1915 0.0482727
2991.34 0.885379 0.0497196
5064.86 2.25558 0.0478525
2153.93 1.06356 0.0466044
3717.11 2.32552 0.0493208
1796.22 1.23465 0.0511981
4272.57 3.88018 0.0535924
1679.19 1.57424 0.0502894
3675.09 4.331 0.0533973
1513.18 1.87582 0.0515341
3159.64 4.68506 0.0559873
1393.69 2.20303 0.0525802
3098.98 5.64087 0.0574415
1345.02 2.54794 0.0542656
2651.74 6.06433 0.0619028
1265.11 2.94423 0.0588198
2552.08 6.82563 0.0646017
1119.48 3.1681 0.0577316
2281.88 7.08635 0.0669449
1166.9 3.86614 0.0594024
2132.88 7.75211 0.0734709
1094.51 4.26846 0.0628304
1885.7 7.86734 0.0775566
1072.42 4.62879 0.0684558
1788.88 8.39933 0.0922144
1069.54 5.36083 0.0753418
1640.31 8.84665 0.0952101
1018.09 5.80073 0.0814009
1563.81 9.46228 0.105441
982.272 6.22621 0.0909652
1411.34 9.46384 0.106788
954.486 6.65368 0.0946492
1268.15 9.38618 0.113913
874.25 6.84466 0.100014
1255.1 10.3025 0.132395
881.321 7.56417 0.115437
1090.89 9.75763 0.137639
809.033 7.57181 0.121031
1036.59 10.1991 0.147575
797.523 8.11175 0.131243
963.558 10.3033 0.162209
776.569 8.62274 0.147216
898.595 10.3463 0.169117
702.461 8.42555 0.153351
798.068 10.0523 0.176094
687.994 8.89838 0.166122
741.552 10.0226 0.18261
704.703 9.88227 0.191274
746.616 10.9186 0.203694
664.145 9.91329 0.199527
733.36 11.4825 0.233438
611.098 9.78076 0.206976
659.242 10.8682 0.233977
606.276 10.4015 0.225797
625.988 11.1798 0.249326
586.751 10.8229 0.249415
595.476 11.3563 0.26691
538.419 10.6116 0.252732
554.949 11.2227 0.275559
520.54 10.8466 0.277545
556.122 11.8601 0.305203
517.023 11.3747 0.307251
521.619 11.9031 0.327688
512.39 11.9278 0.332488
490.661 11.7996 0.333462
463.512 11.4516 0.336249
486.473 12.4343 0.364289
445.877 11.6445 0.357956
451.806 12.1815 0.377713
449.689 12.2952 0.387043
445.511 12.5065 0.409414
447.766 13.0293 0.427203
428.846 12.7158 0.427761
396.695 12.168 0.419587
405.501 12.6692 0.454347
396.771 12.8945 0.460592
406.715 13.2865 0.478811
376.267 12.5425 0.477674
358.668 12.4214 0.47997
351.598 12.3458 0.49641
358.146 12.8879 0.52007
346.636 12.9049 0.528178
353.376 13.4079 0.555372
339.143 13.0431 0.540589
345.432 13.6151 0.589042
325.939 13.0686 0.586081
323.041 13.2246 0.597725
332.65 14.0368 0.654638
413.314 17.7588 0.80819
314.749 13.5993 0.649679
309.682 13.8744 0.680643
307.012 14.0182 0.695933
284.474 13.0172 0.65716
295.658 14.0327 0.718728
292.415 13.9959 0.727152
293.514 14.3932 0.760883
282.532 14.0322 0.756146
267.641 13.737 0.759749
258.809 13.3588 0.741813
263.954 14.0109 0.799203
275.509 14.8977 0.852402
257.839 14.3047 0.847442
249.808 13.9324 0.850708
258.404 14.7976 0.914529
249.021 14.4818 0.90533
239.593 14.2154 0.906291
247.965 14.9451 0.960051
231.83 14.3839 0.936744
231.993 14.357 0.952973
218.597 14.0319 0.96595
229.123 14.9175 1.02072
221.051 14.5165 1.01992
220.56 14.8016 1.04984
227.002 15.3092 1.09701
197.562 13.6911 1.01981
208.103 14.5528 1.09419
209.47 14.9691 1.13535
204.45 14.8025 1.13715
201.424 14.8197 1.15645
198.182 14.7331 1.17838
182.265 14.1292 1.13561
187.346 14.4866 1.19865
195.517 15.3557 1.26018
188.833 15.049 1.26509
180.124 14.391 1.20722
186.63 15.2168 1.31347
179.292 15.0265 1.3254
173.306 14.4315 1.29869
175.134 15.0162 1.34773
167.471 14.404 1.32336
167.056 14.7129 1.36906
170.364 15.2448 1.42599
166.999 15.0803 1.42882
160.859 14.6705 1.3996
155.578 14.4691 1.4154
160.004 15.0809 1.50248
159.838 15.3511 1.549
155.379 15.1652 1.5471
154.605 15.2642 1.56283
148.52 14.8179 1.55236
144.245 14.82 1.55788
155.206 15.8251 1.68995
147.375 15.1358 1.63941
146.526 15.2769 1.67304
146.363 15.5551 1.72523
140.97 15.1212 1.72247
141.391 15.3806 1.73714
138.989 15.3071 1.77174
132.296 14.6394 1.69958
142.084 16.2763 1.91504
131.373 15.2231 1.83022
134.793 15.7488 1.91289
130.415 15.3829 1.88763
131.558 15.7367 1.9774
130.895 15.9378 2.00425
127.877 15.6809 1.99197
127.853 15.9051 2.04342
121.254 15.222 1.98818
126.63 16.0801 2.12373
120.507 15.5714 2.08996
124.823 16.2574 2.1834
122.942 16.0643 2.19387
118.35 15.6323 2.15409
122.613 16.6137 2.3395
116.916 15.8279 2.24047
115.2 15.9288 2.28454
112.821 15.5694 2.24504
113.748 16.1189 2.37658
115.218 16.4199 2.4377
116.066 16.8335 2.50104
106.91 15.386 2.33452
110.848 16.4132 2.53802
117.025 17.5271 2.71149
108.201 16.1625 2.52266
112.739 16.9689 2.67495
109.459 16.5775 2.65518
107.094 16.4097 2.65045
104.891 16.444 2.6752
108.723 17.0259 2.79279
102.35 16.3342 2.7542
102.087 16.5815 2.80545
108.159 17.1785 2.89102
101.545 16.8429 2.90304
103.017 17.1516 3.05311
198.158 33.7872 5.77373
98.2287 16.7156 3.00202
98.2237 16.8457 3.02046
98.947 17.0011 3.03829
99.5193 17.4154 3.17418
94.4844 16.7562 3.10068
95.7581 17.1231 3.17296
94.1005 17.3038 3.26115
93.5966 17.1652 3.24784
91.61 16.8078 3.20718
92.4222 17.3407 3.34205
91.5166 17.0831 3.33745
93.0325 17.9208 3.53879
92.1267 17.7096 3.50376
91.1214 17.8622 3.5747
87.3231 17.0847 3.45752
90.8025 18.0095 3.67528
87.9829 17.5916 3.638
89.6739 17.9361 3.74556
83.5604 17.121 3.59417
87.1694 17.8939 3.80261
83.6324 17.3629 3.72535
82.3875 17.2828 3.74819
82.5201 17.6466 3.85032
83.1885 17.9283 3.95721
83.1795 17.7805 3.93124
85.5094 18.5963 4.16657
84.966 18.8758 4.26532
83.8657 18.7787 4.26409
80.498 17.976 4.14246
84.3327 19.138 4.45385
80.5689 18.4111 4.3226
83.0214 19.1364 4.52052
83.1958 19.2487 4.5627
80.0416 18.8949 4.57468
79.4568 18.6829 4.53628
77.2006 18.4766 4.57432
79.2124 18.8474 4.61925
78.7164 19.1144 4.71088
77.1571 18.8037 4.71442
78.0891 19.3817 4.91952
76.4881 18.9632 4.80795
71.7065 18.0113 4.63401
75.1541 18.9498 4.88733
72.6703 18.5339 4.81354
72.8398 18.7686 4.9508
74.7648 19.5427 5.18053
73.3808 19.1884 5.1713
74.0465 19.4865 5.28197
76.2779 20.1845 5.49954
72.4499 19.4058 5.33032
72.3505 19.6039 5.44017
74.81 20.4138 5.69769
70.1436 19.4248 5.48769
70.7398 19.4101 5.46428
71.8031 19.9335 5.64002
67.559 19.1777 5.56496
67.4952 19.0685 5.54954
70.2255 20.1502 5.87456
67.5235 19.36 5.70719
69.0415 20.0804 5.92591
65.9385 19.103 5.71307
70.1351 20.6521 6.24005
68.1778 20.3477 6.20541
67.2523 19.8536 6.01947
67.1919 20.1365 6.17541
66.5235 20.0603 6.22747
66.583 20.4697 6.34523
65.6731 20.3592 6.40668
66.5323 20.5284 6.48732
64.9337 20.1297 6.35718
64.0205 20.4244 6.62808
61.6203 19.616 6.37929
63.9758 20.4717 6.68346
65.9569 21.2872 7.01586
64.3542 20.9381 6.93131
63.5814 20.5806 6.84134
62.3717 20.7909 7.05282
60.7009 20.3262 6.9951
65.4334 21.5804 7.26897
64.8942 22.0151 7.60401
59.9429 20.2266 7.0448
60.8465 20.8149 7.25512
60.8192 21.1564 7.46325
59.8965 20.4243 7.1779
58.4747 20.3851 7.26765
61.4751 21.4665 7.65911
61.8966 21.8354 7.88432
59.3161 20.8696 7.51133
58.645 21.1975 7.77781
58.6859 21.0701 7.78371
57.3179 20.6132 7.58361
57.6228 20.6537 7.72843
58.3587 21.6072 8.18788
60.343 22.2453 8.41256
58.7517 21.9927 8.69852
127.517 47.1707 17.3012
59.5506 22.5824 8.79242
59.4951 22.1005 8.64085
56.387 21.7106 8.51977
57.2345 21.7422 8.57093
57.9552 22.5829 8.90118
55.1935 21.5348 8.63283
54.2201 21.347 8.61123
56.0592 22.1822 9.01442
56.9102 22.5519 9.17223
54.1481 21.6731 8.92261
54.5239 22.0414 9.11963
54.2363 21.7297 8.95583
54.0278 22.122 9.20406
52.5273 21.6423 9.13306
54.4489 22.4971 9.46093
52.3894 22.0812 9.46555
53.2171 22.3236 9.57919
52.2428 21.9308 9.42495
50.9441 21.6753 9.39383
51.6931 21.918 9.56969
51.8446 22.206 9.84224
51.7643 22.3589 9.86878
53.2228 23.057 10.1806
50.2192 22.0682 9.80178
50.7143 22.1785 9.92705
50.2689 22.1649 10.0753
51.2921 22.8712 10.4235
48.199 21.7027 10.0194
49.8234 22.4164 10.1744
50.5026 23.0373 10.6528
47.3715 21.9279 10.4092
50.7585 23.4328 10.97
47.3245 21.6605 10.234
46.7969 21.8715 10.3782
47.4072 22.5185 10.9649
51.2448 24.0065 11.4451
48.2814 22.6844 10.9359
48.5312 23.256 11.2107
47.3843 23.207 11.4978
49.3632 23.7124 11.5712
48.482 23.5889 11.733
49.3956 24.2565 12.0435
46.418 22.6892 11.446
48.7635 23.8012 11.8375
47.5284 23.5852 11.9222
46.5751 23.2092 11.6801
44.4905 22.7593 11.869
46.3585 23.4404 12.0093
44.7991 22.8757 11.8993
44.591 23.0001 12.0797
43.1427 22.3394 11.8069
43.7818 22.4834 11.8651
46.2384 23.9679 12.702
45.1466 23.6558 12.5172
43.2611 22.9003 12.3506
44.2108 23.4501 12.7664
46.4371 24.1392 12.8074
44.372 23.7155 12.9544
43.4757 23.4158 12.9676
42.2638 22.4572 12.1413
41.9142 23.1941 12.9919
42.7708 23.0681 12.8186
42.4421 23.305 13.0044
42.7699 23.7735 13.3817
41.0826 23.1466 13.3306
42.0181 23.2148 13.1124
41.718 23.4601 13.4659
42.5887 24.0934 13.8269
42.8759 24.2733 13.8988
40.3769 23.1088 13.4715
41.9081 24.1065 14.0842
41.4115 23.6028 13.7065
41.6009 24.3701 14.5009
40.0874 23.3879 14.0539
39.7334 23.0188 13.7972
39.6978 23.6154 14.3099
41.5983 24.1043 14.4218
40.3414 24.2041 14.8322
41.0091 23.877 14.4291
39.3781 23.8065 14.5796
39.3978 23.6907 14.5601
40.8071 24.7445 15.1756
38.4518 23.7147 14.7817
38.519 23.2061 14.3195
38.333 23.5965 14.8397
38.0267 23.6967 15.0661
38.9899 24.2377 15.2954
37.0679 23.3568 15.035
37.7501 23.5589 15.2601
37.8562 23.5275 14.9978
37.1964 23.7744 15.2604
37.4382 24.3428 16.0358
36.9218 23.7605 15.6564
37.2332 24.1707 16.1322
37.2231 24.8745 18.4154
85.2292 53.9102 32.1128
36.4445 24.0914 16.4564
35.8347 23.8359 16.1219
36.0862 23.6373 15.8673
34.266 23.1569 15.813
35.7435 23.7989 16.3219
36.4873 24.0141 16.1211
35.9201 24.3546 16.8614
37.3126 25.044 17.1844
36.0916 24.1672 16.6523
36.0463 24.3515 16.9591
36.0657 24.7796 17.1839
34.7569 23.5544 16.3912
34.9841 24.5783 17.6769
35.63 24.3501 17.2362
35.4104 24.5427 17.3965
35.1554 24.8367 17.8403
34.6046 24.5017 17.6245
35.25 25.1876 18.2044
33.9691 24.2676 17.8442
35.6953 25.4651 18.4437
34.1276 24.4339 17.8096
32.9468 24.0249 17.8072
33.4035 23.9784 17.6574
33.3649 24.2303 17.9991
31.9478 23.5075 17.73
33.12 24.3095 18.2106
32.8239 24.266 18.3153
33.2813 24.6952 18.5763
32.587 24.5554 18.5938
33.1972 25.419 19.7349
32.908 24.629 18.8894
32.2506 24.1863 18.5201
32.6315 24.8381 19.1265
31.8849 24.1605 18.6688
30.2535 23.3776 18.5032
32.8783 25.0502 19.2391
30.6683 23.912 19.039
31.4458 24.3939 19.3515
31.958 24.6865 19.5628
29.9968 23.5546 18.8744
31.5405 24.5887 19.6949
31.1432 24.6601 19.8123
31.0841 24.5165 19.9196
30.5023 24.1014 19.4577
31.2195 24.9234 20.3846
29.8846 24.0626 19.7298
29.7563 23.9827 19.8254
30.4295 24.4628 20.0922
31.3244 25.6406 21.0734
30.1039 25.0562 21.1214
29.7361 24.1871 20.1758
30.1147 24.6155 20.4051
29.7516 24.9178 21.1658
29.3296 24.1041 20.3227
30.03 24.8381 20.8292
28.4086 24.1701 20.838
28.8131 24.3585 21.0884
29.6125 25.192 21.6966
29.7931 24.9758 21.2493
29.5107 25.6271 22.5489
28.7745 24.2627 20.9636
28.3977 24.4954 21.736
28.8894 24.2482 20.7919
28.5694 24.7845 21.702
27.8596 24.2385 21.5548
28.5951 25.025 22.3043
28.1767 24.498 21.7159
27.3827 24.2136 22.0296
27.6739 24.2064 21.6831
28.5803 25.5065 23.1522
28.3857 25.0523 22.5969
26.8139 23.9009 22.1732
28.4328 25.5525 23.2748
27.1897 24.9032 23.5218
28.9061 25.2891 22.5987
27.2842 25.0764 23.5743
27.954 25.3881 23.4812
26.6065 24.5215 23.0031
27.5746 25.2584 23.411
26.6705 24.6469 23.1341
27.0847 25.5191 24.2112
26.5009 24.8219 23.757
25.882 24.1072 23.2408
27.4902 25.7039 24.7568
27.1038 24.9205 23.6685
26.5658 24.6676 23.6356
26.5082 24.8915 23.7679
25.745 24.9656 24.5482
26.4698 25.0635 24.3551
24.9362 23.9348 23.5269
24.8081 23.7662 23.6448
25.4659 24.6987 24.3965
25.2434 24.0506 23.8854
25.2399 25.458 26.2283
26.5477 26.8904 31.073
57.2363 53.5096 45.9339
24.9088 25.1576 26.2686
25.1545 24.6224 24.9252
25.4873 25.5423 25.9905
25.6688 25.5018 25.737
25.156 25.5213 26.32
24.4546 24.3784 24.8045
23.9022 24.599 25.8025
23.8913 23.794 24.7479
25.5377 25.2193 25.5497
23.8118 24.3987 25.0971
24.1439 24.7926 25.7832
24.6198 25.9976 27.2819
23.2834 23.8078 25.2246
24.0918 25.0228 26.5552
25.038 26.0361 27.1719
23.5398 24.4484 26.0166
23.2346 24.4809 26.3342
23.0251 24.1105 26.2187
24.6938 25.8305 27.4728
24.3401 25.7827 27.6606
23.1524 24.6469 26.8358
23.9527 25.3454 27.2245
22.5333 23.9224 26.0415
22.9662 24.5871 26.7147
22.8457 25.1027 27.7055
22.8428 24.6647 27.2853
22.2974 23.9076 27.0051
23.2657 25.3734 28.0444
22.5164 24.3454 27.1706
23.0518 25.0928 27.6263
23.2148 25.9188 29.0742
22.6434 25.1682 28.4538
22.5266 24.3747 27.1732
21.7571 24.2762 27.6025
21.2829 23.8048 27.5352
22.2367 24.656 27.7868
21.7141 24.3517 28.0025
22.3085 25.078 28.4308
22.2901 25.3091 28.9639
20.3707 23.3411 27.3194
22.1607 25.1336 28.8767
21.4031 24.5097 28.5969
21.3431 24.351 28.5467
21.3604 24.3876 28.4781
20.9288 23.9154 28.5223
22.1132 24.9684 28.8094
21.2362 24.7434 29.2525
20.9874 24.2853 28.697
20.5868 24.5431 29.6546
21.0718 24.3126 29.0341
21.1637 25.042 30.2974
21.7538 25.7808 30.9377
20.0623 23.8618 29.373
20.7482 24.4073 29.8598
21.5964 25.5646 31.1559
21.5709 25.8952 31.8076
20.7417 24.0451 28.8309
20.1459 24.5104 30.1238
20.5106 24.8393 30.8868
20.9727 24.8078 30.0917
20.2338 24.7019 30.9781
20.8212 25.0514 30.8327
20.7753 25.3718 31.4066
20.3594 25.0326 30.8402
19.6315 24.8259 31.8105
20.6306 25.2627 31.5889
20.7742 25.7409 32.3034
19.8154 24.7266 31.21
19.7571 24.3502 30.8812
19.6175 24.9385 32.0927
19.363 24.2326 31.2165
20.1327 25.3711 32.3443
19.9023 25.1658 32.3333
18.9304 24.1303 31.8745
19.3261 23.8837 30.6465
19.1305 24.594 32.2822
18.8598 23.8817 30.9251
19.4335 25.1676 32.9607
19.4748 25.0803 32.6573
18.9979 24.5613 32.5668
19.701 25.2433 32.8024
18.2194 23.4871 31.0159
18.1718 23.5431 31.2595
19.0049 25.1691 33.7762
18.6412 24.2052 32.2081
18.4657 24.3774 32.8913
18.5333 24.7009 33.7665
19.0414 24.5023 32.7809
18.3112 24.2653 33.5279
18.7915 24.3453 33.3152
18.9112 24.9326 33.7766
19.2792 25.2363 34.4034
17.9757 23.9292 33.0377
19.0743 25.807 36.1619
18.2057 27.3678 48.2115
42.4057 52.0886 57.8257
18.2732 25.5036 35.7493
18.3114 24.9411 35.6199
18.1327 24.0501 32.98
18.0032 24.8655 35.073
17.3488 23.3484 32.7887
18.6541 25.9508 36.2571
17.6277 24.4571 34.7545
17.6251 24.594 35.4342
18.2782 25.1328 35.6328
17.6206 24.6077 35.7391
18.1776 24.5603 34.1587
17.0943 24.1878 35.0022
17.7167 24.4023 34.133
17.0545 24.4881 35.3638
16.7023 23.6416 34.2569
17.2925 24.758 36.31
17.6219 24.8484 35.9633
16.6507 23.0984 33.1023
16.7743 24.713 36.7156
17.4774 24.6477 35.6443
16.6373 24.0339 35.3748
16.6586 24.0548 35.2118
16.4305 24.3403 36.571
16.8733 24.3873 36.1754
16.9612 24.7071 36.7055
16.5772 23.7892 35.4323
16.5747 24.3976 36.3098
16.5216 24.2684 36.4229
17.2598 25.7643 38.4691
16.2835 23.6716 35.6735
16.0527 23.3559 34.9285
15.7057 22.9897 34.2164
15.2878 23.1051 35.6134
15.7434 23.9832 37.1937
15.8104 23.1509 35.1131
15.0893 22.4954 34.6383
15.2672 23.0032 35.7144
15.0315 22.5983 35.4167
15.6377 23.4873 36.3985
15.3416 23.2742 36.4197
15.4538 23.2222 35.706
15.8229 24.3188 37.7117
15.4721 23.8675 38.3491
16.0143 23.8202 36.1529
15.3832 23.803 37.1873
14.8851 23.1388 36.8274
15.1592 23.06 36.2599
14.7285 22.5013 35.4934
14.6362 22.8289 36.6192
15.6674 24.1154 37.8243
15.0001 23.564 37.2963
14.7131 23.3771 37.4105
14.8768 23.5438 37.7751
14.6611 23.4639 37.9572
14.4834 23.224 38.4489
14.6154 22.5244 35.7714
14.0318 22.4836 36.8982
14.3598 22.9714 37.3697
14.223 22.5434 36.7942
14.0757 22.4785 36.8958
14.3024 22.6766 36.4829
13.884 22.3657 37.1824
13.862 22.1767 37.2208
14.6202 23.511 38.5089
14.0802 22.7623 37.9163
14.1468 22.924 37.8522
14.3044 23.3696 38.904
13.7686 22.1937 36.7967
13.9667 23.0384 38.7103
13.8524 22.7291 38.356
13.7863 21.8947 36.0204
13.7781 23.4808 40.0978
13.5864 21.9173 37.1418
13.5061 22.6947 38.8102
13.7908 22.1048 36.823
13.2801 22.3864 38.4989
13.3809 22.5323 38.3408
12.9156 21.9007 38.4429
13.6945 22.7487 38.2926
12.9785 22.0145 38.4642
13.8209 23.227 39.5717
13.1816 22.6506 39.7466
13.317 22.143 38.5137
13.4203 23.0315 40.4517
13.5569 22.4797 38.0846
12.4867 21.5574 38.4716
13.299 22.3958 38.852
13.027 22.6953 40.1785
12.7605 21.9466 38.6785
12.7504 21.9742 38.9723
12.7001 21.7619 38.6219
12.5782 21.9349 39.79
12.9898 22.4266 39.8542
13.3482 23.9362 42.7339
11.818 23.5738 59.9074
31.5676 50.8085 68.5269
12.3176 22.328 41.4704
12.4735 22.2467 41.0141
12.7347 22.0491 39.2496
12.5725 21.9564 39.1094
12.0475 21.3255 38.9235
12.7288 22.7775 40.5
11.6047 20.7091 38.6593
12.332 21.4742 38.9701
12.2528 22.0048 39.9382
12.2191 21.6706 39.5615
11.8662 21.7377 40.4181
11.9805 21.39 39.8989
12.0629 21.7521 40.7759
12.2644 21.7654 39.6044
12.0348 22.2271 41.6961
12.0712 21.6322 40.3039
12.4911 22.8658 41.6944
11.8684 21.8508 41.1035
12.0132 21.6043 40.3803
11.6014 21.3564 39.6396
10.9706 20.4988 39.1053
11.4723 21.5016 40.9241
11.9276 22.1636 41.8076
11.47 20.9718 40.5022
11.5525 21.6765 41.534
11.8243 21.5509 41.2319
11.5338 21.1142 40.2341
11.6696 21.7945 41.5662
11.7055 21.8228 41.625
11.5348 21.7144 42.1508
11.6617 21.5361 41.1853
11.3519 21.7515 42.8784
12.1561 22.6213 42.9625
11.4839 21.8748 43.2111
12.1793 22.8223 43.4214
11.5581 21.9573 43.1206
11.6105 22.1097 43.5667
12.1085 22.626 43.5048
11.6757 22.1205 42.5513
11.5175 22.64 44.9851
11.2864 21.1744 42.158
11.3585 21.2254 41.4217
11.4157 22.2262 43.0995
10.9707 21.3861 42.8988
11.3132 21.8568 43.0351
10.9732 21.6751 43.8284
11.3591 21.9005 43.5694
11.2933 21.8897 43.1215
10.8621 20.9993 41.6823
11.3204 23.0166 45.7085
11.1565 22.0154 45.0117
11.088 21.6171 43.7796
11.4567 22.6844 45.426
10.9884 22.1673 45.7775
11.4994 22.7521 46.073
11.1742 22.3902 46.2629
11.4766 22.4026 45.129
10.9224 22.0741 46.1283
11.4096 22.3216 44.8785
10.9452 21.8025 44.8442
11.2353 23.3181 48.3066
11.3118 22.3859 45.9067
11.1179 22.065 44.8237
11.005 22.824 47.6859
11.1968 22.5106 46.965
10.9325 21.7904 45.313
10.8391 21.8635 45.2137
10.7795 22.1012 45.7007
10.7242 21.9572 44.5439
10.2743 21.4412 45.5295
10.5422 21.7188 46.1996
10.5663 21.4067 45.2317
10.3778 21.3606 45.9301
10.853 22.1576 46.7014
10.4182 21.0639 43.9684
9.83687 20.4487 43.3073
10.0093 20.7657 44.2675
10.2469 21.06 43.8952
9.64973 20.2465 44.1874
10.0738 20.6177 43.4676
9.77505 20.3966 43.1557
9.59923 20.2188 43.4687
9.5831 20.3621 44.5556
9.45199 19.1671 41.8875
9.80811 20.5161 43.47
9.62482 20.707 44.9735
9.70642 20.0391 43.0441
9.5089 19.963 43.552
9.69963 20.6867 45.3912
9.80707 21.035 46.3065
9.8875 20.9791 46.1312
9.69319 20.429 45.532
9.51869 19.7677 43.239
9.15083 20.2151 46.6305
9.33161 23.5045 78.0467
24.7104 46.9437 71.842
9.67665 21.696 47.8448
9.36173 20.545 45.5629
8.95159 19.6445 43.9722
9.14668 20.0883 45.2613
9.53249 21.0384 47.2367
9.59876 20.3537 44.9347
9.41061 19.9301 42.734
8.63979 19.3432 43.4042
9.23317 20.5442 45.0535
8.52628 18.9148 43.9394
9.207 20.0907 44.5587
8.77854 19.748 45.1926
8.75468 19.3274 45.0443
9.01456 19.7678 44.861
9.18775 20.3291 45.8965
8.8301 19.6464 44.9005
8.92286 19.4481 45.3618
9.05676 20.0216 45.6244
8.82343 18.8007 43.3617
8.98971 20.0191 46.0242
8.95369 19.7888 45.8486
8.74698 18.7889 42.8108
8.532 18.7359 43.0173
8.49373 18.8716 43.2639
8.53544 19.2464 45.009
8.73223 19.2504 43.6961
8.46223 19.505 45.2822
8.63378 19.4863 44.3766
8.00293 18.3753 44.0392
8.47758 18.8718 44.0614
8.32589 18.8999 44.8902
8.73056 19.9826 46.259
8.50127 19.3601 44.9503
8.45257 19.911 48.0895
8.88947 19.8235 44.9071
8.08112 19.0186 45.2752
8.32542 19.0315 45.6291
8.26097 18.9345 46.021
8.57358 19.6485 46.9171
8.48666 19.2396 45.9308
8.43371 18.9959 43.9404
8.15944 19.0369 45.1204
7.99818 18.9426 45.7009
8.40052 19.2391 46.4154
8.30908 19.0969 45.7314
8.32724 19.5658 46.8047
7.96521 18.3612 44.8919
8.18275 18.6657 45.8148
8.14062 18.6213 44.7479
8.10691 19.208 45.8934
7.98228 18.5279 45.0323
7.93845 18.9762 47.0482
8.15165 18.841 45.3309
7.75441 18.3835 46.1994
8.19725 18.7723 45.5434
8.04437 18.6187 44.9224
8.11036 19.7992 48.4786
8.01312 18.6696 46.303
8.12649 19.0446 45.7608
8.00019 19.5253 47.871
