# pn-170911/RbIIR-61-TWTF-1280-1959.psd
# Power spectrum* (dif=0,1,2) (really just |FT|^2)
# NOTE: only the first half! (symmetric)
# weeks: 1280-1959
# 10 clock-days, 0 excluded
# PSD: 1441
121.546 0.0280242 0.0278839
7296.59 0.123112 0.0219728
32399.2 0.636048 0.022539
11129.4 0.524382 0.0224262
6565.36 0.540356 0.0213422
1744.15 0.261072 0.0220652
3204.9 0.513613 0.0208812
2646.1 0.564933 0.0216096
2383.74 0.693514 0.0220009
1651.97 0.487913 0.0215534
1103.79 0.519642 0.0205681
1445.45 0.720004 0.0223034
586.975 0.581597 0.0222955
886.318 0.710819 0.0218015
582.596 0.449908 0.0217728
558.789 0.645936 0.0245758
828.496 0.93485 0.0223336
665.734 0.944942 0.0234129
814.445 1.11924 0.0251653
474.321 0.768875 0.0265099
428.443 0.755688 0.0235824
807.288 1.68077 0.0258525
399.046 0.77386 0.0251284
219.613 0.60089 0.0244383
415.858 1.25652 0.0228835
508.456 1.38351 0.0231341
465.587 1.3251 0.0166279
287.424 0.882739 0.0262502
317.558 1.0478 0.0260994
239.566 0.895038 0.0253159
223.923 0.907243 0.0159709
225.008 1.00988 0.023701
418.808 1.82389 0.0203114
162.277 0.820249 0.0311469
260.531 1.20669 0.0282707
193.881 1.05602 0.0279675
252.647 1.4951 0.0310724
228.624 1.26079 0.0209298
178.901 1.24496 0.0276061
278.776 1.64615 0.0357354
179.997 1.51367 0.0300322
143.328 1.01173 0.0331631
188.06 1.57533 0.037065
143.013 1.21457 0.0305339
253.023 2.19545 0.0534261
77.177 0.781693 0.0337892
241.531 2.22951 0.014372
269.613 2.65119 0.050652
114.557 1.29006 0.0433298
115.645 1.41364 0.0443893
199.339 2.35085 0.0420875
211.951 2.2946 0.0508558
137.476 1.77389 0.0443852
217.611 2.56315 0.0474672
170.839 2.29429 0.0420566
244.208 3.43571 0.060733
263.374 3.9611 0.0904296
175.015 2.44591 0.0489066
227.188 3.73394 0.0831232
128.552 2.0585 0.0388639
160.334 2.85834 0.0824912
124.896 2.25471 0.0671335
105.041 2.03936 0.0680211
92.017 1.81128 0.0515305
61.8863 1.25116 0.0390474
118.426 2.37282 0.078371
151.383 3.17206 0.0831128
143.586 3.05293 0.104874
146.132 2.99655 0.0772311
143.559 3.07504 0.0877954
118.557 2.69891 0.0965287
273.644 6.58154 0.170522
130.151 2.76393 0.102959
104.392 2.61982 0.0979313
110.563 2.75572 0.118801
127.417 3.63298 0.134527
134.209 3.66068 0.141373
157.06 4.43484 0.144621
147.976 3.62024 0.129862
137.474 3.9228 0.175644
116.13 3.57918 0.100564
182.527 5.41235 0.191415
82.9329 2.73894 0.139448
170.004 5.09431 0.160813
101.883 3.60812 0.170098
110.821 3.59241 0.143847
215.669 7.67112 0.320902
147.181 5.51828 0.195494
199.17 7.07449 0.305491
121.925 4.43967 0.15576
115.332 4.36978 0.217189
125.64 5.26864 0.328416
173.051 6.78604 0.236752
135.316 5.38507 0.240024
128.172 5.32819 0.229326
67.8755 2.9261 0.168706
133.996 6.32066 0.317121
103.298 4.91141 0.298915
170.122 7.5255 0.310344
162.934 7.65485 0.383335
184.574 8.76236 0.445053
132.021 6.78331 0.345084
103.302 4.96938 0.295785
66.4138 3.37352 0.198386
96.5025 4.73509 0.266485
108.714 5.31517 0.310383
96.7674 5.4167 0.364605
67.402 3.78534 0.281174
142.905 7.45126 0.445104
95.6501 5.51156 0.249307
200.724 11.1831 0.657582
103.553 6.57933 0.383812
173.961 10.4583 0.681119
45.0862 2.77882 0.176302
75.4827 4.75357 0.340388
113.326 6.32009 0.387354
117.57 7.11082 0.420464
169.096 11.2862 0.73478
111.177 7.54722 0.525794
85.8706 5.55236 0.383693
56.9748 3.7995 0.325974
185.95 12.3972 0.898918
88.2249 6.40099 0.460495
114.576 8.3719 0.6683
185.477 14.1335 1.0577
120.737 9.49176 0.752577
84.3594 6.00751 0.418849
58.0831 4.26944 0.429409
126.866 9.13581 0.645892
81.4198 6.05378 0.37864
77.2941 6.51551 0.531328
46.7979 4.09859 0.366588
77.6051 6.40018 0.582841
125.916 9.93823 0.800903
128.117 11.1797 0.992263
88.7168 7.69248 0.624206
109.031 9.73268 0.815322
132.363 10.762 1.03165
85.2686 7.68991 0.702614
68.0765 6.00728 0.514826
72.8734 6.6634 0.625294
114.481 11.2584 1.08796
141.075 12.9002 1.33554
44.0793 4.08638 0.513971
88.5899 8.94299 0.810206
123.256 12.2668 1.29505
55.4703 5.4603 0.500198
50.139 5.59914 0.664556
132.223 12.4207 1.18893
97.274 10.5258 1.08037
93.3612 9.46757 1.05284
87.0896 9.3988 1.03243
64.1939 6.89867 0.729955
90.7963 11.0037 1.31395
89.8334 9.71759 1.20338
123.267 12.7262 1.31031
90.239 11.2796 1.47113
46.7813 5.65607 0.790178
85.7686 9.51852 1.02715
120.755 14.4638 1.73243
98.0035 11.9955 1.36425
72.892 9.20105 1.23345
142.155 18.4003 2.28752
59.2306 8.18637 1.24168
87.6613 11.7767 1.66772
53.0971 6.3847 0.843325
98.6738 11.9286 1.5218
66.9836 7.49598 1.05813
71.5096 9.28837 1.22817
72.4881 9.03826 1.19217
122.021 17.1922 2.22867
65.2569 8.72837 1.37758
113.299 15.6026 2.42585
121.246 16.2476 2.14828
89.4709 12.174 1.54074
102.85 14.1539 2.12246
77.0261 11.9563 1.81568
41.6856 5.24776 0.731454
125.987 20.2866 3.28042
125.185 19.0009 3.03881
58.5746 9.56671 1.49728
67.7603 10.8156 1.83063
82.4092 11.9065 1.53002
51.0736 7.86794 1.241
46.1723 7.42273 1.33397
72.1975 11.5418 1.57615
55.0018 8.74518 1.55815
43.5739 6.91443 1.17829
32.7139 5.53862 0.984976
93.2837 14.4342 2.38098
86.1107 14.763 2.38099
53.488 9.94567 1.72477
59.706 9.91959 1.69696
65.209 12.4875 2.23262
62.1045 10.1177 1.75489
89.3859 16.2394 2.99649
76.6379 14.6134 2.80103
52.3373 8.98777 1.58479
47.5588 8.75655 1.74624
59.6393 10.2891 1.63933
47.167 8.99095 1.71385
85.0736 15.0607 2.60045
63.9203 13.6656 2.80994
61.4163 11.0594 2.02024
63.4772 12.4623 2.45226
62.972 13.0188 2.605
50.5297 9.10578 1.71609
65.5408 13.7948 2.77233
134.994 25.7555 5.04186
42.8603 9.60874 2.04758
70.6941 15.3127 3.36599
67.7932 13.0961 2.5702
32.922 6.65603 1.31315
69.0465 16.5257 4.09861
41.9088 8.5674 1.93537
29.1991 6.08939 1.32091
54.9281 12.6548 2.84857
64.8139 13.4163 2.53518
78.4286 19.3569 4.30734
33.3109 7.10909 1.54599
88.2895 23.2013 5.94413
95.9743 19.7448 4.36497
53.1834 12.8503 3.33525
80.8367 18.1396 3.77005
56.5826 12.6578 3.06088
66.7267 16.4691 4.23487
42.7041 8.45409 1.68699
86.4427 21.9672 5.53282
54.0996 13.6227 3.43917
61.0847 13.7054 3.17125
49.467 11.5052 2.60708
82.2421 22.1347 5.79759
41.3178 10.1603 2.68546
80.1774 19.0409 4.54285
43.3793 11.7865 3.21052
44.6209 9.65539 2.07068
25.8112 7.60385 2.2648
63.7784 16.2891 4.16967
68.5171 17.6947 4.7063
49.3086 12.839 3.34891
73.2949 19.6447 5.54717
62.5739 16.9961 4.31688
33.6152 8.65072 2.26712
36.4939 10.7786 3.23325
57.5692 15.4419 4.27719
30.3392 9.59329 3.22029
55.8949 15.0299 4.18092
59.0295 16.8362 4.98949
57.1336 15.6956 4.41123
42.0826 12.181 3.59723
57.6258 17.292 5.03974
57.7566 14.9676 4.42347
75.4721 21.0356 6.0254
37.0394 11.6541 3.96446
62.8072 16.978 4.47918
39.6104 12.6698 4.24435
31.6949 10.5534 3.71805
59.6267 17.9459 5.13568
56.8945 18.0416 5.45439
26.1248 8.49133 2.99597
79.1505 24.5409 7.61784
52.3623 16.3375 5.5569
45.9872 13.8362 4.1182
57.9032 19.0483 6.03066
33.5113 10.6681 3.81292
31.9519 10.1347 3.39487
56.8954 18.7853 5.81925
50.2395 15.0968 4.91443
39.7889 12.7678 4.4863
63.5836 19.1721 5.50211
23.8251 8.69809 3.17322
44.1518 13.6564 3.85939
58.6561 23.7765 9.29313
69.6109 23.0637 7.65258
38.1734 13.2061 5.17706
46.9576 15.5278 5.19216
46.9414 16.0479 5.50581
47.5633 17.0831 6.31275
30.1822 11.5921 4.69262
35.3156 12.8588 4.83124
92.8955 31.8346 10.65
60.7733 21.8328 7.74356
49.2067 17.77 5.99072
29.6272 10.2772 3.66188
55.0918 19.7555 6.81176
41.1375 17.4254 6.93721
24.4267 9.92943 4.44582
52.7953 20.1322 7.18234
20.4888 8.34071 3.66558
22.3347 8.34944 3.32372
31.4773 13.4708 5.93827
47.7801 15.2939 4.78126
34.7739 13.2969 5.09627
25.7245 10.0236 4.02596
31.8275 12.7128 5.06673
47.141 20.5873 9.22664
45.7902 16.784 6.69419
42.6683 18.1586 7.66119
33.6322 11.8822 4.53269
50.5202 20.4547 8.13556
35.7702 13.6302 5.37204
52.3255 21.5748 8.10437
45.5187 21.0326 9.66813
25.4064 11.0784 4.83932
31.3262 13.888 6.05337
30.3202 12.6021 5.0414
39.8254 18.7932 8.6625
28.9691 14.5597 7.20102
34.484 14.2279 6.57663
36.6091 13.506 4.65042
33.5579 15.7324 6.9892
39.4687 17.7267 7.53447
34.8864 20.1012 10.4947
25.1982 9.08533 3.84962
45.5675 17.2805 7.09057
47.0783 18.7857 7.47167
51.9479 25.253 12.4991
50.4891 21.7359 9.21617
45.8988 23.01 10.6924
37.0994 18.5194 9.37087
43.8363 20.861 9.75848
30.6299 13.4799 6.57944
52.6576 22.119 8.91014
27.0765 13.6503 6.37884
47.9306 25.1574 13.6726
41.9126 17.5541 7.21605
51.0496 25.664 12.2488
36.856 18.3628 8.85916
39.0771 19.6489 9.45899
49.342 26.4701 14.6126
41.0103 17.9312 7.94459
32.3885 17.1386 8.54093
37.5673 19.2451 9.19591
19.6428 10.3346 5.54975
20.363 11.6581 6.96251
24.0253 13.2237 6.87135
18.4662 9.28961 5.61204
39.6827 19.3461 9.30974
27.4965 14.8872 7.9792
35.9527 21.2099 11.4573
21.5457 11.5901 7.15711
53.8612 25.4122 11.2492
14.569 9.01691 5.91488
42.6454 22.2777 11.5466
40.0993 25.1955 15.384
33.526 17.9139 9.80074
27.478 15.6384 9.67539
37.0073 19.3866 10.5064
42.3328 23.5917 14.1659
36.3985 16.2099 6.41852
26.2255 17.0576 10.9326
45.3447 24.4543 12.9646
27.3196 14.8977 8.13327
41.0376 21.5899 11.0811
19.5944 10.8688 6.40948
30.1679 18.0821 10.7717
14.0901 8.64769 5.36825
19.1206 9.74915 5.20224
41.8243 29.0331 19.41
33.2217 15.408 7.66249
28.9884 17.4416 9.41575
37.2128 21.9062 12.1855
26.4774 16.835 9.88138
20.0826 13.9361 9.12969
33.3657 21.4325 13.387
24.2587 12.8653 7.57121
15.4703 6.80577 3.97354
46.8579 29.9863 17.924
16.6454 10.5322 7.4137
19.6502 13.517 9.69495
19.8671 11.0805 7.71219
46.2546 26.0429 14.0481
22.5936 13.3624 8.32488
36.9692 21.6927 11.558
27.1382 19.3022 13.0305
28.1492 17.5097 11.3162
23.8127 14.7371 9.60959
29.5314 19.1165 12.0507
21.47 11.7922 7.24966
34.7953 20.143 11.5626
15.5477 13.2422 11.5797
29.0626 18.1724 10.5117
22.5064 15.3808 11.142
32.1366 18.9816 10.8132
23.023 16.6123 11.4552
32.8003 23.6719 16.379
22.0677 12.4134 7.25131
11.9947 7.83011 5.2188
14.6698 9.47297 5.99932
11.4765 9.65346 8.11148
25.5044 18.5249 14.8099
43.3167 26.6821 16.7654
37.2352 21.9989 12.0588
23.3821 19.0115 14.0891
27.6798 21.1547 16.2508
19.4621 10.5808 6.07648
32.3188 21.3847 12.925
26.7964 24.0803 19.997
18.5535 10.7345 7.13563
33.9518 26.0825 17.8454
18.6111 13.1595 9.81414
16.5292 13.0708 10.4007
36.9805 28.3356 21.2665
16.0719 10.4909 8.08602
23.3974 18.0192 14.0997
24.6355 17.2012 13.2113
36.4634 25.6755 17.5833
20.009 12.5877 9.04924
33.1422 24.1546 16.2973
22.5495 15.2029 10.7521
28.8706 21.5879 14.8719
20.5832 17.6422 14.5317
30.3674 29.711 27.7644
39.3138 25.3201 16.8473
20.4918 18.4255 16.4926
14.1196 7.87688 6.26344
13.0243 6.6824 4.91094
20.8958 16.7989 13.3609
23.3373 15.8808 11.2043
34.0656 26.2454 19.2352
34.9608 28.1254 24.1161
96.6696 74.1098 54.0308
47.2732 38.2319 30.2652
85.188 79.5502 69.5222
43.8376 26.2644 17.2622
31.2044 24.9247 19.4905
23.5305 16.9319 12.7004
12.2097 7.68493 5.63249
24.8674 21.0929 17.3486
24.8804 18.3289 12.7385
12.1402 9.80742 7.52773
22.6022 23.5607 22.0318
22.8134 19.0612 17.0427
17.3076 10.5483 7.08623
9.24533 8.1384 7.2665
19.5272 15.4435 12.0329
28.3428 25.2027 21.941
24.6716 19.4831 14.6064
12.6157 13.9192 15.2841
21.4047 17.5273 15.4944
28.0619 22.6676 19.0494
15.7442 11.007 9.04531
19.8806 15.8771 11.6159
20.5915 17.9655 14.4404
14.2762 11.07 9.54856
28.2394 28.0889 25.5806
17.4648 12.4162 8.89882
13.2949 13.8283 13.0096
18.0646 14.8951 13.4566
22.1129 19.6919 16.5812
8.70417 8.62796 9.7233
12.3782 11.2182 10.326
27.3631 26.7394 24.3979
16.7498 14.6941 14.7056
19.9155 15.8904 12.9522
17.8631 17.0687 15.8237
10.6185 9.11775 9.2628
18.3984 14.4594 11.0251
16.1954 16.0823 14.9636
22.876 21.914 21.3719
25.9369 22.0714 18.1937
18.629 18.9502 16.9232
17.4482 19.9382 23.0717
30.1794 25.1034 21.3851
27.1573 24.4135 20.8528
17.1039 16.3375 16.0023
22.273 20.3975 18.1791
23.1535 21.5987 17.311
16.5458 19.782 21.2963
15.0311 13.6024 12.396
10.3769 14.5155 20.0551
23.3377 18.8731 15.7126
11.1769 10.7169 11.2488
19.008 17.8926 16.2416
9.90125 8.33362 7.52149
13.218 13.6864 13.3486
10.1219 10.8053 12.7483
14.0608 13.4336 14.2199
19.1832 15.6588 11.6893
11.6502 13.0294 12.9645
5.89322 5.27307 5.27576
9.36009 10.5908 11.2179
14.2398 16.3679 17.9732
8.93718 6.94807 6.75885
16.044 15.5873 13.0106
17.6049 22.5777 25.1611
15.2996 15.8235 18.4417
14.9789 13.5573 13.5821
18.3401 18.733 18.8962
15.2686 13.6722 12.7779
17.0576 18.9938 20.1779
13.8352 15.9836 19.0531
23.2262 23.77 25.2755
17.5202 15.7505 15.7516
19.8745 19.5998 17.4292
19.9703 26.3689 31.0671
16.9418 16.0607 17.8984
21.3233 21.1917 19.9207
12.4374 13.244 15.9131
21.4271 23.7383 25.0059
20.1542 21.5495 23.9213
25.2443 25.8119 25.7008
17.8454 21.6367 26.7438
13.0675 10.8512 11.1212
18.2844 18.7618 17.2203
10.7134 12.8179 14.9873
17.7162 21.4529 24.4971
7.39361 4.96088 5.69451
15.6241 17.2371 16.9551
12.7686 14.7792 16.2299
19.6806 23.1123 25.0762
11.5294 12.871 15.7193
13.364 13.4582 13.7719
13.3142 14.4862 13.8277
11.144 17.7431 25.2459
19.4929 19.1812 19.7076
17.1274 19.8031 21.7129
15.5479 16.8494 16.0188
14.7751 21.7864 29.4506
23.3086 27.6859 30.0731
9.50368 10.47 12.9932
12.3023 16.1812 21.947
16.6421 14.983 12.9094
9.84774 16.4656 23.8675
10.8359 8.26592 7.51202
8.31239 10.3826 14.4946
12.4408 13.858 16.6313
16.9234 22.7046 30.6705
18.149 17.9269 18.3369
15.6861 18.8496 23.4359
20.0626 21.8589 22.8298
14.4101 15.1662 15.6942
8.90381 12.1063 16.1605
13.2118 15.096 16.3295
8.34623 11.2908 15.5326
7.13542 7.4306 8.86284
10.007 12.9728 16.4216
10.9223 13.45 15.1337
7.31876 11.0968 21.358
28.1178 33.8851 38.9433
19.3277 19.6214 18.4579
10.6449 13.3244 17.4299
21.764 27.8222 31.4431
7.59406 9.67761 13.9248
14.8115 21.8838 28.7358
8.04073 10.6291 18.9394
20.9152 22.8452 22.207
10.5849 13.8955 17.2811
8.49111 15.8542 29.7893
23.6009 28.6202 35.7626
22.961 24.9852 24.7241
6.93855 11.1693 18.3216
21.6282 34.1122 50.0408
22.7208 22.965 26.3187
11.8694 15.9416 22.8674
7.65331 7.76607 14.2453
14.1702 13.0131 12.0074
12.2831 14.8556 17.0139
11.59 14.8549 16.8862
10.1148 15.0353 20.4243
9.7091 12.3574 17.5914
10.924 13.8378 17.3376
13.1894 18.0952 22.3125
9.67022 12.7981 17.1732
10.592 13.6869 16.357
8.98341 14.9701 25.1465
11.8754 12.3448 13.7941
11.2046 17.266 24.5663
20.3271 32.294 48.795
15.426 12.1185 12.3114
14.3212 19.7005 25.4948
9.20251 9.66426 10.575
9.5443 15.7987 25.1553
16.8998 24.3664 35.5499
15.2047 13.2833 11.953
13.3414 18.0231 20.238
10.3964 13.3932 14.1998
6.20359 9.85359 16.0233
16.9219 22.7964 23.3825
11.2483 21.4408 32.9129
8.70392 12.8612 22.5881
15.7518 20.5157 26.2649
17.6601 27.6359 36.9298
11.3049 16.7107 25.0758
11.9533 16.0022 20.8447
8.01324 16.2099 29.3356
7.90646 9.91365 17.2668
14.6098 21.8581 30.2756
9.59841 12.9602 20.3197
8.26724 9.93764 14.4421
8.46054 10.2695 12.4093
6.50205 9.6673 15.0071
7.61164 10.1642 15.4703
12.7985 19.0033 25.0851
8.8973 11.4975 13.3491
4.16812 7.3246 13.8428
11.8112 18.0613 24.2035
10.7111 15.1307 18.8798
6.44318 10.1475 14.1496
7.94538 13.6984 21.6123
11.8147 18.9942 27.4476
6.85693 9.76049 15.3257
9.47333 16.4512 28.3754
11.5493 16.3373 25.7381
12.28 14.2246 14.9073
6.18273 11.0082 17.3697
11.2187 17.7062 25.1166
10.5243 19.0223 29.3111
9.04089 16.3593 29.0794
9.90531 12.3266 21.6451
12.2047 15.1965 19.4077
12.0635 17.8494 25.767
14.0328 21.3916 30.089
18.5942 32.8092 49.8176
12.6981 18.5308 28.1805
10.2047 16.6333 24.1766
6.29844 10.6359 20.5406
12.0089 20.9722 33.3019
7.0844 8.08684 12.8052
6.4967 10.0732 16.0208
6.65835 11.0634 20.151
12.1245 19.1248 27.8095
4.89125 6.17027 11.7832
6.83791 9.24796 13.2194
10.955 20.6564 32.1051
9.44228 13.5399 21.4191
11.1131 19.5684 28.8123
9.50503 19.9104 41.359
13.0071 14.0659 18.4382
8.13341 12.8061 20.6773
11.7678 17.545 22.4119
6.63184 13.2402 22.7009
5.5885 9.48802 17.6425
9.94219 18.6418 32.0632
9.4163 14.343 24.9678
10.8854 17.5054 28.8841
8.79296 14.4394 25.2498
8.03168 13.2166 27.8486
16.2269 21.8531 27.8275
11.9856 20.7162 29.342
9.03018 17.0087 29.8018
8.6951 13.023 24.7391
12.8424 18.0156 20.2021
8.5303 21.3316 40.4276
8.17327 10.9079 16.5653
4.34919 10.6705 29.4088
15.3063 21.5936 27.7765
9.61723 15.9361 26.4716
9.8771 15.5955 23.1891
8.10258 14.2948 25.2885
8.89303 16.7258 28.691
5.62062 7.54867 15.4233
8.16352 12.2544 16.9737
8.23801 18.0858 35.7217
10.2092 16.1935 29.2789
7.67666 9.23945 13.9581
9.86935 18.9013 32.3054
9.69493 13.7864 19.1125
10.5271 19.5763 29.2172
6.39365 15.9329 36.8201
8.64407 9.28749 15.4794
13.5763 22.5619 28.4449
8.4614 17.2158 29.2676
7.98211 16.7494 29.9039
4.82957 7.17258 15.1734
8.13927 16.8746 31.0542
8.8268 16.9822 31.9341
9.70788 18.6175 38.5113
8.56145 11.8744 23.7028
14.4327 29.4499 55.2765
11.9995 13.2384 16.7129
8.16991 16.334 30.9435
10.8029 16.623 21.7069
9.03533 21.5881 43.3706
9.8939 15.2897 22.5057
5.35277 11.7184 27.2359
13.5973 25.4013 37.703
4.04024 8.37042 22.079
8.47528 14.4548 29.501
10.5438 14.5471 16.6854
3.53887 8.33415 18.1964
7.40127 13.4079 21.0215
4.19684 9.32196 21.3496
7.03564 13.3034 24.4186
7.09064 13.15 26.1475
8.8254 14.5905 23.8208
7.59506 16.2608 30.5763
8.75263 17.4062 30.7443
4.07709 5.82976 13.2128
4.35813 4.93726 6.03805
4.58039 11.5167 23.3572
9.37014 21.3988 41.1107
5.37902 5.1416 8.9637
8.51186 20.0732 40.2814
9.65732 15.8236 25.7687
7.19158 16.4051 33.8181
6.62475 11.5595 23.6293
6.16099 8.01169 11.1911
4.31179 8.20263 12.5848
4.732 10.9847 22.0695
7.12571 15.6208 29.2107
5.71713 13.2561 32.3639
7.84705 13.3468 25.091
4.96262 7.84923 14.6364
5.88447 11.3667 22.2901
6.65091 11.0719 19.0188
8.18985 18.917 38.1463
8.35627 15.1147 25.0481
5.94814 11.2618 22.2828
5.89941 11.857 24.5032
6.58716 14.3083 27.4368
4.33918 6.59507 12.3407
2.87082 4.92627 12.6679
8.08575 19.5683 41.3277
8.14772 14.4799 30.8728
12.9108 25.2379 38.009
4.49971 9.18599 22.7547
5.701 9.09868 15.0271
4.19532 7.56452 11.6621
5.49101 14.8958 30.1499
6.95731 17.2449 38.9985
5.52286 8.79415 21.6344
6.49052 10.0678 16.2031
5.18473 10.263 19.8182
8.08354 19.9826 40.5982
5.78439 8.07537 13.2094
6.26016 14.8934 26.2348
3.32329 6.41552 14.8161
4.51206 11.9888 28.0838
5.40464 11.1784 30.7271
8.92152 14.4861 21.6212
7.24526 17.5162 32.8678
7.5714 20.1584 42.7643
5.84827 10.0851 24.1692
6.74907 12.732 20.1803
5.4202 16.651 44.8984
7.50754 14.5846 31.0824
4.68756 5.84456 15.6337
6.46641 11.7152 19.5963
3.6961 8.95309 23.3988
5.10308 7.64037 16.1004
6.76769 13.8383 24.485
2.83948 5.54457 14.7427
3.69884 7.23672 20.2322
7.44332 15.5297 30.6698
5.99041 9.32161 14.7146
4.33479 13.2347 33.3403
8.47763 15.5505 27.7118
5.44376 10.0408 17.2811
2.76487 4.90801 12.0774
5.06379 12.9595 27.9486
6.29872 14.0827 29.7844
7.95078 17.5429 32.9162
3.78001 8.03053 20.6756
5.36243 11.9821 29.488
8.98409 18.2346 30.2485
6.30706 19.5064 51.2074
9.97217 17.3238 32.028
5.0806 8.84307 15.9484
4.02512 11.4695 27.0621
6.16657 13.6032 29.7676
6.20411 16.5558 47.6952
12.8259 23.4801 37.2444
6.62057 14.718 27.5819
5.29258 15.28 36.9412
5.25292 10.9812 25.8649
4.78315 10.318 32.9906
11.3058 22.6128 37.7088
5.96977 15.027 35.4922
5.347 10.8793 31.046
9.12554 22.0986 47.2799
6.7208 12.5591 25.4923
5.27132 12.2537 29.4775
5.6025 12.7419 34.9374
7.76403 12.1891 15.3456
2.93512 8.26048 19.1904
4.23405 10.3052 20.1507
2.6897 8.77434 33.7356
9.48883 19.6022 33.4979
3.16541 7.05 20.6195
5.13922 11.6438 28.0547
6.34649 15.0202 32.9957
3.82151 5.70398 13.4996
4.57139 11.9702 25.7601
4.56198 11.8331 32.6224
6.4004 12.1574 23.4868
4.88828 10.8786 23.3761
5.65214 17.8993 49.3396
7.11667 9.78344 15.8585
5.18748 12.2813 20.4805
4.47477 12.9934 25.4114
4.19385 15.6857 38.6803
3.40415 7.14372 24.5954
3.60082 6.28329 24.7679
6.42254 8.50414 14.4204
6.73044 19.1057 36.294
4.01681 9.17966 27.0937
5.02408 11.535 29.8213
6.33618 12.9585 23.8553
3.87596 9.90604 24.3625
4.26661 7.75919 15.745
4.04387 11.2188 29.8805
5.68487 12.748 28.0493
4.48048 7.52245 10.1522
1.96487 6.67474 17.492
4.81856 15.3186 41.6807
6.31504 11.414 17.6689
2.56366 11.8247 40.363
5.60429 8.90139 20.6123
4.87058 12.8066 37.3395
7.96755 14.3559 25.5072
4.93509 11.8853 22.2074
5.65861 18.601 42.703
4.73225 13.6609 41.4207
4.4833 6.1076 16.2417
3.9658 8.13869 18.7121
4.76219 16.8176 47.2812
7.51796 13.9929 26.6345
4.11961 8.3836 15.0242
2.4246 8.28596 23.1752
2.32403 4.04904 18.218
4.8262 10.8621 27.9509
6.24861 14.5132 25.9395
4.42803 13.0541 33.3246
4.67047 10.0176 24.7494
4.0176 9.79338 29.2962
