# pn-170911/RbIIR-60-USNO-1280-1959.psd
# Power spectrum* (dif=0,1,2) (really just |FT|^2)
# NOTE: only the first half! (symmetric)
# weeks: 1280-1959
# 11 clock-days, 0 excluded
# PSD: 1441
723.51 0.0611387 0.0168472
14300.3 0.239627 0.0197964
61902 1.41533 0.01453
13632.8 0.405813 0.00982275
51163.7 4.24647 0.00729309
3884.17 0.318197 0.00633826
2598.39 0.36938 0.0138514
2085.09 0.445829 0.0175165
2684.16 0.60025 0.019035
1898.42 0.635318 0.0199173
1840 0.898718 0.0165569
1645.29 1.02014 0.016594
1780.83 0.946605 0.0120751
1401.8 0.895582 0.00557086
856.007 0.658323 0.0128227
617.567 0.554298 0.0120877
842.585 0.824347 0.0197579
712.92 0.819322 0.0204299
538.854 0.635602 0.0145149
608.813 0.993534 0.021248
505.25 0.911691 0.0138429
466.42 0.849586 0.00998841
501.507 1.13947 0.00875136
312.61 0.549593 0.0129205
303.345 0.628947 0.0221573
235.164 0.683088 0.0232962
312.276 0.996357 0.0230762
274.973 0.999482 0.0247021
402.339 1.25701 0.0156856
301.827 0.935152 0.0142325
332.559 1.2522 0.0134787
213.948 0.870476 0.0105373
292.651 1.4666 0.0272639
209.565 1.11616 0.031
202.937 1.21068 0.0300499
213.471 1.1095 0.029548
133.188 0.747182 0.0252949
213.857 1.41206 0.022007
221.678 1.5562 0.0193414
116.552 0.592826 0.0133139
159.335 1.17543 0.0232024
181.078 1.54273 0.0272522
263.576 1.99242 0.0317637
220.254 1.6134 0.0236495
170.072 1.65647 0.0389214
111.265 1.29944 0.02511
83.2943 0.671655 0.0150147
151.849 1.51699 0.0293222
127.436 1.28059 0.0187381
129.35 1.32435 0.0287774
175.604 1.98299 0.0376877
175.913 2.02551 0.033848
267.84 3.42476 0.0609922
129.423 1.61313 0.0277942
220.139 2.8845 0.0715698
135.746 1.79668 0.0395014
116.174 1.6069 0.030668
153.381 2.0944 0.0506729
134.949 1.94907 0.0403042
151.527 2.56165 0.0766212
103.552 1.43442 0.0381333
130.446 2.35506 0.062952
176.505 3.27977 0.0941656
221.447 4.09725 0.0984621
120.771 2.38039 0.0536972
111.234 2.38604 0.056474
110.84 2.41622 0.0593741
268.178 5.52022 0.117782
129.816 3.02544 0.0910334
134.179 3.26708 0.0714599
109.108 2.04492 0.0643395
116.143 2.48035 0.0854092
105.217 2.88575 0.0856873
121.076 3.12011 0.103923
63.1132 1.94254 0.0773836
57.66 1.33388 0.0398527
147.126 4.12426 0.134717
69.502 2.12027 0.0781169
153.455 3.80207 0.141442
133.331 3.70897 0.128918
140.593 4.38145 0.128151
145.353 4.46435 0.147284
99.9253 2.7458 0.0953514
131.13 3.83319 0.155151
52.3686 1.62628 0.0691424
186.307 6.00445 0.238702
148.779 4.91477 0.212263
119.782 4.17717 0.149679
57.8032 2.25836 0.079069
116.753 3.92157 0.181866
85.4784 3.22769 0.150089
140.601 5.82964 0.246781
113.295 3.81301 0.147821
97.1693 3.76392 0.149343
127.618 5.32679 0.240966
159.447 5.73047 0.294811
85.1304 3.50833 0.197385
125.178 5.08792 0.240758
174.014 8.10211 0.42039
101.153 5.01952 0.222525
72.4955 3.16109 0.171067
99.5182 4.64422 0.231648
139.531 5.90252 0.318781
83.5731 3.90147 0.244725
166.38 8.09107 0.486836
125.026 6.03521 0.324095
210.9 10.8985 0.594935
128.738 6.66843 0.382471
91.5013 4.24007 0.227576
103.222 5.79636 0.319241
101.265 5.70648 0.372809
69.2464 3.7287 0.205099
68.5326 3.75002 0.217361
83.9196 5.5517 0.303403
77.7451 4.64389 0.257586
74.396 5.01152 0.310502
112.85 7.08392 0.471714
153.172 9.65417 0.603793
70.8819 4.65216 0.311255
79.5247 5.31135 0.339773
165.536 12.2591 0.836036
94.0815 6.61161 0.509491
92.5369 5.56686 0.392822
64.7265 4.53076 0.379779
121.149 9.09773 0.645076
98.2513 6.9629 0.452042
77.8106 5.47291 0.444267
69.0184 5.1106 0.460208
163.588 12.7762 0.974089
111.728 9.15536 0.731083
61.3729 4.13663 0.373109
88.4747 7.58692 0.564466
83.2326 6.39835 0.553525
115.414 9.45916 0.854209
87.6435 7.73718 0.641765
148.806 12.7094 1.13421
121.72 11.5345 1.08898
78.6981 7.01702 0.716662
49.1537 4.17065 0.401595
87.5872 7.41376 0.697281
100.11 9.40952 0.793912
118.423 10.7208 0.91249
64.1418 6.31263 0.597825
84.3336 8.25712 0.826836
103.473 10.6451 1.16597
39.618 4.05435 0.438035
127.509 13.1353 1.46152
113.202 9.83561 0.942523
54.9076 5.74837 0.640045
74.5441 7.4678 0.810774
81.9561 7.99848 0.816818
96.9955 10.254 0.963412
79.344 9.00863 1.05261
95.2984 10.0769 1.17999
118.513 13.1579 1.59478
83.6511 9.28115 0.988514
107.42 12.9299 1.42947
73.8187 8.52614 0.902339
141.19 16.3674 1.85507
91.4594 11.0799 1.2784
75.0784 8.75882 1.02069
66.7801 8.00517 1.00665
56.8681 6.72506 0.830247
64.4981 8.98506 1.10171
89.678 10.9117 1.36443
66.624 8.6219 1.27643
82.2971 11.2758 1.48882
87.2502 11.1316 1.36589
53.8775 8.11287 1.1516
69.7354 9.24109 1.25286
96.0367 15.508 2.25819
57.0807 7.63638 1.13061
60.664 7.66512 1.00973
65.6396 10.2938 1.4546
71.4445 10.0825 1.35693
68.2323 9.31059 1.46387
112.171 15.9976 2.32378
56.7566 8.34287 1.2921
95.9718 16.0898 2.53151
81.4514 12.2477 1.87352
146.203 20.3709 2.7954
39.9925 6.11044 1.15455
93.7676 14.3619 2.23735
91.052 15.6664 2.53317
75.3461 10.6642 1.52394
125.277 20.3721 3.40524
88.8024 13.3683 1.99203
52.6018 10.3284 1.83827
37.5266 5.06236 0.743203
97.6936 15.0185 2.54372
35.4893 5.52553 0.903471
88.3985 15.6345 2.69154
42.6835 8.49166 1.5812
51.9183 8.87389 1.47201
77.6568 13.6464 2.46257
90.107 16.4702 2.95827
91.6113 15.4743 2.67111
35.1976 6.3377 1.22973
82.3505 15.2137 2.90511
38.8012 7.7847 1.4846
87.2841 17.1281 3.20309
27.7729 4.63652 0.963044
81.4751 14.7632 2.59015
89.2435 16.8234 3.0529
53.4946 12.3841 2.60807
74.3238 14.5014 2.95932
61.4473 10.8354 2.15745
61.921 10.6053 2.07444
55.1672 12.4782 2.5877
62.1996 12.6928 2.80938
101.721 19.3582 3.81482
27.0594 5.9801 1.47313
50.629 10.9144 2.58315
82.6269 17.2986 3.44855
55.8306 12.1363 2.61996
66.3657 12.4416 2.22997
68.774 15.8537 3.66277
47.7754 10.593 2.59354
40.104 8.55543 1.95166
76.8394 16.3202 3.58143
60.6262 13.7522 3.00218
88.7032 19.0162 4.04301
84.0153 18.5157 4.28661
94.0426 22.5666 5.61164
63.4043 13.2769 2.84429
67.2104 17.0953 4.13245
58.9809 13.8906 3.36743
65.5929 14.8142 3.48728
47.2 11.8668 2.90996
83.833 22.3767 5.92268
73.8615 18.4026 4.64726
68.4815 15.4776 3.3626
50.3044 11.8848 3.12983
49.7747 12.5134 3.2713
58.681 12.9217 2.96
62.1125 15.6299 4.20083
49.8555 13.7507 3.68159
109.81 27.525 6.64719
50.6075 12.3719 3.06937
45.2662 11.9215 3.34983
43.4118 12.9923 3.94254
66.2828 15.3552 3.72584
59.0493 15.9011 4.26028
38.0069 12.2633 3.89069
50.5029 13.146 3.57166
25.7325 6.37729 1.82403
73.649 20.5608 5.59255
46.5362 14.12 4.35933
55.6129 13.7323 3.96139
90.205 26.4806 7.66643
77.3368 23.0675 6.71109
23.5513 6.94784 2.34509
84.7366 20.2436 5.20852
67.2684 21.5878 6.69951
91.9565 27.9531 8.57538
39.25 11.6132 3.74413
58.7439 16.1217 4.47842
31.2375 11.0313 4.06389
95.4167 26.3629 7.62948
66.4481 20.878 6.67992
93.041 29.0725 9.38889
84.0236 24.6505 7.07748
45.4939 14.5992 4.36513
44.0374 14.5696 4.88199
38.7181 12.1377 3.7318
45.8486 15.068 5.32892
28.233 9.50433 3.30626
52.3297 16.6908 5.23598
52.371 19.8522 6.9266
52.8001 17.5762 6.08994
38.2726 14.666 5.74654
49.944 15.7319 5.44677
77.874 25.4394 7.80883
28.3991 12.2066 5.18169
91.8492 29.9134 9.61995
52.322 17.1854 5.58752
28.4852 9.30109 3.38317
41.9599 14.4288 4.74474
32.419 11.0336 4.01303
39.3936 17.6218 7.82514
58.4497 18.3347 5.47195
30.5728 11.5907 4.25796
33.0289 12.0261 4.66823
49.9977 16.6521 5.38978
78.8115 31.9065 12.4911
24.8482 8.56482 3.33864
39.3285 15.5607 6.10757
75.0331 28.7658 10.9514
55.3194 20.5754 8.04641
66.7516 23.9958 8.51646
40.0777 15.7874 6.87659
38.2716 13.3505 4.94527
40.7925 16.2679 6.274
43.7516 18.278 7.59062
51.5025 20.8783 8.29747
55.7088 21.519 8.34342
36.3402 16.5567 7.79042
67.6666 25.3992 9.4262
38.9327 16.08 6.73583
38.0799 17.4861 7.42155
63.0511 26.1812 10.8189
29.4225 11.1653 4.22423
52.7037 19.4221 7.63395
41.5435 18.076 7.47827
32.2111 12.7945 5.76594
32.8645 14.8482 6.82057
45.6199 17.4978 7.16823
55.128 24.8852 10.5288
23.7725 11.8016 6.46829
56.7376 24.1215 10.0664
30.4933 12.6723 5.98335
49.9008 19.7145 7.59091
32.793 14.2181 5.60357
33.9691 15.9954 7.33399
37.0157 16.5328 7.27141
38.3013 20.0766 10.5996
45.5714 18.4699 7.19597
45.9298 23.7948 10.7449
24.9686 11.0323 5.40543
38.8727 18.1922 8.86654
31.786 14.1904 5.95245
38.3248 20.0116 9.84443
25.6587 12.1383 6.40442
31.3705 15.0886 7.09902
28.6219 13.883 7.04236
35.0659 14.564 5.77633
48.9114 26.3218 13.6531
27.8301 10.7919 4.82262
57.6548 29.1584 13.4247
17.3731 8.03643 4.34684
49.7931 22.5584 10.9621
34.3765 17.6058 8.74677
26.5674 13.1582 6.93944
35.2274 19.0371 10.47
30.0581 13.4229 6.77218
44.6527 21.8883 11.8234
57.9609 27.559 12.9992
38.6352 19.8617 10.2021
27.1276 13.2535 6.63698
44.3156 24.4378 13.5703
30.291 15.0501 8.41148
39.9278 17.9753 8.94637
48.0924 25.1744 12.5275
35.6984 21.46 13.6514
56.1848 27.987 14.1894
16.0466 7.50606 3.95508
33.3333 18.7109 10.5221
29.3859 15.9559 8.11937
26.1582 14.1558 7.48904
14.5378 8.18364 4.38613
22.2579 14.7389 10.254
58.9677 30.5563 15.167
29.8322 16.59 8.77054
10.675 7.19271 4.45508
31.3891 19.3233 10.3582
25.1717 16.0442 9.88308
28.208 16.1271 8.93405
37.271 19.969 10.4066
37.318 24.4521 16.4561
32.9154 16.1298 8.95648
65.5949 38.3835 20.7451
26.0593 13.1356 7.96517
25.734 15.1939 8.68
33.3358 19.4032 11.4136
36.1657 23.8577 14.7954
38.4585 24.5916 15.5894
30.1998 14.7775 8.05736
30.5883 19.6338 11.4709
23.3182 16.1774 10.5428
32.0489 21.1182 14.9041
37.2569 19.4936 11.1256
40.8113 25.5377 14.9664
31.9302 21.1203 14.0162
24.812 13.4114 7.60699
19.421 14.0912 10.3093
33.4078 20.5556 11.9726
30.7753 21.412 13.3703
27.5834 19.9609 15.1766
18.73 10.2518 7.31841
54.8573 31.6182 17.7896
37.3039 22.1836 12.1441
27.5733 18.007 11.3851
27.0217 19.3914 13.5741
20.5789 11.4496 7.65815
30.7765 20.9104 13.2029
20.1263 14.6211 10.5795
21.8994 15.6759 11.4776
29.1976 18.7617 11.4802
39.3701 28.6817 18.9892
20.2991 13.8066 10.2848
29.0244 20.6134 14.1253
30.9192 18.3613 10.8215
15.9936 11.3765 7.50722
19.6539 17.5046 14.3938
38.0974 26.514 17.4519
25.9392 18.7543 13.1659
14.4963 8.62178 5.00288
30.8955 25.6199 18.8189
25.0788 17.8616 13.3016
26.0625 18.8941 15.0239
27.8387 16.7996 10.2611
32.5315 26.788 21.3892
25.7193 13.9917 9.16112
33.0374 23.562 14.7103
14.2267 12.5968 11.2897
27.4755 19.3127 13.1512
21.6846 16.224 12.2723
30.3984 20.1095 12.6814
40.7987 31.6498 21.9922
34.9712 27.0412 19.4439
20.9903 17.1649 13.4222
20.154 15.0005 10.6286
22.9175 19.0233 14.896
25.6999 20.5422 15.2702
21.4137 20.1589 18.8863
30.0053 17.141 11.0559
22.4071 18.2458 15.0784
25.8159 15.9565 10.433
23.6688 21.9625 18.7529
28.2532 20.0114 14.2478
22.2587 17.4753 14.477
18.7723 13.2869 9.24408
21.2868 19.8019 17.4936
31.434 23.4209 17.0112
18.9333 16.8232 14.6497
27.9112 19.8175 14.3771
21.8278 22.172 20.3957
28.3355 20.23 15.7801
13.3507 8.08981 6.5028
38.0254 33.3799 26.0486
22.1309 17.1703 15.7531
38.293 24.8903 15.266
14.172 14.1142 13.6939
21.0749 17.9364 14.7844
19.6236 15.6464 12.9907
29.6856 26.483 20.7392
17.5705 14.6643 13.1022
15.3265 12.4972 11.5647
29.9115 25.6375 20.1277
18.0274 16.3882 14.1725
28.0786 25.2523 21.8549
25.5203 19.2141 14.036
15.088 15.6859 15.1698
30.3328 26.362 22.606
16.7317 15.3784 14.2609
15.6272 14.7939 15.1887
21.0234 17.1851 14.3652
13.4904 11.7035 11.101
16.6509 13.3557 11.8178
23.9373 19.177 15.9346
29.1932 25.4784 20.6612
18.9345 16.8894 15.0764
18.3657 16.33 14.2132
25.7865 28.2052 25.9412
23.2002 19.8648 16.9615
12.9001 16.3943 19.0477
12.9083 12.2468 15.0922
27.3848 19.403 13.8292
14.9495 16.2618 17.2891
18.3073 17.0719 18.8935
27.521 21.1237 15.9691
24.5265 27.2705 30.9335
26.8607 20.3068 15.6952
12.0318 12.0352 11.8035
12.4362 12.1266 12.5685
24.4585 24.6571 25.5467
15.1771 14.9757 18.3151
24.7453 24.0332 27.5007
30.1758 21.6522 17.8986
26.3605 21.3781 15.8019
17.9213 17.5092 15.0086
13.7984 12.1145 12.0482
20.6775 18.4452 15.6184
12.0794 10.7528 9.77241
20.2565 20.2007 20.2021
22.3564 19.5507 16.762
13.5227 12.4621 11.1268
14.3859 16.1531 16.9182
22.76 21.4809 18.6494
20.8724 21.2256 19.8103
18.6074 21.7358 24.1654
24.7366 26.4074 26.4453
14.2029 13.064 13.6412
16.2053 18.5167 20.1438
10.9413 9.07093 9.97921
19.5265 19.4221 21.0079
23.7545 20.9898 18.2119
22.4103 22.6668 21.9457
9.39561 11.3328 15.2286
22.6237 21.9935 20.5774
22.8524 24.9653 26.1431
14.7345 12.2372 10.901
12.9761 18.5458 24.173
18.9529 18.1379 20.0394
27.3602 25.4082 21.3051
11.0336 11.1988 11.7504
23.477 28.4179 29.4816
10.9762 12.2636 16.3322
14.1778 13.8665 14.5135
18.1385 21.6393 25.5585
15.4944 14.127 15.4741
15.148 14.0306 13.6308
13.4727 13.4622 14.2301
22.8214 23.9454 25.8886
22.0901 23.0271 24.5995
24.5355 29.4607 34.2589
29.525 32.1317 31.4638
19.9776 21.6662 23.6606
16.9163 20.2547 22.9426
10.0301 13.3933 19.2494
13.8853 11.6713 11.4084
19.2954 23.6484 27.0315
22.5368 24.4916 26.4269
19.7402 18.8837 18.4049
8.80292 10.3061 12.1398
10.6372 15.4925 21.5716
19.9598 20.2503 22.6014
26.5656 31.9479 38.3498
22.015 19.0287 15.2798
12.0136 14.2067 15.8159
13.9215 16.5632 18.7244
14.4288 17.8278 21.6227
21.3659 25.3039 27.9466
9.52127 8.78167 10.9464
10.0031 13.6526 20.021
28.6817 31.8927 33.169
12.0999 12.9402 16.5429
21.628 23.7668 25.28
22.1439 25.8106 28.0802
18.8976 26.151 34.0161
18.1633 19.5169 23.6279
16.2422 18.7758 23.6529
18.5671 22.9453 28.0017
16.7296 18.2369 22.0866
18.763 17.9552 17.5071
19.746 25.1313 28.2069
20.364 27.7541 31.8641
8.68445 12.9717 21.0259
13.4601 15.2818 20.0844
13.4041 17.1341 23.2111
17.4073 23.7116 32.8673
15.9412 16.9741 26.5633
35.4433 38.1763 35.5089
15.907 18.9128 19.3419
17.3819 27.9137 35.9528
13.0664 16.117 20.8738
14.3695 22.6791 33.3666
17.3107 20.0396 24.59
14.6267 17.2773 19.0152
9.39773 13.7814 17.655
6.7896 12.9442 25.7805
16.4482 15.9274 18.3317
17.5363 22.1743 27.6345
21.6798 27.8556 35.8655
21.0847 24.7045 31.4735
19.725 19.9313 17.4365
14.771 23.3577 29.2503
6.7697 9.46585 14.8764
14.5205 21.3539 32.4545
11.5518 13.6763 18.0707
15.4236 21.9452 30.3604
11.2534 12.5413 14.25
11.5181 14.8477 19.2977
14.0248 21.0672 29.9859
16.116 18.6432 18.6851
12.3549 20.4442 31.0055
13.3412 15.6244 20.2776
16.0055 21.2275 23.7885
8.8892 14.2556 20.9131
11.4552 17.0549 26.2153
11.178 12.0996 14.67
5.13409 8.05961 16.1547
16.4446 17.9154 18.5812
10.4416 16.8575 23.5528
13.1753 21.9088 36.9929
15.9296 18.0743 23.8437
13.4486 17.4583 24.3835
15.0345 19.3615 22.7296
6.41676 8.07051 14.0302
16.3524 23.3903 27.3234
10.0615 16.3056 24.8601
13.3303 16.6078 23.9787
13.8587 19.5767 26.3805
14.8036 22.8026 30.1543
8.00246 10.4495 15.6449
10.4212 19.2162 33.036
10.1003 12.1674 19.2234
11.0141 16.7585 28.8127
19.7598 26.6334 33.1848
7.92658 10.3112 18.8541
14.1383 16.3659 19.5749
9.57273 13.0082 18.9587
12.4237 17.8048 25.1442
22.4671 31.7013 36.6741
5.3296 7.89514 14.5464
12.2699 19.0286 25.3267
7.65826 10.8965 14.2394
6.47107 11.9386 21.3066
13.1051 18.5879 25.0496
9.66721 15.2673 24.787
8.77542 11.1919 16.2019
14.6049 24.0878 36.4476
17.4371 24.5723 32.2208
10.725 19.3283 32.4085
13.491 22.0948 36.4157
14.2977 17.9151 22.5112
11.5504 21.447 38.9371
15.3375 20.1945 26.8366
11.7278 16.2264 19.87
4.22348 10.1122 21.4088
10.9501 17.6857 32.4223
18.6458 25.8465 34.5284
9.12859 22.4241 60.901
60.2007 106.201 165.041
37.2414 34.2793 33.1283
16.9601 22.6117 24.2348
8.8326 14.9823 24.7857
14.5685 24.9754 37.2522
9.92497 16.0959 25.1335
6.85036 10.3156 20.7101
15.0482 24.2391 32.6855
6.19377 8.77441 15.1109
6.73955 13.453 28.9772
11.8801 13.6554 16.018
8.7618 14.3794 24.5248
13.331 22.304 33.8269
10.8655 16.7985 24.1359
5.77613 10.6802 21.9293
10.3111 15.1664 23.4796
7.14934 11.6165 20.9982
15.7486 27.4754 40.9885
12.0467 22.1637 41.3488
10.5156 14.4052 24.4497
12.6583 18.3057 22.9634
6.04163 12.5381 24.9901
8.85069 16.669 30.8955
7.94367 10.015 18.4299
11.9999 19.0069 26.4664
4.79267 9.57366 20.7951
5.87914 10.15 26.5487
14.7355 16.5173 18.463
9.86841 15.6146 24.2542
11.7112 18.9646 25.2232
9.18243 18.4966 30.6769
5.25895 7.88772 21.0351
19.9104 37.7406 58.3128
10.6533 16.6172 35.2879
17.7318 24.1294 30.4355
9.89299 18.0566 29.8313
10.5416 22.9387 48.3668
13.3271 17.9282 27.1394
9.88247 14.3476 24.3503
11.895 16.5422 23.6811
8.59579 13.2677 22.4828
15.2847 26.2083 38.0017
8.02889 16.3774 30.3726
9.63904 14.7825 22.9413
8.30986 17.3642 27.483
5.77906 11.1229 22.5704
8.64915 17.941 35.474
8.58745 11.7809 20.1324
9.13564 16.8176 33.9164
9.58544 13.252 23.5839
11.8908 20.2355 32.9914
12.7109 26.1305 45.6125
11.1107 19.7292 36.4227
10.6696 17.1917 29.2756
9.12402 12.3785 18.8361
8.95577 15.7764 23.8152
5.22766 12.4976 29.666
9.15247 14.2133 23.8407
8.17237 11.8948 20.1415
8.3809 14.8383 22.3043
5.92351 15.3843 38.9801
9.69579 14.5894 29.0299
16.7065 26.2781 33.4076
7.40976 17.6689 36.6485
11.3872 18.5794 29.8398
6.99706 11.9396 17.5836
7.17513 15.1657 28.0237
6.35929 14.0701 33.6199
11.1874 19.7643 33.6732
9.7807 17.0152 32.1201
8.07279 19.0928 43.9551
12.3133 21.3431 38.9134
9.72155 16.9169 33.5264
9.98204 15.1805 26.3628
14.132 28.1889 43.4913
5.99199 10.1748 25.079
8.53961 13.2666 22.3493
9.52641 17.8878 28.5232
7.21633 15.4236 32.7875
8.64708 14.7532 26.9327
10.142 23.8763 55.3088
12.0893 15.6483 20.8247
10.3016 23.557 46.8013
8.82537 12.22 20.7241
8.5438 18.4633 37.3224
11.6787 22.5217 42.0561
8.59373 11.7612 23.1571
7.72326 11.6967 19.6803
8.30448 13.7705 21.1323
5.54126 10.6511 18.5338
6.70039 13.7734 24.5435
8.4663 19.2008 36.7146
3.94933 7.87787 22.5976
9.03907 17.9125 34.5852
8.05828 15.3459 30.7353
5.09017 9.0715 22.9579
8.91738 11.5976 13.715
6.58994 16.7891 33.5829
8.9976 19.8472 42.8455
9.42327 15.5108 23.3125
8.15717 21.7625 44.6733
8.61402 17.2732 35.8192
7.88567 12.1495 20.7086
8.38348 16.5451 26.2177
5.69037 17.9283 39.9959
5.59655 8.34138 19.0863
6.18869 15.6115 41.9454
13.4816 21.8907 32.4958
9.36049 23.2789 52.8111
13.2539 21.9404 36.2265
7.14246 19.2676 51.053
10.7315 14.2223 23.0139
9.79472 21.1748 36.7173
7.70423 17.4449 31.7466
6.05295 15.4538 36.5835
7.61849 15.2176 27.5824
4.74125 11.1569 32.5424
7.23841 8.85498 14.2161
6.36703 12.5186 16.9609
4.87219 17.2231 39.1642
4.69077 11.5331 33.5832
6.79649 17.0275 55.3291
13.3695 18.491 33.1601
9.99031 18.7789 34.711
10.8451 23.7608 42.1526
9.1974 18.7637 36.7524
8.03983 15.7233 34.783
9.02002 15.8024 27.2378
8.03036 20.9725 45.8584
6.90707 9.70622 18.43
8.22771 22.0173 46.649
9.1772 14.9675 25.7584
5.60802 13.5722 28.1832
4.55734 11.8797 37.2858
8.87571 13.5273 24.0804
8.37115 19.6289 37.3235
8.35049 15.6873 30.283
7.04983 16.7313 33.6814
4.77725 8.06255 13.826
4.17439 15.5671 44.4986
9.55581 21.1864 45.1004
7.04615 9.01029 16.5079
6.63346 16.4389 37.0184
6.41564 12.202 24.6633
4.80965 8.41148 16.4777
4.66361 12.4054 35.7944
11.1161 22.9821 43.2765
7.47218 16.5166 40.3653
9.88865 20.8775 38.0023
7.26536 15.5428 31.2466
5.8828 14.4242 33.9333
6.81699 17.5322 46.0417
8.36807 13.3683 23.5951
7.50015 19.728 45.4002
7.23709 14.6938 36.7103
8.0127 15.4223 32.019
10.0231 23.1135 42.8143
4.99529 9.77414 26.1996
8.41461 20.0827 36.7138
3.40309 7.89759 31.1217
11.4843 25.7308 44.3641
5.76011 14.3332 39.6762
8.2011 16.8835 28.9981
4.12893 11.47 29.8561
6.79421 15.1027 29.3498
5.26111 14.002 30.7291
2.85948 5.83416 23.8237
9.10281 22.2777 41.0545
4.5034 11.7622 32.9519
5.93314 10.9747 24.3509
3.95032 7.80544 21.7034
5.63383 12.1698 25.1756
4.18 11.2448 33.7014
10.169 20.7914 38.3836
4.45262 9.84482 22.9419
3.48995 6.84804 23.1364
7.20448 20.0742 47.4604
6.17311 9.35022 19.7438
6.20101 14.5292 34.8449
7.61008 15.3004 27.754
3.95335 8.19172 17.8343
3.82166 10.125 23.2149
3.94719 11.8028 35.7549
6.48053 11.2685 27.7145
6.02079 13.0847 28.7671
5.65042 14.5889 38.4439
6.41442 11.1253 26.7945
5.50876 9.62684 22.1418
5.72711 11.905 25.6864
7.52203 19.247 40.6601
3.93144 7.5921 17.8713
4.82532 14.5224 41.0418
8.8778 18.4391 40.4124
5.74895 13.1759 35.3711
6.37767 11.9329 34.0736
11.1722 27.6339 49.2515
6.63878 16.7071 35.0679
2.63958 6.46868 25.7095
6.24463 16.3352 42.7235
7.28245 17.1093 58.0825
14.6019 28.758 46.6197
6.81279 18.2121 38.6917
4.75029 11.7478 32.738
6.65946 16.7478 43.5073
6.87611 15.9607 37.5
5.74887 12.8216 27.0995
3.66141 9.37857 27.7007
5.04319 8.51499 22.0892
6.46873 15.3845 32.0666
6.28634 17.7458 44.7502
5.88473 10.8157 17.7484
1.86168 7.23238 25.0067
6.50904 17.6381 45.9495
