# pn-170911/RbIIR-45-AMC2-1280-1959.psd
# Power spectrum* (dif=0,1,2) (really just |FT|^2)
# NOTE: only the first half! (symmetric)
# weeks: 1280-1959
# 168 clock-days, 378 excluded
# PSD: 1441
926.207 0.194098 0.0516311
41327.4 1.30935 0.175407
126417 2.45319 0.126425
27768.3 0.787687 0.139505
55273.1 3.63466 0.141213
8772.53 0.727127 0.168134
9781.96 1.29749 0.125065
6148.24 0.962239 0.1365
10513.1 2.69751 0.14517
3417.39 0.870844 0.153767
10186.3 4.43445 0.127317
2404.27 0.910549 0.139184
7126.41 4.43954 0.13571
2041.76 1.19651 0.145698
5416.24 4.78451 0.126598
1658.09 1.28818 0.146438
4333.4 4.85343 0.1478
1558.73 1.78581 0.143984
4669.07 7.33289 0.138831
1283.41 1.7485 0.14735
3875.1 6.79883 0.15883
1550.53 2.5537 0.159603
4553.42 10.2426 0.15006
1194.21 2.53729 0.140715
3009.68 7.82129 0.174469
1240.56 3.40191 0.157076
4146.05 12.7222 0.173405
973.555 2.91423 0.142982
3031.25 10.5292 0.168561
1078.64 4.19578 0.152499
2413.6 9.78881 0.173013
908.836 3.92244 0.170434
2831.07 13.0434 0.196006
978.62 4.73322 0.145321
2629.49 14.1312 0.186995
923.776 4.98073 0.189916
2992.21 18.0531 0.217687
1160.9 6.74149 0.199725
2205.09 14.7311 0.217347
852.403 5.8225 0.184755
1938.86 14.2819 0.271222
962.175 7.19846 0.185672
2291.55 18.8283 0.286583
896.705 7.57979 0.231871
1657.22 14.4418 0.269649
775.11 6.80649 0.220311
2025.82 19.5748 0.323803
879.844 8.80257 0.243563
1649.23 17.518 0.347998
797.122 8.54357 0.254218
1759.36 20.2483 0.368067
857.909 9.88916 0.261651
1693.49 22.3212 0.446276
915.366 11.9791 0.307243
1418.79 20.1353 0.409068
846.276 11.6316 0.328106
1553.63 23.3257 0.479424
908.942 14.1064 0.35556
1316.57 20.656 0.484831
814.666 13.3363 0.416162
1444.55 24.562 0.546692
708.803 12.4181 0.315227
1520.36 27.5098 0.655302
703.074 12.36 0.379234
1204.82 23.6101 0.597516
832.67 16.5327 0.484183
1176.24 24.5325 0.603197
725.642 14.7378 0.495223
1057.71 22.6855 0.626297
760.537 16.3585 0.48053
1174.16 26.6447 0.758452
652.147 14.6806 0.530728
977.172 23.1469 0.681877
647.406 16.0815 0.568826
940.445 24.4384 0.766211
572.517 14.5218 0.536853
1014.4 27.0668 0.87461
602.142 16.3837 0.598186
920.564 26.1779 0.878645
619.815 16.9585 0.597643
874.317 27.4416 0.966134
586.199 17.9433 0.740806
779.919 25.0729 0.977146
541.345 16.5369 0.689539
792.55 26.2063 0.995642
511.784 16.6038 0.67372
728.421 25.4986 1.05094
530.522 18.1867 0.825809
681.843 25.1826 0.996755
498.496 17.7565 0.88398
587.072 22.5093 1.04762
510.981 19.5046 0.912066
768.172 29.7976 1.24153
489.212 19.2508 0.918236
655.226 26.5734 1.29411
461.656 18.9983 0.934993
650.564 28.593 1.34661
462.681 20.2043 1.0362
645.43 30.0296 1.49885
498.402 22.1298 1.18002
708.709 33.7372 1.68238
476.03 22.3287 1.1571
599.196 29.9498 1.64059
421.148 20.5488 1.16026
542.35 28.1139 1.52925
426.222 21.775 1.22039
585.411 30.2573 1.69685
400.947 20.6422 1.18543
521.29 28.8628 1.77078
370.947 20.2799 1.30638
506.69 28.5428 1.7324
375.01 21.0323 1.41263
436.231 25.8829 1.62242
405.476 24.1277 1.42929
486.085 29.6313 1.93812
380.921 23.0345 1.48807
431.107 27.5917 1.86169
345.739 21.9092 1.61001
483.522 30.992 2.12366
359.221 23.3183 1.66975
546.525 34.8617 2.51107
341.349 23.3839 1.82758
418.399 29.6917 2.18201
346.011 25.0443 1.85492
426.19 29.5962 2.28846
358.141 26.4383 2.11946
394.439 29.229 2.17378
351.179 25.005 1.87416
362.61 27.7316 2.39706
291.658 22.5318 1.89021
357.471 27.4815 2.34818
332.865 26.3283 2.24406
347.239 27.4819 2.36247
272.881 21.6756 1.90707
345.367 28.8691 2.57574
318.384 26.3396 2.31921
351.359 28.7447 2.57055
299.134 24.9142 2.22436
324.397 28.8397 2.74389
281.782 24.8789 2.41653
308.96 28.0094 2.67104
270.596 23.3026 2.3188
329.453 31.2122 2.98092
314.124 28.9788 2.81821
346.234 33.6093 3.43383
263.212 25.2496 2.62553
272.373 27.1734 2.78927
308.866 30.1313 3.19413
286.266 29.2748 3.09653
292.051 28.9968 3.13901
306.231 31.3686 3.36926
259.976 26.6502 2.89158
278.408 29.1409 3.18087
250.159 26.2632 2.91401
277.143 31.1161 3.57996
243.932 26.8751 3.20104
247.542 27.1145 3.20456
245.949 26.1132 2.96791
252.644 30.3816 3.66553
199.552 23.5258 2.99897
248.026 28.6598 3.48959
230.512 27.8625 3.52546
252.498 31.2694 3.90916
240.664 29.505 3.80908
235.189 29.1006 3.8271
214.31 26.3821 3.37154
219.676 28.6248 3.65437
184.522 23.5561 3.25547
232.736 29.8569 3.98525
211.721 27.5584 3.77908
226.975 31.011 4.27014
215.774 28.7033 3.92053
226.696 30.6113 4.29759
200.827 27.0401 3.85087
208.736 30.0667 4.35735
187.877 26.7411 3.74948
196.735 27.8587 4.11102
195.404 27.3222 4.07882
190.119 28.8449 4.39574
167.389 24.728 3.71639
179.768 27.1701 4.23686
215.292 31.6569 4.84162
183.341 28.6141 4.45421
181.445 27.3931 4.28863
194.596 29.9429 4.83858
189.368 28.8788 4.60724
199.246 31.8082 5.25818
185.692 29.7269 4.97006
210.13 34.4109 5.92934
179.839 28.4184 4.72128
178.043 29.3495 5.194
148.038 25.2011 4.28358
184.47 31.1288 5.43291
189.754 31.0996 5.41752
156.89 27.3036 4.85941
161.779 28.9382 5.19535
179.469 30.6517 5.5178
162.593 28.8384 5.23939
165.847 30.9711 5.67626
164.658 29.1864 5.41132
148.366 27.8581 5.35972
171.308 30.8831 5.84477
154.856 29.9142 5.99479
174.619 32.2605 6.05942
177.124 34.5642 6.79038
153.037 28.3086 5.63512
149.804 28.5029 5.67988
143.743 28.4012 5.65453
165.728 32.3187 6.48458
143.065 28.0966 5.7658
167.173 33.6375 6.84885
158.492 32.5073 6.71714
139.131 28.7353 6.17251
148.682 30.7357 6.58787
150.87 31.2841 6.95981
136.32 28.1633 6.04236
147.173 31.6809 6.93171
146.698 31.1299 6.66236
131.878 28.5126 6.59379
116.507 25.6717 5.95461
134.099 30.5338 6.98435
139.71 31.1632 7.02873
136.165 31.388 7.51147
131.339 29.5384 6.62949
135.927 31.9831 7.65415
135.092 29.1791 6.55436
140.151 32.0371 7.58069
120.383 28.4723 6.86917
128.342 32.2337 8.10247
143.236 34.1493 8.32698
113.092 25.7498 6.30823
126.271 32.0447 8.21559
111.646 27.0869 6.84341
130.344 32.4636 8.1909
135.688 33.1381 8.36054
103.311 25.7793 6.5719
129.184 33.3893 8.5872
116.858 30.6925 7.92054
128.119 32.8928 8.77126
127.092 32.4944 8.14244
130.782 34.964 9.64633
139.261 36.9349 10.0221
127.523 34.1676 9.56463
117.169 32.4091 8.9257
111.89 29.7077 8.10188
119.079 33.1883 9.47852
127.893 35.3028 9.63641
108.506 30.8224 8.7869
110.659 31.1886 9.11622
111.732 30.9738 8.53243
112.185 32.9252 9.55802
110.612 31.9271 9.43912
109.033 32.1501 9.76291
118.483 33.5284 9.81421
113.214 32.3561 9.48473
125.781 37.4697 11.5408
111.315 34.275 10.317
117.078 35.2145 10.8179
110.044 33.7248 10.3686
104.248 31.4843 9.35085
101.02 31.8788 10.1293
113.891 35.6541 11.2115
98.948 31.643 10.3627
100.506 31.1511 9.66981
104.571 32.7564 10.5511
89.7042 28.0276 8.87744
103.227 32.9311 10.8467
99.7195 31.7542 10.518
91.4012 30.4595 10.1069
95.4829 32.0862 10.7427
110.191 37.8901 13.3838
106.003 33.2489 10.5884
93.3348 32.8331 11.7343
101.019 34.4929 11.6676
89.0659 30.058 10.224
84.837 30.2709 10.3893
94.4497 34.1657 11.8397
90.6584 32.3977 11.5017
89.7055 31.264 11.5116
103.053 36.4141 12.7009
83.5025 30.6551 11.4195
100.218 34.9696 12.3809
94.805 36.2182 13.6689
108.736 38.9007 14.5083
96.5492 34.8942 12.5952
93.0862 33.3413 12.36
86.5453 31.3918 12.062
89.4351 33.4704 12.5647
105.055 39.2694 14.6372
92.0182 35.5986 13.5551
92.0464 35.1107 13.6693
88.0593 33.7483 13.1843
90.5056 34.4627 13.3088
87.7304 35.39 14.063
76.9254 28.6029 11.1958
84.5212 33.6951 13.2197
92.434 36.1975 14.1624
70.3106 29.2765 12.1545
93.703 34.9886 13.7457
93.6695 37.8757 15.4785
71.593 29.3457 12.5911
84.3286 34.3223 14.0203
76.9932 32.6393 14.1867
77.6629 30.4807 12.2394
79.2362 34.6401 15.1563
77.5704 32.6702 14.0217
74.6605 31.4462 13.3214
79.0909 33.3745 14.6251
77.3698 33.42 14.6511
81.7229 34.7448 15.2333
79.6709 34.7893 15.7589
80.4309 33.9574 15.0194
77.13 31.4139 13.6616
82.4195 36.3816 16.2011
73.5493 33.3301 15.369
82.6015 35.2104 15.2443
74.7542 31.6999 14.2839
79.4758 35.9584 16.5902
68.689 32.6513 15.8214
79.2835 34.9244 15.3445
65.7696 29.3184 13.9475
61.2012 28.9219 13.9228
66.1818 31.2198 14.4708
81.298 37.0656 16.8657
62.614 29.3633 14.3888
72.7787 35.6801 17.5648
70.6643 31.9724 14.9356
71.9362 34.8628 16.7874
80.9248 38.5553 18.8801
74.361 35.6287 16.9723
72.3414 36.852 18.1697
75.0717 35.4556 17.1679
74.3909 36.3096 17.9914
68.1745 33.7425 17.0958
73.5209 37.4427 19.3868
82.9683 40.4702 20.5597
65.2913 32.0021 16.6132
60.9902 31.2573 17.0501
67.6487 34.3221 17.5457
62.787 29.4417 14.7519
69.7361 34.6643 18.5678
66.7845 35.4941 19.0006
75.1127 38.0646 19.9379
74.0336 37.2134 19.6038
75.1484 36.9695 19.2467
70.7949 36.7159 19.575
64.6666 35.7205 20.0164
72.6596 38.0571 20.174
55.9737 30.1782 16.785
68.5716 35.2436 18.4332
55.0074 30.4019 17.4154
62.0586 32.8326 18.0872
58.5766 32.5206 18.2208
58.3774 33.396 19.3685
65.5003 36.2052 20.1469
62.8562 32.8666 18.1777
63.4566 34.733 19.7805
60.4771 34.3868 20.0062
59.5864 35.0478 20.9002
65.5666 34.4866 19.2462
65.8929 38.441 22.4719
53.5362 30.3974 18.2441
64.2662 38.2217 22.1183
62.9208 37.8911 23.003
61.509 33.523 20.0294
55.3501 30.4858 17.2595
58.5979 36.5981 22.8784
63.5005 37.5212 23.7007
65.284 37.1816 21.7149
63.0774 39.2103 24.2887
50.689 30.9994 19.8
61.8656 35.9869 21.2369
53.3014 32.6484 20.8997
52.6675 30.9391 19.9303
51.6527 31.1637 19.371
60.1726 36.6567 23.3228
62.8504 38.3382 23.9651
53.5522 32.9967 20.8923
58.6666 37.2345 24.3936
51.9159 30.8466 19.3296
53.1878 32.7015 21.1311
48.3057 32.4246 21.7565
52.1855 32.5968 20.9816
52.3071 34.3237 24.0452
64.312 39.7176 24.8228
49.1448 33.6147 23.2176
54.8735 35.4271 23.5037
55.3376 36.2565 24.5294
55.4394 34.1653 23.5354
56.5759 35.2033 23.0297
51.3625 34.9004 24.1275
54.235 36.268 25.0872
53.9031 34.1179 23.5708
54.7814 35.942 24.4015
51.6609 35.107 24.4903
55.7613 37.9628 25.7344
46.8449 31.963 21.9895
49.9777 35.2022 25.6476
47.6948 31.4748 22.4861
54.0769 39.0386 28.345
58.9452 38.5272 26.0064
47.1938 32.0731 23.5036
51.3822 36.2803 26.1746
53.2944 37.212 26.1118
40.1014 28.9689 21.3515
46.7775 31.88 22.5804
52.2225 38.6637 27.9154
43.5014 31.1353 24.2435
50.3254 35.004 24.6809
47.8994 37.7924 29.5115
45.2335 32.4151 23.8098
45.7587 35.3013 27.3723
49.4744 36.0144 26.7263
43.2943 31.6994 25.1685
48.1516 36.4001 27.8015
44.6137 32.461 24.9643
46.3924 33.8925 26.1834
44.9131 33.6183 26.3491
45.7903 34.5057 26.0938
40.001 29.2898 22.2365
43.2131 34.246 27.018
47.313 34.9669 27.6683
43.1122 32.5919 24.835
41.3966 32.2972 25.0457
42.6182 33.3696 26.3109
40.5378 31.8885 26.8361
43.9869 34.2963 27.5001
47.524 37.7976 29.6788
41.564 34.1848 28.8286
44.1443 34.2986 28.1449
43.2837 33.9296 27.3517
43.9435 35.9206 29.3398
39.8369 31.8247 25.8449
42.056 33.9757 28.0389
41.4424 33.3914 26.6616
46.1393 38.6353 31.7215
37.6881 31.6014 27.3604
40.7252 32.8383 27.027
39.2843 34.1554 28.7895
39.0343 32.3972 26.7278
38.0853 33.4864 29.9604
48.0513 39.7357 33.3443
38.8836 33.6519 30.8963
38.4385 30.0896 24.6214
42.5267 35.0294 29.0834
31.3278 28.0719 25.9025
39.6452 33.9977 29.9725
43.6148 39.7676 36.2028
44.4589 35.9652 30.3637
39.2401 32.5634 30.022
43.0219 36.2717 31.8479
36.1479 31.0073 26.8969
35.1612 30.6518 27.7363
38.2599 32.415 28.7297
36.8481 32.0903 28.8679
39.0476 35.6594 32.8571
36.6347 31.7403 28.3612
39.7773 36.2591 32.4758
36.493 32.9697 30.0865
38.8146 35.8086 32.3157
31.3655 28.816 27.3101
36.2649 31.695 28.9866
38.3224 36.4995 34.9344
39.4089 34.6977 31.2413
36.7587 33.5924 29.8148
32.5447 31.7203 29.845
31.9453 30.4726 29.0134
38.281 35.7804 34.4528
35.0273 32.9532 30.741
32.8702 31.403 31.3146
36.2275 33.5118 31.2694
33.9258 33.1431 32.489
36.7037 36.2943 35.1979
32.1875 32.2814 33.0913
35.4297 31.6415 29.5516
34.6911 35.2269 35.8435
36.4382 33.4266 31.3838
35.5002 36.2509 35.9174
30.8378 27.9283 27.9623
33.2342 31.5043 32.817
44.0804 42.5119 39.3174
36.1299 34.3837 32.5711
35.9368 37.4094 38.7205
32.7782 32.1021 33.7229
33.4521 33.101 33.7369
32.4289 31.6096 32.8718
31.1957 30.7143 31.8335
32.8343 31.6797 33.2593
36.5075 34.7867 36.1073
34.8598 33.064 30.291
31.2885 33.8289 36.661
32.3552 29.4643 31.1642
34.3675 35.603 36.3089
30.5292 31.8056 34.2832
39.3855 39.8025 40.9652
36.8749 36.7048 37.5268
32.3727 33.5872 35.929
29.5816 31.0338 32.654
31.8866 34.5221 36.1732
32.7392 37.6437 43.0062
32.5594 33.978 36.4269
29.9194 31.0465 32.7991
31.1377 35.2863 39.9208
31.364 30.7527 32.1414
28.2473 29.9568 33.5619
31.8028 33.9243 36.0062
24.289 26.6306 31.3434
34.8417 35.7452 38.3084
31.3535 35.1316 39.3177
26.9609 27.9465 32.2678
35.9681 38.1955 41.021
32.693 36.2691 41.033
30.7363 33.5224 38.4916
31.6913 35.0033 40.8076
28.1128 28.9991 31.5112
27.0804 31.0401 35.2123
32.4318 34.7064 37.5936
29.3326 33.1033 37.5689
30.0871 33.8895 39.7313
31.505 33.8067 37.1588
33.9449 37.2653 41.9623
29.0076 31.9165 37.4493
30.2425 36.0421 43.1042
31.7204 34.1804 40.3173
35.4956 39.2653 42.9476
29.9881 34.1543 39.993
28.9975 34.2582 40.485
26.671 30.2166 37.1309
30.0931 34.7755 41.7132
26.9772 28.2999 31.3278
28.6621 35.3738 42.8479
28.6754 33.3914 40.4924
31.5051 35.9976 40.5136
27.7627 33.4471 40.5664
27.8993 32.0947 38.6394
25.3576 30.5404 40.2943
33.5538 38.8398 44.7955
27.101 32.1802 40.6766
27.665 32.5481 39.0865
27.4664 32.2068 39.274
25.659 29.8749 36.9731
25.085 30.8549 38.7797
28.4989 35.1933 41.994
21.9738 25.2532 33.6461
27.2687 32.2202 39.412
25.4158 31.2571 39.0378
26.308 31.5815 38.4081
24.6671 28.4414 37.0184
27.2374 31.173 39.2095
26.8375 31.8851 39.6778
26.8766 33.2596 41.934
28.1397 35.3143 44.9685
27.4449 34.733 46.0066
26.7731 31.334 39.5628
25.2103 32.5796 41.7493
27.1545 34.5375 46.6568
24.9424 32.7679 45.7989
27.842 32.482 39.4948
23.0889 30.7338 42.0694
26.3388 34.1212 45.2661
24.7419 28.5773 36.2221
24.4695 32.7024 45.5646
28.7062 35.8428 44.1016
26.015 36.5671 50.5698
26.5809 31.0259 40.8928
27.0524 34.7903 45.1791
24.9622 31.9039 40.6061
21.2923 27.5556 37.2482
23.1382 31.071 41.4302
25.4382 35.0668 49.6038
27.8844 37.5962 50.3283
22.4807 29.7634 41.3745
22.9266 28.396 42.8608
28.6124 35.9546 47.508
24.1949 33.0171 46.3536
24.7841 30.9792 41.4671
27.9948 37.5602 50.2197
26.1578 32.9802 44.2646
21.6186 29.3345 41.2957
24.3611 31.0222 42.3172
23.6517 30.5221 44.0676
24.6897 31.8268 43.6694
21.5856 30.4029 45.7383
24.1765 32.5833 46.5663
27.3488 33.871 45.1096
26.0784 35.2164 50.152
22.969 32.9955 46.4952
24.4906 32.6573 47.6509
22.7897 28.3416 39.1623
24.7622 32.949 46.6466
23.9393 33.6222 47.7685
23.7583 33.259 46.9219
24.729 34.5318 51.5412
23.1504 29.8944 43.9617
22.5843 31.8609 44.5565
19.7848 28.8775 43.9526
25.3165 34.8001 51.7969
23.6003 31.965 49.9692
22.5122 29.6992 40.9973
20.4256 31.1701 46.8644
23.368 31.6939 45.4967
22.9145 32.0797 48.8768
22.8236 29.8498 41.3592
20.4768 30.0963 47.3821
24.9686 31.706 42.2623
18.188 28.3968 45.5659
20.9379 30.9266 50.2236
23.0928 30.9874 43.8518
20.5143 30.236 48.6804
22.3524 29.8963 45.1101
20.9782 29.8759 42.6459
19.4046 30.0575 47.2778
20.2785 28.0943 43.5499
23.1201 34.9678 54.1269
22.8326 33.9401 48.9067
21.1473 32.8305 50.5988
22.3938 33.5711 51.8915
18.6348 29.2237 47.6934
20.1953 29.7453 46.7547
20.4878 31.7103 49.4202
21.0668 32.7456 51.033
21.7139 30.789 46.9834
18.0615 26.4363 40.849
18.5142 30.3657 51.1107
24.0048 35.6171 54.8559
23.5433 35.8168 56.6492
22.3037 32.9664 50.2154
19.0729 28.5292 45.8797
20.4909 32.1344 48.5126
21.0513 34.4678 58.607
24.0092 38.1392 58.7283
18.3994 28.7077 48.3587
20.4285 29.5818 44.2506
19.1821 31.0455 51.1304
18.4732 30.8339 55.1408
20.7977 31.5977 50.86
20.6366 31.7702 51.279
20.0353 32.2886 52.6639
21.0404 33.4432 53.682
19.0701 31.2578 53.9334
23.1875 35.4032 55.984
18.5122 28.9345 47.5736
20.8191 32.5208 49.5905
14.5213 25.5487 48.016
17.4507 28.22 46.1949
18.0408 29.3005 50.4751
20.7051 35.0394 58.4573
19.0283 30.9911 52.7473
20.4614 32.0736 52.2571
19.5337 31.8127 51.8886
16.6939 28.9374 53.2129
18.5375 31.2073 53.2777
18.0052 27.5858 47.2873
17.1065 26.4876 43.4259
18.8871 34.6184 59.9047
18.8971 30.6381 51.8754
17.2878 28.0816 50.1161
18.3603 27.2212 44.0829
16.692 29.8165 54.8199
19.4248 31.5236 52.988
17.809 29.5521 53.0986
17.709 28.874 48.6596
17.9117 29.8182 51.8607
17.7845 29.7706 49.376
16.5133 28.4547 49.4236
15.2002 26.162 46.9053
16.7343 30.712 56.4471
16.0653 27.2941 49.4963
17.0391 28.2674 49.5784
15.8048 27.7581 51.1666
17.3622 30.7401 54.6853
16.4071 28.2221 53.946
20.168 33.093 54.9851
17.649 32.3303 56.301
15.7767 27.7078 50.3435
15.6541 25.5689 47.4672
16.8439 29.9024 55.7603
18.5488 30.9346 52.4727
18.4431 32.9892 58.3079
15.5001 25.623 48.1424
16.6236 29.2964 55.0858
17.5037 29.948 49.7926
14.4775 27.1373 52.8516
17.0539 28.5204 56.4639
20.5007 34.8976 62.5695
18.4529 31.1549 53.309
15.8925 27.0792 48.0182
14.4435 26.0753 51.8769
18.8997 33.9953 60.5939
15.0284 25.8902 49.3377
15.6889 29.1851 55.2192
16.9958 30.3366 56.7724
16.8427 29.9261 54.3936
14.9365 28.5178 54.2629
15.7753 26.6744 48.3626
17.0475 30.5279 54.8608
15.2663 29.0495 58.4372
15.5227 26.6986 48.4654
15.5109 30.0262 58.8162
15.1966 26.0248 48.1313
13.5457 24.0946 45.0323
14.7163 28.8461 55.8949
16.232 30.3335 55.8238
13.7924 25.6384 52.4782
14.6094 25.3254 48.8212
15.5184 30.1228 56.6385
14.1398 26.5711 52.3701
15.6961 27.7122 48.5875
14.3228 27.6384 54.4441
14.2275 25.7565 47.0578
12.7403 24.2893 51.1741
16.9399 33.3173 63.4311
14.691 26.1108 50.5941
13.5308 27.1277 53.3122
12.6073 26.2642 54.4694
14.8179 28.4511 55.673
14.5331 28.3206 57.3524
15.42 28.4524 54.1396
12.7526 26.4945 57.4813
17.1516 30.2644 57.6282
14.6408 28.5944 56.5058
13.5569 27.3677 53.8078
13.9354 27.6653 56.855
13.9927 25.8974 52.1165
14.5654 27.2493 54.6614
15.7654 30.139 57.6402
11.8889 24.3014 54.3271
15.5285 28.7521 56.0269
13.9413 24.8972 51.1366
14.4416 29.2133 59.9376
12.9342 24.7867 53.6133
15.8772 27.8739 54.3836
13.8442 25.5596 52.016
13.2568 25.6524 56.2848
13.4318 25.1288 53.8126
15.1052 25.6929 47.0559
12.6101 26.439 54.1684
14.7769 31.2079 65.5003
14.5018 28.8208 59.2608
13.7476 26.4989 59.8367
16.2412 27.3141 52.1372
12.9924 25.7535 56.2614
15.2899 30.4037 63.3229
13.7867 25.1024 51.2188
14.558 28.8673 58.7799
13.3271 26.384 57.4376
13.0418 23.7741 48.0238
13.3933 27.3395 59.4448
14.821 29.1103 61.2237
11.8241 24.6303 54.6466
12.6995 26.5053 54.6132
12.8992 24.4231 55.4444
13.3794 25.1521 53.0573
13.46 27.0643 56.1134
13.541 30.1978 64.9345
14.2495 27.4696 59.2552
15.6308 31.7093 62.0291
11.867 24.7172 51.9056
11.379 24.2643 53.929
11.5244 22.5376 48.7537
12.1285 25.4383 56.5043
10.5206 21.7959 51.0109
11.5155 23.9727 51.925
12.5644 25.54 51.8756
11.5207 24.692 57.5876
12.7362 26.7054 56.7256
11.3259 25.9146 61.1815
12.6893 26.036 60.1676
15.7891 30.8513 61.8197
12.3242 23.4726 50.9609
12.0377 25.5122 52.2276
10.2534 22.3723 54.5259
14.4984 28.7023 58.8928
11.591 23.3418 49.6503
10.5345 24.4806 53.4243
9.9526 21.2511 50.7831
11.7123 22.8486 47.8452
11.6758 27.0836 67.8324
12.0046 24.1816 56.6941
12.6304 26.5443 60.3236
13.4386 24.3707 53.8666
12.3292 24.192 54.8311
11.9183 25.901 58.8093
12.1246 23.7516 49.6422
11.5294 25.1779 57.0038
12.1412 24.243 55.4343
11.6755 26.8618 62.9404
12.3594 24.9339 56.5436
11.7136 23.9782 55.423
11.3284 24.03 57.1306
11.9506 24.3136 53.997
12.1828 25.1561 55.5802
11.5082 23.352 51.1137
10.6814 23.6628 58.4381
11.6767 25.4558 58.7947
11.4938 24.2309 57.1652
11.6959 24.9922 59.1848
12.354 25.5867 64.5505
12.1474 25.5364 60.5615
12.3339 23.5261 49.5042
10.8392 22.2973 51.7012
10.0727 22.39 53.506
11.633 28.0846 69.1003
12.8841 25.873 59.3957
11.7117 25.9379 56.3093
10.7426 24.1981 57.8461
10.4264 24.2194 59.6697
11.1807 24.2013 59.306
10.9974 23.2012 54.9178
11.3163 25.3459 60.5295
10.5692 24.5923 59.2311
10.234 22.3658 53.4509
10.6445 26.3557 65.157
10.1811 21.8122 52.0545
10.48 24.7922 58.1566
10.0656 21.0518 52.9435
10.945 25.1207 57.9126
9.42941 21.4909 48.8336
8.98336 22.9163 56.9618
8.89278 21.5962 54.7643
10.4319 24.5384 60.186
10.0137 21.0576 53.2645
10.5338 24.7095 56.4911
9.37115 20.7091 50.269
9.37452 22.31 51.744
8.87355 21.4807 56.4477
9.57641 20.9537 51.9306
9.89877 26.4809 67.8984
10.4151 23.5019 59.5708
10.9783 22.6694 57.0154
10.2286 22.4813 51.7321
9.42588 22.6252 52.4452
