# pn-170911/RbIIF-72-RbIIF-1280-1959.psd
# Power spectrum* (dif=0,1,2) (really just |FT|^2)
# NOTE: only the first half! (symmetric)
# weeks: 1280-1959
# 1 clock-days, 0 excluded
# PSD: 1441
1128.65 0.00055408 0.0940064
378559 5.13326 0.0526198
566881 6.25091 0.049167
188056 4.16282 0.05624
9727.54 0.0788327 0.0511892
200838 18.045 0.0710171
25128.8 8.56206 0.0600034
182103 32.6824 0.0823339
19822.9 4.60609 0.0706425
4659.64 2.84584 0.0656023
13392 10.9275 0.0741628
13341.5 13.5274 0.0494408
49042.2 23.6235 0.0560828
7633.7 8.5203 0.028909
2993.63 0.880732 0.0637095
19095.4 26.2455 0.0239573
35169.9 32.738 0.142234
4836.47 4.68558 0.0234456
3656.2 2.73945 0.0785356
6043.07 6.66441 0.0257497
3838.96 7.66181 0.120325
792.32 4.68591 0.07438
8430.44 15.4635 0.0112583
10679.7 36.5466 0.167746
12728.3 47.6838 0.18981
1838.12 1.68835 0.0573442
7950.87 17.0851 0.130061
18132 59.1246 0.0553326
19391.6 88.7623 0.292878
4635.81 10.964 0.121407
1633.87 4.2033 0.12267
893.991 2.54614 0.0166606
4971.65 32.1801 0.0987758
3417.91 25.6399 0.253838
16486.7 78.2509 0.702348
4929.46 31.2302 0.0508239
235.367 4.43539 0.0886501
405.606 0.601441 0.0719538
3071.83 25.8481 0.382058
1560.14 6.77368 0.166752
4670.92 44.3518 0.214919
4603.78 34.2693 0.56071
832.259 3.94376 0.0185052
4206.48 48.8119 0.397955
1681.14 25.8876 0.261743
5136.27 35.1606 0.328902
481.516 1.48903 0.0703073
1601.66 11.2694 0.279707
2011.77 16.4406 0.377001
785.555 12.8205 0.302299
3044.81 39.7304 0.847333
1523.73 22.1673 0.123669
676.894 5.66267 0.231712
2573.15 30.9437 0.760892
1065.68 19.2738 0.159353
432.51 2.5008 0.0429715
187.782 3.60498 0.202582
541.446 6.23308 0.0133915
1348.21 21.1654 0.650808
1156.68 29.6917 0.639105
3299.01 42.1449 0.685923
80.227 1.48884 0.00631726
721.035 19.0144 0.527857
647.985 18.5468 0.628125
1526.57 23.5476 0.2274
822.708 21.6221 0.715482
11.5453 1.6851 0.0792776
53.7865 3.43885 0.0841232
629.773 7.01712 0.226162
129.681 3.16098 0.0190421
574.725 10.0814 0.0669085
226.496 1.582 0.0587899
3141.4 69.386 1.27327
350.347 7.1331 0.100667
94.2606 3.80127 0.17672
81.4977 1.79435 0.139085
926.916 21.9573 0.898407
3144.94 79.2725 2.84289
702.401 18.1985 0.931156
254.981 9.03752 0.574506
458.656 12.2721 0.736541
284.043 12.0405 0.769246
292.33 6.07835 0.0524545
290.186 15.1145 0.67971
915.585 44.6087 1.53784
872.893 18.0298 0.558951
1038.89 38.154 1.98028
122.217 1.48913 0.21328
280.128 4.91991 0.296351
634.788 18.7107 0.313326
702.298 26.7509 0.619542
72.0661 2.64167 0.0228479
984.658 29.0639 1.42874
115.438 3.05308 0.0243129
162.045 3.66171 0.0908578
635.316 20.8333 1.24468
484.757 17.9735 1.2512
186.186 8.66883 0.86891
1330.53 69.6008 2.65869
119.954 2.32336 0.04892
75.5972 6.82932 0.221215
60.4182 7.28178 0.528221
484.671 17.7749 0.642352
392.902 20.6268 1.3666
828.637 37.7891 2.59904
254.137 20.657 1.64532
67.9185 1.97715 0.411351
482.274 16.8774 0.559123
791.833 45.4779 1.85796
186.445 5.29701 0.454615
228.107 7.36008 0.331669
865.099 42.2469 2.94114
63.1409 6.00444 0.551656
158.179 7.48357 0.213739
224.25 18.1079 0.750106
125.554 11.1687 0.814806
138.786 14.799 1.08961
144.387 15.5512 1.43396
39.7439 0.253642 0.0621106
50.3509 8.78947 0.834067
299.87 14.4111 0.651656
91.8549 10.905 0.941995
151.658 17.3439 1.88014
796.484 41.0579 2.30668
607.587 34.849 2.95433
762.765 51.7837 4.87702
232.27 23.6313 1.77812
105.056 4.28772 0.578982
36.602 6.53069 0.925054
173.819 9.78425 0.32848
184.47 8.759 0.7528
208.302 15.6563 0.981769
258.684 17.548 1.94756
168.201 18.3513 1.79104
143.195 12.061 1.74271
81.6447 12.1188 1.48399
234.727 17.0205 0.944621
706.656 73.5553 6.24766
127.377 20.5662 2.27098
262.018 39.2911 4.11209
50.6163 11.9672 1.45814
477.708 27.1799 2.21986
190.518 11.1386 1.04679
9.5669 2.30302 0.512882
47.0306 1.82488 0.0747196
6.83288 2.95554 0.372881
2.62707 1.17785 0.375966
56.3251 4.33144 0.145581
57.8474 9.80919 1.66816
87.9965 4.13525 0.201938
95.3702 9.49661 0.450433
149.173 21.532 1.82872
29.4384 8.71413 1.16053
106.011 11.8234 0.869253
84.6676 16.5302 2.24372
73.5553 15.8548 1.88504
78.1869 11.8398 1.2766
220.816 27.3909 4.12316
285.985 20.2051 2.33232
98.1919 11.9934 0.98376
141.63 8.35526 0.917045
16.4469 0.421951 0.177961
225.722 33.9893 6.06915
486.348 48.2711 4.25177
23.9978 3.98206 0.984026
98.4573 6.7276 0.326066
66.1977 9.24516 0.945267
374.414 33.1195 3.8239
23.6984 1.73856 0.0817906
73.3023 4.32923 0.686145
138.001 10.3368 1.20551
119.864 11.1005 2.00301
473.74 57.5159 7.23859
68.7481 6.55778 1.27213
150.711 20.1624 3.63765
60.8982 14.6228 2.48017
83.7361 9.07386 2.12431
156.926 17.5703 1.91171
83.4008 12.6531 2.7446
62.0508 6.83569 1.78757
33.3864 5.28766 0.392844
82.0569 10.1145 0.735578
68.2618 16.2517 2.29014
182.549 24.8149 2.79749
71.5879 16.5216 2.35718
58.5478 5.19773 1.11575
225.156 48.4747 7.64558
64.5469 14.3591 3.38172
24.0749 1.04096 0.539223
69.2628 5.56363 1.19988
100.938 16.1992 1.75058
21.6329 8.08784 1.51344
163.157 16.3558 2.1755
53.9862 6.07489 1.50977
21.3877 3.98339 0.370931
5.72737 0.55548 0.302097
54.1095 5.22433 1.33746
44.9506 3.51853 0.352291
83.7208 15.2038 2.05537
9.27846 5.38526 1.5346
148.482 22.1249 3.39316
269.39 36.1421 6.45292
218.854 36.2894 7.61217
104.732 19.8812 5.14886
345.085 85.566 18.1712
138.474 16.4991 3.69693
33.6323 5.46972 0.608408
130.514 19.2751 2.1691
148.954 22.6407 4.99051
386.471 88.4242 16.0106
252.083 42.2084 7.7644
1.43979 2.53333 0.563154
25.1746 2.57021 0.343265
160.94 22.9201 4.16337
112.825 20.3682 4.78276
54.3596 8.78618 2.63662
33.1579 6.5177 1.53014
4.07748 0.953502 0.364471
0.538578 1.01696 0.116997
184.359 42.809 11.1706
0.960261 0.262613 0.511956
6.0894 4.25298 2.04633
90.2088 27.1179 5.78703
212.582 44.6358 8.78409
30.0144 3.79101 0.871167
65.698 13.2339 4.16559
6.22279 2.49224 1.97601
157.367 32.3946 5.34574
52.7489 22.7274 5.72573
89.5323 11.9812 2.55632
22.3168 10.8601 2.71769
78.6047 11.184 2.57892
89.6935 16.8855 4.989
23.7401 3.67249 1.14245
59.654 19.999 7.24182
46.1607 10.8047 1.65458
51.6338 10.4385 4.19393
114.378 22.0121 4.21353
0.460776 0.0240428 0.203164
22.4126 8.76878 1.97252
28.8711 4.56127 0.268891
232.782 61.9285 13.933
8.50076 1.10694 0.374273
69.8487 30.6494 8.58662
35.9963 4.24708 0.51716
80.6029 16.599 3.67953
111.426 23.0875 6.86178
34.4994 7.25099 2.4157
119.736 38.7429 8.90172
118.535 33.2057 9.35048
71.2282 19.8913 7.77598
30.2217 10.2103 1.79192
22.4724 9.92488 3.24994
136.164 36.7457 11.2943
5.61699 3.97658 1.53023
113.351 38.2696 9.72209
17.5501 1.86787 0.654859
56.7337 23.1891 6.34608
33.0499 14.6961 5.74628
9.42676 5.2026 1.73784
42.89 7.01837 2.12182
40.8055 19.5413 6.74742
17.9703 1.23851 0.3995
8.83974 0.710823 0.253594
20.3274 10.3051 2.72381
17.2158 2.58614 0.730936
52.9243 26.7815 8.52055
1.92452 3.03533 1.96827
61.2354 16.1623 4.59003
10.2237 11.6279 5.67368
88.9555 15.4495 3.70152
34.3748 9.58528 3.81482
7.277 0.160485 0.00636541
70.968 23.4887 9.27599
77.7832 21.6416 9.06238
7.57875 6.7084 3.88525
33.2785 11.9617 2.95316
7.57525 2.33179 2.02159
21.4389 3.69198 0.565588
60.339 11.4964 2.72157
29.3059 6.81903 3.48143
142.253 46.6299 15.2056
29.3384 16.468 6.3089
37.3216 14.5679 4.56332
22.4165 13.4639 4.71141
6.85829 1.6441 0.68858
22.4397 17.5754 10.23
176.225 50.129 13.6049
213.866 94.8795 42.7932
64.2643 11.2976 2.43921
48.9911 26.0236 9.53339
25.5591 3.33507 1.2718
62.981 14.1083 4.57905
15.058 2.36026 0.834087
46.5173 14.6482 7.19408
22.6254 7.27531 2.69704
28.7435 17.2194 7.11462
49.9699 18.2354 6.22745
27.7804 8.0311 3.91339
1.99199 1.37291 1.05352
9.0382 5.70199 4.24853
14.7004 4.25393 0.692242
11.6788 10.8399 4.75147
22.2814 6.056 3.35701
35.4459 13.2832 8.61148
70.9205 36.3679 13.365
1.47922 5.15232 4.64382
118.379 49.4893 16.7612
4.89681 8.30431 5.13888
7.39731 1.42376 1.45599
33.9198 5.27975 1.50401
15.2884 1.34597 0.277238
15.1277 1.68026 0.063833
55.4974 19.0911 7.10801
48.0053 12.0184 4.16885
32.2716 10.4239 5.09337
19.767 7.53331 4.21347
51.369 24.4484 12.3645
8.11814 8.12922 9.1099
80.3726 26.3695 6.37901
36.9285 22.3035 9.81522
22.1688 5.44632 2.74318
3.6478 2.10716 0.433667
0.282292 0.90167 1.02218
66.9338 37.3461 16.9055
40.4183 13.8147 7.80849
25.3013 10.9004 3.75477
19.8226 21.4444 12.4134
16.089 4.79461 3.46271
88.5998 24.9345 8.34923
29.1414 9.74326 4.46295
48.964 22.6501 13.7316
12.3772 5.14951 3.08902
32.3749 22.8113 10.5002
6.4708 6.32525 4.17279
89.7428 38.2302 18.5364
19.0009 17.1247 9.00646
4.27015 1.38167 2.77387
81.8145 25.3692 9.43123
47.7144 15.9915 6.38856
48.1568 22.9083 13.8818
2.42139 1.04975 2.06249
94.2274 54.4812 27.3988
3.35935 5.0733 2.47552
38.9827 34.001 22.703
28.7673 18.5946 17.8574
47.243 11.3723 2.19327
63.595 19.1926 6.38266
65.2249 33.1658 20.9085
16.2254 5.56113 2.59417
10.5532 4.72819 3.71904
0.0408359 0.233997 0.0373944
45.9103 28.2199 21.4601
11.0247 2.39351 0.215099
18.1624 13.2926 5.91747
20.5827 6.5536 3.76042
19.932 14.6131 11.2575
0.945588 0.751129 1.02561
4.32093 1.27665 2.21027
10.6568 16.935 17.3563
79.0759 28.6889 7.56099
36.6024 20.731 10.8977
1.58854 0.132452 0.0688414
4.44104 2.26349 2.64742
10.4409 7.90131 4.04412
32.3659 13.1541 8.60456
19.2852 6.61893 1.92496
59.1867 36.8652 27.684
4.7267 1.47501 1.71798
16.7414 10.7296 4.94631
22.9947 16.2643 6.71665
1.57267 1.63468 0.314751
1.52777 1.83733 0.274637
33.4054 35.5113 22.6181
4.49945 0.445004 2.03731
40.0232 18.2908 9.65102
21.5452 6.9742 3.59754
23.1847 21.5134 16.4682
54.2931 22.7786 12.0256
71.9771 57.9916 49.5849
21.6431 14.9371 22.6104
73.9336 29.9942 11.027
20.1415 9.94337 4.3338
24.5508 15.5637 4.84334
2.11823 2.20986 0.294746
13.1608 9.90318 7.27733
22.1519 16.9719 9.06887
16.0011 15.4278 8.80854
8.39527 1.77127 2.05346
20.6803 9.28682 6.34276
13.5734 8.81469 6.20531
30.8201 25.4582 13.5728
34.2153 21.9001 10.9415
17.3473 13.8349 15.0158
26.2756 15.6205 4.5455
10.7022 10.9413 4.23926
6.4986 9.92 6.83205
18.4174 18.6535 11.8032
44.1487 25.6306 9.15987
69.5737 68.2745 46.8516
6.79614 19.6427 19.0967
2.9148 14.9314 18.9612
12.2265 1.51977 3.08648
10.7088 0.419513 0.949552
43.3996 23.6871 18.6354
27.706 11.9703 3.97887
14.1298 7.16773 4.63959
1.7908 4.55538 3.56815
1.88932 0.228704 0.744069
7.22847 1.03147 0.436247
25.5368 12.427 9.2427
14.9825 8.32993 3.03214
42.9208 34.4124 27.2878
3.49929 1.87765 3.57291
41.589 44.6791 39.9905
6.88542 9.48662 11.9818
33.4916 30.9071 21.1527
3.47032 3.15425 6.28936
25.4715 10.214 3.38051
2.28892 1.41456 1.49567
5.37355 8.20467 9.84263
23.0186 8.8974 6.7911
46.8895 20.4634 11.8527
36.0308 14.5363 5.53813
47.1886 30.8748 20.2636
10.1393 8.53659 7.57901
11.8484 12.7058 11.6715
3.47501 7.1833 6.7698
27.9399 20.4059 19.0875
34.8288 21.9989 12.1515
18.4866 10.0679 7.03541
26.9219 29.7098 35.8272
14.767 6.70834 0.46599
22.7201 31.8827 28.4671
60.1283 39.8216 35.9125
36.1269 28.8353 15.4434
0.0751781 0.492027 0.147286
9.31716 18.29 18.168
16.8731 3.42257 0.456608
31.8139 25.4355 22.7785
49.5108 39.515 36.8096
4.30071 9.52419 20.3146
34.3967 24.6896 18.7548
41.9249 38.6042 26.4556
21.3607 19.7186 12.3265
9.16865 4.80156 6.52893
18.358 18.7153 9.42392
6.07601 14.7191 14.5686
7.0092 5.02324 4.08079
0.16621 5.32576 10.1212
43.4 30.0704 20.9411
11.0083 9.48931 14.3196
38.1937 33.7677 28.1744
5.91662 1.21869 0.0425142
12.8027 9.10604 4.51706
6.1924 4.93392 4.51131
17.387 25.4625 22.1713
11.6399 5.62295 3.88212
26.7012 36.8947 42.8276
0.449394 12.1733 32.0035
45.1761 18.3706 8.44181
34.2912 29.2261 20.0637
5.50353 6.46957 11.9127
31.9832 27.4667 12.7324
26.8114 33.6548 25.6186
2.63185 4.31316 4.98268
3.65081 1.09688 0.737078
39.7836 42.6248 43.1637
18.7674 27.0855 25.5053
3.83085 0.0578857 1.88631
5.45887 12.2508 18.3925
41.6715 22.0473 12.5552
1.9747 3.60277 3.31797
10.2189 7.87656 7.47822
8.70833 10.7615 19.1961
45.0179 31.1142 21.1849
1.94486 1.64428 2.11562
20.482 28.541 45.6417
31.8377 26.2774 18.4126
2.95213 0.612232 1.46721
33.9901 40.2021 29.2584
1.11426 0.366072 0.32514
2.02624 2.1842 0.966919
4.60377 7.24215 5.02647
34.9994 50.4562 43.1983
22.8724 36.9895 44.9872
3.63598 0.973415 5.29375
2.43645 1.43599 7.9299
33.9605 20.1785 14.8643
0.567309 0.218695 1.37135
0.144646 0.0417654 0.909827
5.09583 6.33801 4.61657
29.3209 48.1568 46.1908
1.58758 10.2969 24.5875
28.2704 12.8764 7.46469
2.16798 8.07189 11.8473
34.5824 40.3157 49.4858
7.32907 0.131933 4.5727
22.6493 13.5063 5.568
13.4978 10.9256 8.38336
11.2877 10.4152 13.6268
3.00361 2.69736 1.09927
7.4228 22.102 35.6671
40.778 19.3269 7.69651
32.3114 44.1153 65.221
37.1619 26.8356 12.8936
4.82432 5.22781 5.30115
0.736443 2.10101 3.07949
1.43324 1.25143 4.0802
5.3419 7.86184 6.57666
1.86968 3.18819 8.04365
32.6067 28.5129 31.5842
5.23474 4.45164 0.518408
6.39887 15.5541 18.6383
20.9847 14.2368 6.77619
37.3255 58.27 77.7443
14.9663 9.04485 4.63187
4.91504 9.85818 14.3121
8.26757 7.70787 15.3509
24.7091 20.8754 22.0071
32.8424 49.0745 63.8761
2.41496 9.71033 31.1031
29.0226 16.4751 5.03666
17.2481 14.8495 15.3847
2.58237 2.77219 0.995914
14.0414 23.4114 24.659
13.9156 18.1507 22.8696
3.79466 2.93105 4.29481
13.6032 11.0703 7.05749
2.98961 9.51027 10.582
0.169259 4.92465 10.2091
5.81542 4.78753 9.33336
25.1627 20.3468 22.464
10.7879 21.8361 27.9773
12.5447 5.23175 3.00961
5.33015 5.55972 7.25452
2.78127 3.11341 6.66839
40.2145 51.268 61.0179
2.45846 4.45958 19.1993
10.4229 15.6889 17.6153
7.45384 5.06849 12.3857
9.27039 15.4395 18.8852
4.32203 9.25122 21.5508
32.0228 34.0878 22.586
34.1287 57.8866 61.9983
0.537098 12.0746 35.727
26.1527 15.4672 8.43256
9.46086 11.201 11.6335
0.674301 10.5058 20.64
1.72412 4.71753 21.162
18.9346 4.40187 0.239351
17 15.6085 16.2582
1.70149 1.22944 10.5952
22.7457 10.4515 4.85502
15.1533 11.0757 7.19635
6.91912 4.88531 5.66488
4.6799 1.18677 0.0959844
6.93786 3.56609 2.72035
1.44853 2.56352 11.3571
43.8658 38.5219 31.0159
5.19361 8.38507 13.5174
4.50411 15.9575 35.844
27.9621 22.6159 17.4315
1.27956 3.4916 10.8245
16.3175 13.1889 6.54822
7.1975 11.5816 13.7484
1.27332 5.28579 17.0263
29.9561 33.5344 40.6788
2.38622 2.84968 0.979768
1.79674 9.31589 24.288
17.7817 14.6236 8.16865
6.16566 6.68944 6.75043
9.71914 14.8599 27.4811
30.9805 26.2381 22.4097
4.7264 6.39834 12.0757
9.25631 10.1494 10.8254
8.91806 18.3618 39.6237
10.1867 11.3688 26.0595
34.6852 58.7149 64.7402
6.8669 1.83455 3.88006
1.90988 3.05022 2.29137
3.02413 5.80707 10.9061
10.1665 11.7294 15.5386
1.947 4.68025 8.30873
11.7532 19.0864 32.6068
14.6683 5.55083 2.79476
14.5461 16.3163 32.9624
36.0646 34.529 16.4093
40.1771 89.8305 134.611
3.13903 2.9247 24.6111
7.61881 3.85713 1.96744
2.89274 2.62124 6.14532
22.5226 25.7885 32.1688
0.859457 5.37652 15.1626
1.34664 0.125458 3.85183
13.7456 16.6282 24.5263
3.2978 9.46187 25.1255
5.86112 3.96285 4.72506
4.3259 9.67241 8.8688
2.42394 7.5676 21.6691
5.9589 6.29492 4.18478
1.15752 6.04895 16.106
18.3087 28.4082 57.1204
7.31333 3.32089 18.4849
10.5043 9.14208 8.38217
17.3852 21.5163 12.5674
3.20919 13.6991 24.0385
6.15017 13.5094 37.4759
19.7274 12.6298 23.8365
18.7195 11.7582 22.7862
38.7151 38.193 21.8935
13.0926 20.1665 14.6266
11.1089 27.0089 42.1626
2.19213 1.30923 3.36998
1.25114 1.93603 8.21029
6.5611 8.6641 5.37899
4.08162 9.34581 20.0475
2.73073 4.05496 0.747422
6.70182 16.5787 29.0983
4.55853 7.76068 5.64813
0.0573284 3.22916 5.90005
0.101518 4.93187 23.6996
29.5863 26.2554 21.4904
32.9982 62.9869 106.173
2.29143 0.148204 3.99611
2.17103 10.1848 37.7442
3.22402 2.65314 26.8932
18.2575 19.7114 9.68725
4.74958 9.65281 7.91914
5.44276 9.32168 10.6978
0.683295 0.0104069 9.13793
20.9198 35.6028 27.5822
11.5538 32.3562 46.2772
12.6733 33.6159 58.2733
23.2127 42.0282 89.1898
24.6005 23.2176 8.32703
5.36385 16.233 16.2916
3.89399 26.2433 59.3424
15.2345 13.5052 9.9072
2.59185 16.959 40.8974
7.29896 4.5054 22.8991
23.9423 14.2452 2.80425
18.1522 28.0343 27.5198
6.32191 22.6559 52.3071
4.0046 1.29018 2.77255
3.26194 1.1178 4.23275
12.1783 15.6488 23.2116
0.0265938 0.928833 7.05725
0.436319 0.498624 2.28478
2.02676 1.72491 11.4072
24.1066 69.0752 123.48
33.2373 29.9121 30.7671
8.80455 21.4648 69.0108
21.5354 18.8941 5.34772
9.49949 27.6294 39.6997
14.8036 21.9189 33.753
2.01064 1.79119 9.04588
3.40339 5.27102 9.5402
4.77503 6.52208 4.18367
11.8196 37.0358 87.8458
13.6601 8.37121 16.9964
8.78703 10.5523 15.1164
4.56522 7.41285 3.75383
3.97218 17.2398 35.9209
8.62489 7.92877 12.2047
3.58324 8.56967 6.5822
2.11246 5.42516 24.5834
12.1957 18.5239 7.43477
7.70278 36.558 79.5306
17.2252 19.0363 14.0614
2.26592 7.90115 13.0835
0.0850263 6.04072 20.1471
3.82909 1.09919 0.374773
0.152229 1.06281 4.70168
4.91239 30.9034 103.782
64.125 84.5759 119.71
34.1755 80.5171 141.083
23.7314 25.8617 42.68
6.51599 11.4478 13.6343
5.3374 26.903 64.8796
18.5409 19.4 18.2039
7.25038 34.3674 67.9857
4.2417 2.66623 35.0414
29.4091 31.7253 44.6813
17.4429 19.4237 13.585
6.95553 18.1003 46.6321
5.72445 7.06795 5.52095
0.482882 3.15747 4.08679
2.18788 1.71459 3.64042
0.605462 2.13124 15.7763
7.18263 18.4194 24.8506
9.314 13.8376 24.5464
0.580974 2.29525 8.52924
5.76774 9.99271 18.6368
3.79595 8.55366 15.059
7.59446 16.1961 44.8953
13.087 26.6635 29.6585
5.87688 9.21005 13.2186
1.23583 2.69948 7.31345
5.77608 11.688 15.2168
1.59574 7.2557 7.77566
1.2444 13.8028 39.6165
12.249 22.2962 31.8758
6.51448 6.33708 16.4206
3.90033 7.59744 1.81181
2.86759 15.6756 23.0466
6.35064 22.2351 41.9656
3.11302 0.599386 0.0935537
1.34832 12.8134 32.6614
14.3399 38.6172 73.1554
5.55874 4.91393 12.2488
3.04612 9.0644 32.1388
10.7772 13.1378 18.2443
2.41487 19.7553 58.4912
11.6075 3.68354 0.426056
8.77954 19.5638 28.9299
0.102055 5.88831 27.3568
6.82489 1.28287 0.691206
3.60303 3.70626 6.05097
6.17432 15.2326 44.2664
9.15317 15.4336 30.4071
12.2806 18.9583 23.3267
0.923577 10.1097 43.446
8.23319 14.8617 18.5287
3.49719 30.3267 120.556
32.5514 26.3256 17.9792
2.40378 12.6293 35.8955
9.82704 4.08823 5.64482
5.60909 2.12335 1.06459
9.45329 12.9051 25.4679
10.7856 21.7171 25.847
2.39792 8.83151 33.083
2.92314 12.9255 65.1472
37.2022 61.6158 66.9875
4.01585 7.63893 17.4912
10.5205 26.755 60.4841
0.471471 6.30752 60.0145
23.9251 26.1395 16.055
2.19972 6.36413 18.6058
3.17579 7.90615 18.6905
4.07698 23.8941 65.7419
14.0617 9.33296 7.65364
3.86718 5.3605 8.69013
3.24535 17.9758 83.7623
14.4531 20.3139 14.5303
2.3595 7.07664 40.3963
7.98318 4.94143 5.51678
18.0445 61.1905 102.428
7.94606 6.71064 18.274
3.06499 6.15596 4.68562
3.78672 50.1383 196.052
45.5189 35.2749 23.7612
12.2117 17.0788 14.858
4.91672 9.67361 28.1828
15.6582 28.2474 47.0449
4.21056 13.4383 48.6049
8.99138 17.802 12.6822
3.33473 15.9462 42.5054
9.77844 11.8548 22.4349
3.40163 13.0015 39.0026
5.544 11.5947 19.6013
7.5994 16.2768 9.56494
2.88574 31.2405 76.4745
5.55333 16.5849 97.0208
24.8006 17.2793 1.42049
7.50086 12.4963 10.4775
1.40775 14.626 41.8943
6.62653 1.04686 2.11304
4.64326 3.08568 6.05606
9.96861 20.6471 59.5935
14.9206 26.2453 21.214
3.79529 14.3947 35.3103
1.88865 0.063518 2.56239
0.785758 0.64527 14.4667
12.2079 33.8085 57.3705
3.65865 24.5491 166.459
46.1617 60.4335 22.2611
14.5083 64.3157 121.992
9.16099 29.6847 119.826
15.5396 7.65457 0.613105
2.83949 4.82501 5.5256
0.970784 1.93732 16.7672
7.80863 9.87581 7.41316
1.31066 5.9313 26.454
11.8963 18.0048 32.1216
1.14248 0.186296 13.0595
8.2 12.3857 13.2388
1.35909 10.929 32.2693
8.90398 13.0105 31.4447
6.88368 33.5296 89.3735
11.3612 6.10066 14.8965
16.6045 29.3976 48.3436
2.64907 6.14445 4.60739
0.575819 4.57112 16.9955
7.12584 12.0795 30.9008
2.76322 5.58071 7.82858
3.01459 7.73303 33.1598
7.29119 11.6469 8.45709
2.71692 3.66074 1.75974
7.367 22.0514 28.3252
3.19697 35.5686 121.36
3.36054 7.00721 108.621
21.6529 13.6601 38.5151
17.9524 25.5099 5.02343
11.4662 41.784 75.5656
15.245 29.5087 66.7683
10.4689 40.5113 74.2303
5.26185 34.2601 180.069
39.9418 36.6161 25.4533
24.2297 54.2106 87.2288
8.84652 23.2518 27.7132
3.78206 21.4493 79.2872
10.8142 28.8009 89.2346
23.4394 61.2359 136.898
5.92233 4.73777 11.6596
1.80963 0.875908 7.02698
2.9546 5.90126 0.658371
6.90757 37.9239 66.9733
1.60287 3.39602 30.3947
8.717 8.91264 16.2019
1.0889 2.09415 0.864629
0.242704 0.720642 8.50486
4.1008 26.9198 68.6556
