# pn-170911/RbIIR-54-USNO-1280-1959.psd
# Power spectrum* (dif=0,1,2) (really just |FT|^2)
# NOTE: only the first half! (symmetric)
# weeks: 1280-1959
# 11 clock-days, 0 excluded
# PSD: 1441
2821.97 0.0746531 0.0298725
30836.8 0.346057 0.0218597
229112 4.99855 0.0232123
17548.6 0.575837 0.022928
34328.2 1.86644 0.0195776
5462.91 0.462435 0.0232761
3779.99 0.341328 0.0208581
2303.57 0.471059 0.0223404
3771.54 0.752812 0.0239583
1729.65 0.537508 0.0219571
1029.95 0.382382 0.0252034
1372.97 0.626419 0.0190546
914.156 0.553425 0.0219334
1144.3 0.831669 0.0242504
929.361 0.865268 0.0234994
527.599 0.514171 0.025054
477.188 0.639481 0.0253561
775.141 0.980169 0.0223997
853.006 1.13372 0.0258215
580.295 0.890019 0.0224489
369.173 0.586319 0.0254888
828.075 1.25316 0.0226495
302.545 0.579038 0.0214202
341.145 0.985173 0.0261487
383.041 1.04528 0.0235834
360.799 0.738499 0.0251233
236.307 0.780989 0.0230072
341.494 0.830044 0.0299585
287.297 0.970872 0.0288968
429.469 1.7265 0.0308523
317.053 1.2952 0.0268872
699.971 2.34383 0.0330667
570.775 2.47211 0.0432697
359.608 1.71873 0.0358906
269.04 1.21667 0.0391834
410.517 2.33933 0.0381377
393.045 1.99832 0.0342387
245.003 1.82889 0.0303368
459.13 2.5356 0.054975
362.284 2.65492 0.0474041
320.376 2.08013 0.0490448
385.187 2.9429 0.0435443
267.301 2.64302 0.0469004
397.048 3.254 0.0543412
512.473 4.90644 0.0799085
433.589 3.736 0.0663441
302.542 2.9095 0.0613929
357.929 3.7997 0.0532518
320.768 3.39146 0.0535666
321.237 3.46335 0.0667943
299.795 3.53105 0.0690256
306.654 3.65068 0.0873064
428.084 5.9591 0.119022
438.129 5.86832 0.102656
247.087 3.27726 0.0411836
310.506 4.69248 0.0783251
446.883 5.95302 0.125509
339.191 5.92923 0.133919
743.365 11.2724 0.237199
266.811 3.41089 0.0796744
214.435 3.4573 0.0444123
277.997 4.80894 0.136245
418.958 6.95234 0.125992
346.625 6.52318 0.16274
227.556 3.87705 0.131605
268.884 5.25067 0.117082
215.885 4.31304 0.13446
239.049 4.89132 0.11601
186.938 4.52247 0.127758
262.375 5.13936 0.174717
299.206 7.13213 0.191417
357.763 9.09895 0.245161
240.159 6.47254 0.189265
233.929 5.16008 0.173104
363.881 8.83033 0.258261
464.005 12.3929 0.323526
266.372 6.63404 0.247254
200.112 5.47826 0.182776
305.591 9.37416 0.297569
352.467 11.2368 0.390181
197.034 5.10351 0.207623
182.664 5.51994 0.200376
308.287 8.71884 0.305344
236.824 7.78204 0.253317
306.091 10.1234 0.31787
308.189 11.2599 0.420797
259.918 8.93024 0.308764
331.934 11.8221 0.442887
458.824 16.8565 0.644993
155.251 5.90013 0.282185
223.726 8.62749 0.35521
217.17 8.73269 0.413836
348.678 14.7263 0.643847
224.145 10.0363 0.507533
156.535 6.51235 0.242579
295.556 12.6437 0.578188
366.432 15.5819 0.62222
348.322 16.1167 0.673152
138.146 6.55646 0.318529
143.061 5.50875 0.291555
184.086 7.96898 0.319017
346.207 16.1587 0.776126
246.232 11.4209 0.561108
98.1609 5.09969 0.291396
80.7677 4.477 0.239983
375.775 18.5841 0.928616
148.767 9.54901 0.561378
191.102 10.0319 0.576939
139.906 7.54084 0.454935
149.111 7.97352 0.540705
153.091 9.73693 0.629238
348.034 19.868 1.07049
212.609 12.9681 0.798176
213.846 13.3579 0.802953
330.197 20.0661 1.17576
254.211 15.9392 1.01647
170.864 10.9749 0.659053
150.577 9.62534 0.664116
320.222 20.6241 1.26318
274.261 16.6329 1.07497
169.3 12.7189 0.860953
139.939 9.25935 0.607858
170.34 12.204 0.834617
274.777 21.2761 1.62664
175.271 11.8453 0.828251
191.025 12.9286 0.910172
209.445 15.5964 1.24056
279.476 22.909 1.74602
155.77 11.0834 0.899634
193.135 14.0978 1.04844
222.386 18.2866 1.62783
175.971 12.565 0.83329
222.168 19.5743 1.56239
164.87 13.0123 1.01763
278.929 24.3808 2.12442
171.597 15.4002 1.42074
238.919 20.3964 1.75814
99.1875 8.39958 0.739761
81.3234 8.11357 0.777502
208.263 18.3829 1.62183
259.754 24.1397 2.3959
131.896 13.2074 1.25629
146.509 13.3157 1.2736
151.891 14.7219 1.54134
165.905 17.0603 1.65548
223.366 22.4568 2.18826
197.884 20.0921 1.85924
184.04 19.5022 2.07466
143.834 13.8155 1.44581
210.959 22.2941 2.1592
130.821 14.8243 1.70096
191.313 21.6094 2.28488
100.235 11.8469 1.29911
129.471 13.1632 1.46036
162.353 17.4306 1.84715
224.228 26.9967 3.05497
225.024 28.3714 3.27239
219.333 23.3131 2.64062
229.74 28.2784 3.51091
105.73 14.7486 2.04731
115.852 12.8623 1.59719
208.783 26.057 3.35772
247.022 27.6586 3.32816
114.386 13.7883 1.64599
256.146 30.915 3.64248
188.046 24.9791 3.13226
115.616 15.7886 2.15469
214.556 29.064 3.8595
92.1529 12.0778 1.67526
100.642 14.601 2.162
151.346 18.4438 2.62475
186.362 25.2084 3.62445
144.022 19.561 2.68977
261.969 33.9817 4.71177
168.385 20.4193 2.67668
123.109 19.6622 2.90319
77.1238 12.7926 2.0127
122.377 17.8043 2.55598
146.499 20.6219 3.1438
195.374 26.5516 3.56669
147.312 24.435 3.92288
178.593 25.6926 3.77624
60.1687 8.59534 1.54854
247.17 39.4318 6.45981
162.856 26.1264 4.1922
160.867 24.5342 4.01635
191.205 31.0012 4.9715
110.571 19.7232 3.45049
97.2947 16.5568 2.62817
139.014 23.9553 4.42125
91.8341 17.1334 3.17186
144.322 21.7509 3.39167
145.852 26.5536 4.49503
189.096 34.4562 6.17583
78.6554 11.6177 1.93452
89.1878 17.7057 3.25663
141.661 26.3445 4.88072
157.152 25.4858 4.28968
84.6559 17.0071 3.39375
59.786 11.1994 2.37259
168.394 29.3375 5.36785
51.9318 10.3708 2.16445
226.149 40.1479 7.23956
154.118 31.6137 5.9767
172.551 34.4473 6.70598
124.068 25.2364 5.10393
140.094 27.4508 5.12426
81.8687 17.5234 3.81104
159.455 32.8278 6.65683
148.565 28.6199 5.65294
171.983 39.8861 8.52368
128.19 25.0264 5.21812
55.825 10.5723 2.19676
114.618 24.2645 5.16651
74.3135 15.1111 3.25643
78.2006 15.9706 3.30289
52.4375 11.6244 2.74786
83.9143 16.6173 3.47194
82.5599 17.4038 3.76577
83.167 20.1303 5.23679
125.466 26.152 5.54674
142.463 32.5122 7.56916
96.166 21.4767 4.62132
153.291 36.4072 8.69777
101.307 22.418 5.29895
87.6429 19.6535 4.66247
190.919 40.9682 8.95261
95.6515 24.7977 6.65348
148.27 34.6534 7.7776
101.144 25.9684 6.53568
162.735 40.8247 10.2662
108.499 25.0668 5.84735
126.264 31.8191 7.83229
90.4581 22.7706 5.71869
63.643 18.0917 5.04041
117.357 26.0347 6.13497
81.2075 19.7767 5.209
75.779 19.7715 5.42482
87.1817 20.6889 5.50294
114.908 27.4192 6.96718
111.972 30.8208 8.40026
79.1333 21.7146 5.97379
115.218 34.2507 10.3123
131.081 34.7196 9.54312
72.0466 18.636 4.93793
80.7465 23.0393 6.88711
118.308 31.7285 8.94244
128.224 31.8382 7.83364
87.5716 24.1623 6.99002
134.055 38.1135 10.4321
112.01 32.0662 9.14547
55.4625 17.2287 5.43876
160.356 50.1568 15.6593
200.667 57.9931 16.7555
87.6771 22.9022 6.34261
51.2185 14.9637 4.4011
81.0826 26.4506 7.85575
43.3306 14.4462 5.19717
112.843 29.2595 7.51776
101.525 32.9956 10.5423
81.3641 27.8009 8.72603
136.288 44.183 14.1633
54.65 19.1355 7.20194
103.854 34.1613 10.2486
63.6248 21.296 6.96094
71.0854 22.3353 6.96224
48.2149 16.9106 5.94755
74.0119 25.2263 9.1223
109.921 35.5854 10.8996
94.9516 33.5126 11.6611
71.728 22.8174 7.33006
91.6712 33.992 11.7493
69.1212 25.9079 9.55011
83.2542 23.6655 7.75184
87.0217 28.8146 9.73209
40.5535 15.4284 5.56263
67.6736 27.2266 10.379
75.039 23.5603 8.38644
100.263 29.4845 9.179
89.6456 31.6675 11.102
60.068 21.4315 7.78979
101.19 34.8749 11.6061
43.8844 16.0368 5.96987
69.2086 25.1788 9.2067
72.418 26.8485 10.206
63.9143 26.5854 10.8478
69.3107 27.2172 10.3224
44.5562 18.0539 7.67427
108.609 39.8628 13.9604
57.4219 23.4657 10.1586
114.735 41.0404 14.1686
60.582 22.9274 8.68354
61.717 30.5405 14.5852
106.189 37.421 14.4472
87.4251 32.668 12.8006
118.41 43.3661 16.6454
48.6665 21.2402 9.52807
57.7978 23.3255 9.42157
71.1595 29.2152 11.5828
69.3726 31.12 13.8284
53.8305 25.3273 12.6498
52.2991 17.4526 7.1155
152.02 61.108 23.5916
56.4185 24.1934 10.95
51.6616 21.411 9.07749
54.1875 22.8164 9.51163
97.9855 39.2247 16.2636
62.1591 27.3266 12.1799
73.9785 29.0393 11.1087
56.9072 26.4436 11.7626
44.8936 20.1776 9.37568
64.7614 30.1645 13.6447
81.2544 32.0922 12.6301
65.4341 27.1774 10.9044
36.4692 19.6747 10.0878
46.5327 20.8685 9.59098
51.4445 24.0462 10.7944
32.9475 18.2335 10.4339
49.6451 19.1549 8.77548
53.0257 22.1864 9.56481
61.9459 27.7632 11.6104
52.1216 26.3161 13.3686
59.6959 25.1955 11.5467
109.643 56.4087 28.0377
33.1592 15.0997 7.51508
68.5762 33.5089 15.0208
67.2628 32.3086 15.3764
38.5674 19.7139 11.1909
54.2218 24.837 11.2561
49.9085 26.1455 12.5939
21.1012 11.5465 7.23457
48.5812 22.263 9.99737
64.9022 35.3485 17.2739
49.3826 26.0099 13.6824
43.9161 27.4785 17.5983
75.0286 32.0615 15.139
39.7046 18.5095 10.2204
54.5669 27.5927 13.986
49.6598 24.1079 12.1981
64.5097 33.6809 15.7636
46.2998 27.7235 16.2685
43.868 25.9177 15.5953
80.5555 40.7539 21.012
41.7149 17.0112 7.33531
49.5464 31.4402 18.4277
60.8285 28.6413 12.5421
26.2248 17.1066 10.4591
39.2886 25.8464 17.1454
76.2358 38.1528 18.1799
72.6761 41.6342 22.3743
61.6512 31.6688 17.3958
34.1346 19.3753 11.5051
32.3474 15.4093 7.5291
39.8917 28.2997 17.9682
47.483 22.467 11.1751
58.0834 32.3337 16.8291
33.2514 23.4375 15.3596
39.144 23.5783 15.8577
57.5821 27.5017 12.2874
40.8559 24.5908 15.4771
46.6272 26.2834 13.6956
16.6304 14.3823 12.433
82.6798 44.4745 24.5648
38.4323 19.6843 11.0556
53.5497 31.8195 18.396
47.7342 35.1483 23.5506
51.056 26.3714 14.342
28.7212 14.6153 8.31373
41.3992 23.5112 12.791
42.7619 31.4827 22.5574
51.6622 28.2403 17.1989
57.252 34.3241 19.8207
36.0558 23.3149 14.932
42.963 28.1305 18.1013
19.176 10.8643 8.86437
36.9291 18.737 10.5893
33.9134 21.7225 12.9563
38.51 21.9176 12.9416
68.8375 49.9885 32.7644
49.7229 29.2564 18.4702
35.7487 22.5041 16.8942
79.0022 47.5479 29.9625
55.1762 35.7346 23.1281
58.3962 41.5618 27.9058
37.8207 23.7223 17.7431
53.3414 34.0403 23.4994
59.8598 38.9509 23.9249
37.1125 22.3476 13.3351
31.7704 20.6865 11.6446
33.0102 29.5778 23.6931
35.3048 23.9301 17.693
36.3023 26.031 19.0711
71.0159 44.8008 27.0795
53.6662 38.7355 28.0783
21.6641 15.614 11.4745
30.5942 22.0009 15.8544
20.2771 11.7267 7.68983
33.9442 27.5797 21.1205
29.7696 18.6484 13.3679
61.7063 44.6487 29.67
30.5845 22.9726 16.1773
43.4218 34.2296 25.6514
43.724 27.3195 18.1516
47.9868 30.8478 19.9472
29.2172 20.8742 15.1718
43.5312 32.3507 21.7568
37.4456 33.1136 27.2864
31.8746 19.2127 13.2564
54.8853 40.6731 30.1416
31.9984 24.0438 19.8727
47.5014 35.3379 27.0351
55.9292 44.2219 37.7487
52.8817 32.1574 21.4178
45.6879 35.0396 27.2892
36.0497 26.4528 21.312
45.9879 30.4799 22.199
35.0927 23.7823 16.6378
47.9309 42.1139 34.4878
39.9751 27.9715 22.4469
28.4987 19.3277 14.9802
32.4541 22.5816 15.0273
45.6316 36.9555 28.735
26.2105 18.8287 15.5024
34.7525 22.7249 14.1024
46.23 42.0693 34.9856
26.6936 21.4995 16.5165
34.0894 31.4313 26.2486
33.4247 27.2011 23.4846
20.3352 15.081 13.0325
51.8966 42.8896 36.7198
31.1279 25.3742 22.8088
58.0077 38.397 23.9492
18.5016 16.9609 13.3768
28.378 31.2959 28.9596
25.4905 19.4514 16.8985
26.4649 21.6888 19.0173
23.6672 19.5501 16.482
24.3529 21.1856 20.6317
45.4961 37.1782 30.1204
22.3879 17.0169 14.6907
42.5084 33.6367 25.7613
31.3112 29.7622 28.6437
31.0924 25.9126 18.2957
19.3334 26.6272 30.2345
33.0032 25.4967 21.7075
15.2768 14.9729 17.0981
50.4786 38.5168 27.3535
11.774 11.1336 13.5035
38.177 31.5935 24.1317
18.1558 18.5464 20.5189
27.7144 21.612 18.1218
25.2579 23.8045 22.8927
41.7755 39.586 37.5561
31.2466 28.0268 28.0725
41.8598 27.7233 17.2944
24.8653 21.8089 19.2722
49.9683 46.5118 39.5064
34.7688 34.7566 33.3693
29.0009 29.9172 30.2987
25.6123 21.8524 20.6028
23.8662 21.5527 18.579
24.7596 24.7717 22.0569
25.7612 21.5552 17.5546
23.0536 21.0701 18.5394
26.6756 29.3249 28.1264
33.3977 31.3573 29.0701
15.3185 14.3466 14.4207
24.1053 26.8416 29.9499
49.4712 43.9123 40.7493
41.5453 36.3689 30.8029
32.6863 35.103 34.863
36.5308 40.2535 43.1434
29.6575 20.7961 14.6563
24.1786 25.7537 24.5692
14.5852 15.7375 16.2566
16.7331 18.4634 20.544
30.3438 29.2253 28.9422
23.6046 24.7832 25.9528
28.6368 29.6875 29.7616
31.8462 30.9177 31.3072
61.3902 62.923 53.0887
20.606 33.5358 49.1207
52.8284 42.5824 34.6701
31.3799 32.8398 34.1319
34.3965 34.1307 31.6062
29.5841 27.9291 23.7825
23.2081 27.6906 28.6614
16.3422 18.9198 22.7396
38.6065 44.6198 49.3758
16.6377 12.1613 15.6682
28.7443 27.5484 25.6841
24.2535 21.8534 19.0557
14.8249 18.6414 22.3939
29.9457 27.8078 27.1755
19.148 16.7773 16.719
25.8197 28.8159 27.5718
17.843 21.2748 22.5669
12.3966 17.4206 22.2365
22.9233 24.2053 27.2081
12.7758 13.141 16.0673
9.92969 15.3989 25.0995
29.5639 22.1473 17.3589
19.5697 26.4608 36.31
23.9047 20.8624 22.3052
26.2646 23.9758 21.7537
19.2704 20.1505 17.8031
11.1013 12.2036 13.4011
22.9599 33.8185 44.039
24.3429 20.0996 19.6452
27.7841 35.709 43.1855
23.1587 25.9468 29.7409
28.7247 25.1137 20.8571
14.7662 19.9753 27.3192
20.1212 19.4406 21.7273
20.6634 25.2006 30.6113
27.6304 30.0422 32.2352
23.2079 23.6157 25.9752
27.972 32.2238 33.4047
16.1203 21.4156 31.828
37.597 48.4005 56.1716
38.3454 39.0084 38.9459
23.2195 25.4877 28.2688
17.2219 18.4198 22.5238
23.6245 28.7482 29.1366
23.6151 25.4981 26.0931
21.9514 30.145 34.8483
14.2247 20.1922 28.3957
19.5075 22.0469 26.2347
25.6219 33.7229 43.5624
20.9991 23.8042 26.7164
20.1663 22.1363 25.9643
8.29857 8.54065 14.4077
24.3945 26.1862 30.1517
21.7109 27.5408 33.4213
15.3936 21.3466 32.3832
23.9232 25.1994 30.0273
30.1695 35.1093 40.5886
15.4385 14.9483 17.8445
21.3768 25.0683 30.9137
23.0798 26.0782 29.6788
20.9173 26.7201 33.5184
26.6341 34.8863 47.8977
28.0443 27.7583 24.3433
20.7528 39.9234 62.5828
34.9864 34.9441 36.1082
22.2798 25.7799 32.2913
21.4985 24.4191 27.2751
18.5236 24.1178 28.5395
19.789 29.5702 40.5304
22.0742 19.5116 18.7286
19.8863 25.0152 28.2745
22.6071 37.878 52.5113
18.458 25.6526 43.8276
32.7769 32.0964 27.9635
12.2394 20.0272 31.792
20.7122 27.0856 35.0885
12.7921 16.444 22.94
18.5944 26.9589 40.3518
22.7853 25.996 32.563
20.2341 27.0031 39.9945
20.0202 18.5619 16.2792
13.4499 19.1397 26.2235
16.7509 15.7236 16.179
18.1681 26.5683 33.418
13.6715 20.4409 34.1099
28.0048 39.6864 53.2852
33.2223 45.4903 59.2964
25.3229 30.7289 35.4415
15.0842 26.098 42.1597
22.3697 31.3646 47.2325
18.8151 23.2706 33.2074
21.9794 29.9785 40.0194
30.9872 41.2668 54.0271
19.6945 26.7678 37.203
14.4564 14.2462 17.5746
13.9033 18.199 29.6952
31.8114 42.3063 49.5127
17.584 28.2461 43.2683
12.0982 15.9882 28.5968
23.262 29.6409 39.2203
16.726 25.6652 41.5794
27.6931 34.5123 44.6356
20.306 25.2378 32.2617
19.792 25.9808 34.1186
23.1566 34.8899 45.0117
17.9126 24.3202 27.0515
7.80018 18.1524 34.3171
13.9613 15.0513 22.8696
20.6414 28.2536 31.817
18.1585 34.3492 55.2336
18.4597 18.0838 18.6953
11.9238 22.057 30.9402
13.5597 25.6118 48.1614
25.1693 33.1721 44.7025
12.2652 15.1811 22.0094
17.2724 27.7392 38.1653
14.1895 24.8308 44.2934
11.1571 10.9686 18.421
17.7339 23.7897 29.4585
12.158 20.4635 32.1355
11.6826 15.3484 23.9745
20.3616 26.3013 26.414
9.56192 22.9375 43.1425
13.17 17.8844 27.7279
13.3525 16.396 25.2199
15.8664 30.2181 52.2519
16.2055 19.8656 29.8339
17.8454 21.6972 27.7922
18.7883 29.9502 39.4135
18.136 30.8312 48.8147
15.1899 22.4061 44.5925
25.0701 31.4265 31.4081
13.0897 25.518 39.4332
11.4013 21.9477 42.9112
25.3636 43.8038 68.4804
9.19432 12.6719 37.8637
21.924 22.2919 27.8966
22.4789 32.6482 45.9533
20.9442 30.8179 46.9392
26.5878 36.6254 39.169
12.0938 24.5141 45.2283
17.7829 28.9392 43.7268
7.48716 13.5803 32.8178
21.5724 28.3352 36.9495
11.4961 20.164 38.2184
19.8606 27.9795 35.4463
20.8286 41.5736 71.8693
17.882 28.5197 52.0436
15.7339 20.1462 32.2448
15.3216 18.7824 26.746
14.9204 26.219 47.336
19.5539 27.7363 41.4213
18.6243 30.4635 45.0782
18.1512 28.9191 47.8543
21.518 37.2633 59.4742
16.2299 27.8976 57.9948
25.7121 36.1219 48.3907
14.2781 25.99 46.3207
11.9694 14.4073 24.2171
14.6613 24.382 41.6311
13.3134 18.778 23.9207
10.0489 20.5488 33.2146
9.71608 19.9619 35.5167
10.341 22.4194 50.1942
17.7993 29.1575 55.8201
17.4567 22.2994 33.17
21.7 31.9962 39.4894
7.30046 15.3925 36.813
25.2392 37.9319 47.0128
14.4667 33.0039 65.8451
14.2839 13.9452 18.9998
13.8913 26.3543 38.1675
6.83886 14.5067 30.047
15.367 24.6033 34.4258
6.49644 16.1695 40.6855
15.7245 18.5622 30.0099
18.4527 33.1658 50.6472
12.4843 22.6761 41.4408
11.4888 21.272 40.2934
11.4669 16.741 23.617
8.41149 21.252 51.2343
19.1898 29.6818 51.3825
15.6585 25.9445 53.0559
21.4202 35.0145 57.5258
19.032 29.3668 46.4688
16.202 26.9459 46.9947
16.2945 22.0911 34.2072
11.3894 19.3081 36.7244
17.7716 28.1157 37.6601
11.8639 22.6836 32.7607
9.32652 17.7845 33.0609
11.4905 23.6108 52.316
25.3323 45.1047 66.0793
9.20865 17.409 41.3741
12.226 19.7362 33.5069
8.53084 14.4963 29.6915
15.6034 26.997 33.1091
6.4253 19.4903 46.396
16.9814 27.7275 40.8364
9.08292 21.5179 49.2322
11.1456 22.7507 49.8419
10.7064 12.2984 22.859
10.6236 17.5156 31.4682
16.7843 36.0591 65.6762
17.195 29.0032 50.1525
10.1791 17.6927 36.9497
16.2077 36.7913 66.3037
10.7728 19.0254 47.3575
16.4347 20.6377 25.1291
10.4712 24.4671 53.0383
14.0417 22.2887 38.471
13.4147 23.1194 38.8583
13.2906 21.5394 36.8799
11.6445 26.0598 54.0474
10.5229 16.0453 32.8497
15.604 32.4853 65.934
14.8711 22.3721 39.8934
14.2426 18.9017 28.3526
12.8423 27.9094 48.5576
8.8696 13.549 24.3971
9.50085 18.6801 28.375
10.5334 26.0571 49.0985
7.17954 14.5473 33.1968
8.06862 16.4276 35.1949
8.57286 16.7581 37.6204
15.57 28.0249 50.0574
12.7051 26.9736 60.1531
17.5506 30.2521 45.0362
10.3146 25.6256 55.0381
9.95557 19.316 50.199
16.7189 28.1191 46.3468
10.8281 21.9727 45.7287
11.8957 22.3559 44.3153
15.3585 32.1259 56.4097
8.00842 11.1886 21.5794
8.37634 19.1019 42.5428
9.57067 14.6107 29.3989
14.9968 31.5832 51.4139
6.0091 11.2612 22.1561
5.60863 13.4666 33.1703
7.31116 11.9834 24.1519
9.27668 20.8176 37.4662
6.64772 14.0405 36.0516
12.809 27.4633 52.6869
9.81281 18.2305 36.7266
10.1687 19.8736 38.841
12.4228 25.7266 44.6339
8.41648 17.3796 33.0219
11.5168 29.9411 70.2047
10.6745 17.9455 33.5212
6.18145 18.0684 54.3032
11.343 15.8323 32.334
10.3966 18.1574 30.3285
11.5702 23.6125 45.2443
6.90145 17.8756 47.2752
11.2355 16.2095 29.4018
9.35274 13.8468 21.6971
9.15194 21.9306 44.1624
8.63134 11.9243 16.189
12.3707 37.578 83.3955
9.36542 13.4394 28.7978
8.165 17.5896 33.1913
6.23969 13.2744 29.2743
7.25442 16.826 46.6307
14.7155 27.0953 45.7796
10.6429 18.7004 26.8674
9.35398 31.2713 80.9357
14.9136 28.951 56.1176
8.5953 14.3546 34.0159
8.87885 21.9245 56.2121
11.3275 19.7972 39.0764
8.62971 18.78 44.3413
13.7196 31.9468 67.3048
8.75494 14.0457 25.6798
7.6924 14.598 28.5648
7.40152 16.5159 36.6236
8.99032 19.0316 38.6002
10.7375 24.3964 46.6203
10.4648 32.7904 71.1982
8.80861 16.4198 39.0481
5.60864 9.59011 24.1878
5.50136 10.0077 23.2597
6.0622 15.1287 43.0118
9.45627 14.0077 24.7657
8.02781 18.6623 36.4063
7.69788 19.9484 49.3113
9.38558 20.7877 46.1524
7.56935 18.0828 60.9125
16.4086 28.2816 47.3381
10.2294 26.1495 52.0853
6.68022 14.9281 46.9031
10.9404 25.5574 56.3092
9.62553 20.7674 58.2495
12.5303 22.4795 49.4067
13.5592 27.8667 51.1011
7.83132 15.5426 39.6625
11.4715 26.39 59.7649
12.3515 20.9197 35.3258
7.47581 20.2611 41.69
6.7501 13.836 28.9822
6.71881 17.0295 38.7406
7.15921 15.8985 29.0739
4.05704 13.551 47.2784
10.4709 21.5926 45.9218
11.0011 23.789 59.0048
10.4631 19.5666 42.4058
9.4751 18.2226 34.0166
7.26179 19.3174 44.9593
8.21214 20.5375 62.7588
16.2671 31.7728 55.8295
6.26057 14.2149 35.1873
7.96573 18.592 47.1394
8.26358 18.0934 37.7965
8.70428 16.3792 24.2969
4.22309 13.0988 36.4934
10.3675 27.0029 57.0145
7.92591 18.5038 42.7551
4.94794 10.0492 33.9747
9.11345 19.1062 36.5419
6.42779 14.3148 34.7786
7.28126 18.8466 41.0659
7.2924 17.6682 39.0924
8.30258 21.9864 50.0816
4.87437 10.6326 36.8547
9.9111 24.7874 59.9554
10.5457 24.7741 54.1629
7.3678 20.5724 59.359
7.75966 13.9462 31.2187
8.9581 21.2194 53.1328
10.3687 23.3022 45.8067
6.66969 14.9085 43.8447
9.23275 20.006 38.0199
4.30791 10.3422 27.3698
4.06534 12.6784 46.3761
12.263 26.904 53.7004
10.5371 24.8611 41.0365
5.93089 21.607 69.0084
12.6225 26.9108 52.6275
7.57514 18.6012 46.3837
7.73842 21.1525 49.6656
7.55748 19.7032 50.4984
10.0872 26.3855 70.9542
8.61726 16.4266 43.3974
8.55179 22.028 58.0306
6.17526 8.45404 26.3023
7.27784 17.427 47.1812
9.92367 23.9377 61.8841
8.64472 16.3564 56.8226
