# pn-170911/RbIIR-61-RbIIR-1280-1959.psd
# Power spectrum* (dif=0,1,2) (really just |FT|^2)
# NOTE: only the first half! (symmetric)
# weeks: 1280-1959
# 244 clock-days, 40 excluded
# PSD: 1441
437.595 0.0990142 0.05203
27731.6 0.629222 0.125607
120365 2.42494 0.129321
31249.2 1.18817 0.13348
31245.1 2.32013 0.130331
11232.5 1.23755 0.131746
10082.9 1.52345 0.138849
5649.1 1.04591 0.133937
4410.03 1.24106 0.126858
3780.41 1.2754 0.133818
3124.54 1.28095 0.132724
2499.37 1.25555 0.137228
1972.38 1.22064 0.133316
2055.16 1.37165 0.128549
1661.62 1.32348 0.128828
1391.5 1.30238 0.135618
1284.63 1.45302 0.129085
1187.75 1.50692 0.139898
994.162 1.3982 0.13338
1014.82 1.55202 0.12739
890.734 1.48054 0.131346
799.319 1.44848 0.132372
773.019 1.65192 0.146299
691.107 1.51184 0.137089
736.864 1.81682 0.138579
710.937 1.9565 0.126677
605.119 1.66728 0.123892
565.496 1.72986 0.143157
559.801 1.85642 0.141209
531.266 2.04485 0.144172
538.102 2.17393 0.135751
493.294 2.09387 0.131348
485.804 2.01809 0.128637
456.037 2.23592 0.124387
508.296 2.61942 0.144201
413.677 2.22738 0.146304
436.103 2.38368 0.140823
458.664 2.75194 0.159748
393.085 2.4602 0.147156
425.546 2.76045 0.147437
381.355 2.66419 0.144922
407.346 3.15846 0.159649
366.908 2.66491 0.140575
360.208 3.07036 0.153303
361.199 3.27283 0.162651
365.972 3.27552 0.161665
394.821 3.76014 0.162131
350.467 3.4561 0.164865
332.181 3.54612 0.163781
342.185 3.63502 0.170538
377.973 4.23225 0.175147
329.885 3.90903 0.173282
349.097 4.2069 0.186516
343.449 4.26903 0.187956
329.496 4.31714 0.180152
334.247 4.54708 0.188458
346.85 4.85661 0.189603
304.042 4.51329 0.199148
328.166 4.95308 0.198396
307.847 4.81681 0.196258
291.413 4.78345 0.205634
332.498 5.54774 0.2167
286.669 5.10223 0.224044
284.755 5.22688 0.228198
244.047 4.86643 0.230352
310.446 5.63116 0.25626
287.65 5.73016 0.261635
307.017 6.24833 0.272108
295.715 6.34011 0.262543
317.096 7.01681 0.283133
269.827 6.19823 0.262588
279.343 6.66585 0.275607
298.883 6.92419 0.269534
236.884 5.87027 0.263133
286.252 7.27433 0.325263
274.205 7.22692 0.325419
271.601 7.31189 0.319289
281.781 7.83009 0.323021
240.238 6.65419 0.318309
264.563 7.6769 0.32989
278.288 8.41784 0.387481
264.508 7.95641 0.387148
270.81 8.261 0.367653
241.363 7.68862 0.377996
229.196 7.49381 0.374642
248.971 8.20582 0.423272
271.181 9.20409 0.449484
261.378 9.15472 0.44151
248.075 8.8678 0.423116
238.915 8.74637 0.460092
256.162 9.37213 0.472531
225.495 8.98544 0.459015
251.348 10.0812 0.532233
231.177 9.22044 0.46329
226.699 9.40872 0.531483
211.976 9.03281 0.518482
261.748 11.0168 0.598502
243.525 10.6224 0.574579
250.922 11.193 0.636773
227.426 10.4368 0.598333
227.358 10.3772 0.6225
232.708 11.1006 0.615075
247.407 12.1493 0.730868
225.531 10.9173 0.64841
217.769 10.9634 0.694934
232.456 11.5325 0.730033
233.499 12.084 0.801581
225.328 12.1876 0.72744
210.846 11.6548 0.776035
212.099 11.717 0.82467
250.432 13.8051 0.925738
198.807 11.4576 0.749058
250.059 14.5963 0.971193
197.935 12.1169 0.86457
226.787 13.49 0.969143
215.04 12.9183 0.943082
210.23 13.3437 0.9798
212.94 13.2594 1.00532
220.082 14.5352 1.06716
205.073 13.7088 1.03779
195.596 13.0466 0.965848
225.439 15.4674 1.19749
228.143 16.0002 1.22765
212.529 14.9814 1.17942
201.611 14.321 1.10562
185.821 13.7874 1.10201
210.186 15.6255 1.29719
217.937 16.2405 1.3152
201.557 15.7019 1.30787
206.816 16.1089 1.33719
189.431 14.8964 1.31784
196.952 16.0551 1.41545
201.004 16.6711 1.45768
209.53 17.2618 1.55526
175.156 14.8367 1.44487
202.449 17.5797 1.63281
211.452 18.3002 1.61594
177.415 15.6996 1.51074
186.639 17.0867 1.63843
174.284 15.7401 1.59419
193.106 17.2445 1.66695
186.383 16.7607 1.63156
187.553 17.6127 1.82436
196.739 18.846 1.96686
194.554 18.2049 1.78232
175.391 17.2296 1.76022
184.296 17.9696 1.89426
187.306 19.0633 2.09218
177.404 18.2112 2.00606
198.045 20.6628 2.20308
198.153 20.7984 2.30636
175.846 19.4048 2.2408
176.803 18.6579 2.07847
188.47 20.9236 2.33637
158.105 17.2178 1.92897
162.956 18.2761 2.17035
172.934 19.5403 2.33749
171.555 19.6097 2.22596
170.031 19.5764 2.41424
186.834 22.3848 2.76602
172.64 19.9449 2.46753
172.667 20.5422 2.6096
186.826 22.7145 2.8177
188.52 23.4769 3.08435
169.909 21.1287 2.84898
165.582 21.265 2.85278
151.81 19.0337 2.56175
166.679 21.5042 2.89258
170.913 22.1942 2.9998
164.563 21.8856 3.04708
169.017 22.3968 3.13069
165.443 22.3298 3.18184
165.027 22.7459 3.31705
163.98 22.4169 3.20703
173.697 24.5283 3.6349
156.71 22.475 3.28011
156.403 22.8372 3.44859
168.675 24.7957 3.7102
179.497 27.2299 4.17614
171.488 25.3367 3.78962
149.604 22.4075 3.41377
143.136 22.0657 3.43918
149.408 22.7314 3.54949
141.892 21.9767 3.5898
166.806 26.1161 4.18673
160.136 25.19 4.09434
149.053 23.9035 3.92933
146.912 23.9051 3.96589
148.419 24.5663 4.1166
162.652 27.1209 4.67818
154.912 25.5032 4.32485
145.566 24.9319 4.3475
153.656 26.5952 4.53806
154.969 26.8541 4.57988
142.904 25.3824 4.5966
137.079 23.9974 4.38205
141.428 25.1787 4.5883
153.658 27.5868 5.17861
148.897 27.1342 5.04989
142.624 26.0451 4.92371
161.545 30.499 5.84929
161.863 29.7495 5.59606
146.176 28.3926 5.57189
133.031 25.8987 5.15669
151.312 29.7292 5.80683
163.155 31.0998 6.11175
131.674 26.0078 5.11647
122.336 24.7712 5.0949
118.603 24.0479 4.97979
142.409 28.262 5.7054
133.064 27.6856 5.82274
127.184 25.8079 5.25661
130.827 26.7928 5.86301
130.869 28.5217 6.20511
130.174 27.393 6.12827
135.494 28.6051 6.30602
140.744 30.1226 6.581
126.781 27.8118 6.16727
141.477 30.4463 6.61466
124.54 27.7841 6.22536
146.469 33.4988 7.62309
119.241 27.0676 6.46801
117.905 26.9711 6.37508
134.365 30.8551 7.11825
134.703 31.2778 7.60984
135.737 31.8391 7.62505
133.317 30.9211 7.34389
138.94 33.0913 7.84709
124.634 29.7233 7.35136
110.877 27.4776 6.85956
124.489 30.1725 7.26953
113.043 27.3122 6.61965
124.381 30.7282 7.64749
135.931 34.4403 8.79783
127.891 32.9561 8.50889
126.735 32.4424 8.49085
134.466 34.5111 8.95451
132.714 33.6521 8.72414
126.647 32.4451 8.64571
112.022 29.4846 8.03725
109.342 29.0383 7.7434
115.627 31.2436 8.34014
119.925 31.7177 8.63723
110.01 30.7759 8.78119
110.768 29.994 8.15749
118.662 33.2202 9.20891
119.069 33.558 9.56997
123.937 34.525 9.75959
128.698 35.9728 9.9817
114.202 32.8402 9.54721
123.559 35.8281 10.5714
115.843 34.0326 10.2459
108.151 31.6237 9.49504
122.492 35.371 10.5464
116.87 33.0655 9.48792
114.592 33.9688 10.1489
113.795 34.1694 10.5688
121.036 36.7821 11.3122
101.366 30.4082 9.39171
108.628 33.1491 9.97515
101.51 31.7459 10.057
100.736 33.1345 11.021
110.532 34.0505 10.5634
106.651 33.576 10.6754
107.091 34.0741 11.0019
114.19 36.4502 11.4938
102.473 34.9845 11.782
101.845 33.9884 11.2123
99.1264 32.77 10.9368
111.345 36.1991 11.8098
86.672 29.7587 10.2434
111.209 36.6866 12.4299
98.3759 34.2649 11.7526
88.2579 31.1688 11.1027
106.61 35.9567 12.4836
104.28 35.6009 12.0844
100.549 35.2534 12.3564
103.813 37.5318 13.5078
91.1833 31.3503 11.0572
96.5879 34.6153 13.0443
97.2298 34.546 12.2783
96.2855 35.073 12.6774
93.4463 34.53 12.7463
107.097 39.1144 14.2895
95.8529 36.2284 13.7291
98.8912 37.0489 13.5546
91.0872 33.5863 12.495
101.485 38.2307 14.7509
92.3734 35.3316 13.6055
94.0154 35.0766 13.3614
98.2259 36.5932 13.8561
91.5659 35.395 13.9726
88.357 34.6355 13.5763
90.3697 36.2453 14.5068
91.7162 36.1676 14.6214
99.7271 39.6085 15.5943
95.2738 38.4809 15.532
94.8179 37.4136 15.2321
92.1613 38.0662 15.8692
88.6957 36.8454 15.2713
86.7578 35.4923 14.9753
85.2197 34.7359 14.3717
88.7817 36.4927 15.1721
97.5404 40.7119 16.677
84.3965 36.0838 15.6312
92.9092 39.4518 16.8396
88.9817 36.8547 15.5291
88.2896 38.3121 16.6543
91.5352 39.4074 17.0611
88.9389 38.9443 17.0129
96.0453 41.2811 18.25
91.4661 39.4383 17.2602
79.9585 35.202 15.9767
88.1398 40.0113 18.0917
86.1439 40.1145 18.7754
91.7148 40.3181 17.812
75.3458 33.875 15.8132
80.4222 37.2468 17.5917
82.2319 37.0856 16.9715
81.7673 37.7938 17.6581
83.1863 38.7239 17.8486
78.7854 37.3508 18.1856
82.8956 38.1351 17.8739
71.8279 34.7683 17.2128
77.8096 36.9285 17.5721
72.4976 33.6218 15.7803
80.517 37.9618 17.895
73.2874 35.3754 17.1165
76.7994 38.0883 18.8949
78.9595 38.8626 19.3928
76.1076 37.1541 18.5197
75.6836 37.2879 18.4783
81.8811 40.7765 20.4966
83.1516 40.8087 20.1596
78.8497 40.3668 21.0707
72.8407 35.7531 18.0689
69.2647 34.8999 17.8146
73.5437 38.0589 19.5834
80.5764 42.5645 22.4206
72.5998 38.0361 20.2053
73.4453 39.3024 20.7736
76.1953 39.3334 21.022
74.0945 39.9886 21.7837
68.2472 34.4358 17.673
65.4898 34.6638 18.3938
75.8281 39.3588 20.6468
70.2736 39.0963 21.5161
71.1499 39.4626 21.984
72.8323 38.8982 21.3018
72.0554 39.1628 21.1988
68.9634 38.8429 22.2643
74.0768 39.9641 21.8952
66.8889 36.8975 20.079
69.7203 41.429 23.8248
67.5663 38.1224 21.7356
62.6552 35.5462 20.4067
72.7844 40.8512 22.6361
76.2416 44.7033 25.7835
74.1155 44.1241 26.0117
70.5872 39.9774 22.5995
61.2691 36.7427 21.8003
66.5225 38.7806 22.9655
64.8617 38.2788 23.0364
68.0861 39.3366 23.3715
68.3377 40.9015 24.1683
64.6694 38.8237 23.1952
68.9098 41.6128 24.8395
59.2039 36.7078 22.5039
63.6641 38.341 23.5198
61.0489 37.3571 23.6768
64.7523 39.1835 24.2905
68.4193 40.8916 25.0564
68.3031 41.7434 26.291
64.1536 38.4354 23.373
63.7721 41.4983 27.0812
68.6882 41.8796 25.8262
62.6835 39.7494 25.9759
63.613 38.7629 23.9206
60.642 38.0251 24.2311
58.2782 37.1374 24.1373
60.1056 38.5901 25.3596
57.3237 36.4442 23.4149
61.1895 39.1491 25.6521
70.3996 45.351 29.0266
66.0239 43.0911 28.1495
59.1352 40.2693 27.2099
60.392 41.7175 28.7367
65.5358 43.7168 29.8356
63.3302 41.942 28.0614
60.0639 40.6793 27.2263
55.4416 37.845 25.7996
53.0835 35.1766 24.0413
58.5846 40.8686 29.2305
64.1421 42.2559 29.0922
60.8518 41.8506 28.825
62.5212 41.9537 28.1062
57.489 40.6504 28.4451
54.2135 39.117 27.9555
54.9642 39.9245 29.6227
55.8192 37.7475 26.2422
55.7727 40.308 28.6008
56.5853 40.8968 29.3637
57.1999 41.8844 30.7118
57.8164 41.2651 29.6477
54.1996 40.2288 30.0621
57.2029 40.0884 29.129
55.4249 40.5244 30.7426
61.7856 43.7921 31.086
59.1309 42.0748 30.2529
56.7269 41.6849 30.4578
49.519 36.9545 27.6436
46.1713 35.346 27.1899
51.0152 38.2076 28.876
54.2061 41.202 31.4041
59.9949 45.5423 34.4143
52.6133 40.3122 30.9889
57.4838 43.0445 32.5321
52.9243 42.1596 32.8704
46.7612 36.4463 29.7936
51.1616 38.9646 30.4981
51.0127 38.7775 29.4902
48.5552 37.1979 29.4647
52.1617 40.5083 31.6834
42.047 32.2432 26.0017
45.3055 34.9815 27.9953
48.265 38.5396 30.3834
53.8451 42.4574 33.5295
43.9595 34.0215 27.027
46.477 39.3794 33.2851
47.5999 38.231 31.9655
50.2324 38.2936 30.474
51.2722 42.0168 34.1262
53.2111 42.7036 33.8389
49.095 41.755 34.7797
44.9919 35.612 29.4172
50.6709 42.8205 36.2543
58.3743 49.5035 41.9374
55.4242 44.8023 36.993
51.3714 44.0804 38.6513
54.4424 44.5352 36.4944
48.4629 42.8126 38.0429
51.8341 43.8064 36.9502
51.0386 43.3258 37.1728
47.4992 40.0564 34.2667
48.4954 41.0063 35.7086
51.536 44.8237 39.2039
49.921 41.7775 35.4651
53.4474 48.5016 43.591
46.8078 39.9076 35.0028
48.4775 43.7995 39.7248
48.4015 40.6822 34.1698
38.9938 36.6856 34.8463
48.6669 43.3091 39.111
47.6876 41.3392 36.9507
43.0042 37.1971 33.9864
46.3839 41.0693 36.6751
47.5308 41.4165 35.3494
42.2374 39.8906 37.5972
44.7533 40.9134 37.8933
42.3509 39.8097 37.6953
46.017 40.9364 36.1504
41.5705 38.3976 34.9215
41.0018 39.148 36.6166
41.8866 38.8384 35.8917
37.3454 35.9046 35.1373
40.5159 36.0779 33.1946
38.2034 36.5824 35.868
45.417 41.803 38.4722
41.4727 40.9217 40.4691
46.814 44.1925 41.7925
49.5568 47.4625 44.8981
41.2146 41.6713 41.3664
40.6995 37.6822 36.6183
44.0329 42.9807 42.0385
41.2949 39.9499 40.4762
39.9715 37.2808 35.3042
41.8858 40.9132 39.3714
42.3775 41.3808 40.8938
38.9562 37.5152 36.9998
39.3211 39.1556 39.7862
38.0926 36.549 36.7238
43.6346 43.3468 42.9988
44.8698 43.9029 43.3517
39.269 39.8139 39.62
38.1654 38.9625 40.4797
40.7606 40.9137 42.5774
43.2535 42.2291 41.0713
38.3428 40.0579 41.2086
40.6874 40.9898 42.1938
39.3626 39.595 40.4827
40.1307 43.2275 46.3562
39.3978 39.3173 39.8018
38.57 41.369 44.3606
43.721 47.1372 50.1858
42.9128 43.5093 44.3977
35.3922 36.5971 38.8135
37.144 38.5646 41.3549
41.1687 43.0507 44.4122
33.9871 36.1991 40.5451
38.5046 39.4152 40.9713
34.8119 36.8036 39.7074
35.9066 38.152 41.6395
38.0251 39.8324 42.8463
34.8596 36.0654 38.312
34.6307 38.8907 44.5714
41.3368 45.6255 50.0071
38.3618 40.7757 42.893
34.636 39.3858 45.2506
38.0472 40.5441 43.946
34.6625 38.0774 43.4458
40.5331 43.4205 46.8492
34.5868 37.6643 41.6788
33.7091 36.6145 40.0726
35.3517 41.4689 46.5335
32.6134 36.7489 42.7966
33.1693 38.6416 45.6609
36.265 40.2257 45.125
34.3926 39.1779 45.3774
33.924 39.4925 47.1161
34.9883 37.5009 42.5526
38.2209 42.2375 45.8116
34.9705 41.3729 47.523
30.0808 34.869 42.829
33.9116 39.2088 45.1256
32.4907 35.9197 40.9396
36.7837 42.9219 49.0096
35.0121 40.3758 47.8554
34.1972 40.6287 47.6943
32.7913 38.6869 46.4759
34.8727 41.1245 48.8684
35.1727 41.4924 50.0943
33.9793 39.1686 46.7811
32.0594 36.8851 42.7347
31.3484 37.6138 42.7481
29.5637 39.9977 53.1519
32.3762 37.6341 46.9616
35.0612 42.6855 52.2294
32.7868 37.7335 45.3555
34.2211 43.3112 54.9615
35.6757 43.9818 54.7813
32.7663 38.8107 47.4562
31.6205 37.6587 45.7617
30.8443 36.7364 46.8052
34.4714 39.9309 45.2679
27.9262 38.1323 51.2501
31.5319 36.9874 45.3822
32.2252 40.4831 50.0027
27.4066 34.5127 44.1778
28.9371 36.4505 47.091
28.6696 34.6592 44.7544
31.0507 40.2531 52.833
34.2904 41.3804 50.2512
30.0894 39.3067 52.0057
31.5191 37.869 46.7173
28.284 35.2372 42.8402
27.347 36.494 49.3708
30.8299 42.3982 57.8956
36.6748 48.5106 65.1751
36.3 44.3126 55.9224
30.9497 38.4796 48.7778
29.3506 38.1363 49.8863
29.5038 38.3863 49.9742
31.9422 43.2922 56.9576
28.1957 36.8764 50.3594
31.3766 43.0427 59.8322
29.8165 36.1357 47.4838
34.0932 45.5195 58.6157
29.4485 39.2446 52.7475
27.9907 37.257 51.5956
31.8233 41.9524 54.9929
29.4064 39.1799 52.9561
31.0709 41.3104 54.7293
26.8611 35.5602 48.1338
30.4285 43.0434 59.1432
30.1146 40.8128 55.4101
25.474 35.0507 50.8681
31.571 43.0273 57.0672
25.4011 36.5552 54.7213
30.2228 39.4645 52.1628
27.8148 39.3149 55.84
28.1891 39.5479 55.9703
25.9555 34.4482 47.1011
25.1329 36.5072 52.8179
25.9955 33.9269 46.1592
24.4779 34.271 48.7573
24.9533 35.5936 52.902
28.9975 39.457 52.6304
28.2052 42.4004 62.0486
26.4666 37.4026 54.1287
28.6637 38.6673 52.8654
28.2186 42.3296 60.8714
24.9985 35.111 51.4399
25.5925 37.3112 53.9718
26.2167 37.4479 53.6792
25.401 36.18 52.739
26.2507 39.8295 59.4613
23.0802 32.6719 49.828
25.85 37.0568 55.0701
25.4356 36.8778 55.0898
25.2894 35.2183 51.1768
25.1429 36.0753 52.3081
23.2238 34.7632 52.9966
25.2062 36.3188 54.0979
28.0147 43.9723 66.4976
24.9812 33.8518 49.847
25.1534 37.013 54.9804
27.4273 40.7129 58.887
23.383 34.2237 51.0646
24.5917 37.6292 55.6126
22.3896 34.5312 53.7082
24.1591 35.5516 53.4508
21.9388 34.9792 56.9476
24.9155 37.6543 58.2729
25.138 37.0026 56.2081
23.6307 37.056 58.8093
23.0739 34.4292 53.6044
24.1464 36.6389 55.6947
24.9179 38.7032 60.6637
23.3418 34.8975 54.0869
21.5752 33.3805 54.6061
25.1461 37.7421 59.1963
25.945 38.6298 56.6056
21.9459 34.0528 54.2051
23.8703 36.0126 55.3471
27.1033 45.1446 69.1322
19.4973 29.5379 47.5275
19.1856 31.6515 53.8166
23.4903 36.9112 58.6908
23.9477 38.5753 61.015
22.008 34.1237 54.7041
21.9678 35.3357 58.608
22.394 34.7951 57.2637
23.7636 37.4099 57.471
21.2776 34.1878 56.7199
21.7454 33.4012 52.0937
20.7789 33.7349 54.2524
19.8545 34.3613 60.2954
21.4421 31.8315 51.4185
20.8937 34.8056 55.7523
20.1084 34.3929 60.2421
22.5282 36.0844 61.0879
22.276 35.6926 60.3709
23.3641 36.0372 55.0978
20.9079 35.7832 59.1831
22.2662 36.8908 60.2773
22.0006 35.6704 57.266
20.6093 36.132 62.5701
21.1439 35.12 59.9986
24.1819 39.642 64.0643
20.388 32.9607 56.7495
20.6219 35.4109 59.6897
19.4273 32.0166 55.0273
21.3241 34.6489 56.604
19.2073 33.3329 59.0405
21.0274 35.7567 60.6913
20.4091 35.4205 63.2684
20.9972 34.1982 57.5892
21.2346 38.0149 68.1731
22.1765 34.6516 54.5696
17.998 32.6889 59.5667
22.5356 41.4906 74.0291
21.7662 36.9194 67.0384
22.6042 36.461 62.647
23.6858 40.6858 67.4162
20.6517 37.3041 69.435
23.5509 39.6995 65.8476
20.6141 36.7571 63.7672
19.5558 35.1832 66.0013
21.4402 37.3709 64.8689
19.9377 33.4886 57.5864
18.583 33.7962 63.9693
20.9898 36.2123 64.9387
21.319 35.7702 61.0628
21.3533 38.212 64.1765
19.121 35.3756 63.7344
19.3118 35.7122 66.1654
19.8768 35.8519 68.5502
20.7822 36.6042 66.1688
20.6506 36.0262 64.519
20.0162 34.0388 57.7695
17.947 34.6608 63.9762
16.5363 28.7677 52.6693
18.4327 35.366 67.3822
19.6241 35.1581 66.34
20.4499 38.0592 69.0158
18.7816 31.1204 55.3947
17.3067 31.8216 57.937
16.5863 31.4371 61.0325
17.9346 31.1804 59.5113
19.5938 34.8817 60.65
17.6088 33.5814 63.9554
17.3452 31.1213 58.7572
18.4736 33.5543 61.7231
17.4346 31.4747 57.4499
17.2629 31.7815 57.448
16.9622 33.5902 62.7544
17.274 34.1206 65.4941
15.9755 29.7071 61.1049
17.9832 31.4786 58.355
19.6145 38.7009 72.2907
18.3909 36.1391 71.992
18.4589 32.9729 62.6643
16.2166 28.6392 55.7013
18.7307 38.0094 75.0972
19.6915 35.3623 61.4194
16.3751 34.0197 69.9846
18.645 36.6996 72.1312
17.3892 30.8975 60.7413
17.8111 33.6728 65.4086
17.5715 33.5486 63.904
17.1851 34.093 67.0233
16.6669 32.2598 63.4121
16.9956 34.5946 73.9371
18.1261 31.3679 60.8278
17.3647 32.8989 66.7403
17.3766 30.6826 57.3424
17.668 35.5725 70.3788
17.8453 34.328 65.3698
16.7545 31.7356 60.9791
16.7132 32.8807 62.4455
15.8314 31.3697 60.9909
14.4916 28.5484 60.5952
16.6486 33.3109 66.816
16.599 30.7581 57.6219
15.627 32.946 67.5143
16.5286 33.2481 67.2254
15.7482 31.309 65.8917
17.312 34.1855 66.0513
15.6106 31.2252 63.7744
14.951 30.3241 65.3159
16.7127 33.7397 69.1853
15.2008 30.5964 64.2226
15.4509 29.5206 59.2555
16.2981 34.7958 72.2663
17.3528 34.7633 69.5928
15.2487 30.6865 68.8611
17.3555 34.8755 72.8569
16.9296 33.0006 65.909
15.9316 30.9565 64.7686
16.646 34.2029 67.1074
16.162 34.1536 71.6063
15.5873 30.8029 65.8808
15.1699 29.2216 55.9443
12.8508 26.7408 61.1901
15.374 31.3429 62.3917
13.4838 28.6044 64.2261
15.4165 31.7355 64.517
15.5376 35.4893 76.7085
15.4468 32.5382 72.7365
16.9655 32.6231 62.8901
13.8019 29.6891 65.0698
15.0013 31.1196 66.3814
15.9923 35.5375 78.507
16.1486 33.2902 71.7831
14.6968 30.0321 67.4995
15.5374 29.2726 59.2337
14.1368 32.8601 76.1129
15.8788 29.0811 55.5845
14.0525 31.3474 67.4104
13.5694 28.9429 64.6115
14.4922 32.8627 74.3088
16.13 33.0604 68.8743
14.7258 29.725 61.451
13.2105 28.7936 62.6889
13.5745 30.6122 68.1367
13.9645 28.8897 61.2453
13.7227 29.8133 65.811
13.8997 32.3886 78.4807
17.4374 35.1007 73.6187
16.1863 34.1383 67.0013
11.6569 28.2006 70.4472
15.5116 32.1247 69.9987
14.2051 30.3831 66.7217
13.3066 28.2087 61.7585
13.1676 30.4101 67.6715
12.9287 28.6566 64.5787
12.8993 28.7703 66.7692
13.8165 31.0413 74.0504
16.0029 35.1407 74.8602
13.5394 29.5142 66.8912
13.1759 27.9641 60.5295
11.8946 27.5674 64.1878
13.7505 30.723 65.763
13.2039 31.4306 73.8858
14.4859 31.3422 72.4824
15.543 36.7661 81.0515
14.1202 32.4489 79.5538
14.8901 30.9512 68.4059
13.8263 30.166 70.0765
15.1276 34.061 73.2339
13.395 31.1688 70.623
12.569 28.102 66.0947
13.7645 33.9718 81.4389
15.1467 31.6367 65.4168
12.0141 28.7245 69.9247
13.3206 29.0057 66.4005
12.5249 28.1717 65.212
14.2476 34.5578 79.6714
13.0968 29.3491 71.3826
14.314 31.607 70.0644
13.3431 31.5518 74.0703
13.808 32.1383 71.0613
11.4812 28.2876 70.0897
12.1037 27.8013 70.5511
13.3747 30.515 70.3023
11.7633 26.982 66.1114
11.4657 24.7579 59.0617
11.3241 25.3267 60.4411
12.4519 30.2493 69.955
11.7197 27.9085 69.3774
13.672 31.6916 71.2816
12.3063 30.4006 73.0413
12.6062 29.0651 67.5062
11.4117 28.0202 73.6668
12.9654 29.7965 72.8474
14.096 33.6594 75.3285
11.7728 29.4341 76.689
13.0842 29.6111 74.9904
13.2522 30.1618 70.2877
11.307 24.5518 59.6299
12.7744 32.9987 80.6579
13.1429 29.8703 67.2208
11.345 28.5136 73.0241
12.7735 29.3668 70.4905
12.3388 30.8954 75.8996
11.8334 28.3127 71.7836
12.5754 30.2131 76.6971
13.0867 28.2489 62.6969
10.1549 27.0001 72.3225
12.7661 30.533 75.0509
13.0233 31.1141 74.3652
12.4825 31.2433 76.7824
