# pn-170911/RbIIR-58-USN3-1280-1959.psd
# Power spectrum* (dif=0,1,2) (really just |FT|^2)
# NOTE: only the first half! (symmetric)
# weeks: 1280-1959
# 2706 clock-days, 62 excluded
# PSD: 1441
707.855 0.074853 0.0299005
26288.5 0.225525 0.0172528
215186 4.74944 0.0172205
11791.7 0.408463 0.0167767
69047.4 5.36891 0.0173278
4450.58 0.408865 0.0172141
4129.81 0.631536 0.0166323
2224.6 0.419866 0.017186
2619.75 0.679718 0.0166073
1413.07 0.455265 0.0175224
1285.74 0.529045 0.0167026
992.449 0.471752 0.0169497
903.129 0.539483 0.0164779
767.881 0.512629 0.0170155
705.035 0.565419 0.0176126
640.198 0.576137 0.0175295
589.864 0.60827 0.0173306
530.406 0.624477 0.0175215
479.116 0.640623 0.0176698
443.94 0.648521 0.0180807
422.504 0.715116 0.0180519
398.425 0.729559 0.0182582
382.053 0.778805 0.0177628
375.613 0.828659 0.0192978
351.529 0.861593 0.0179424
319.163 0.864317 0.0199075
328.444 0.95442 0.0198494
300.306 0.945931 0.0204366
303.286 1.03515 0.0198809
301.244 1.0956 0.0217784
289.802 1.14381 0.02099
278.974 1.16926 0.0226319
266.684 1.17202 0.0233715
267.979 1.27246 0.0246482
257.902 1.30726 0.0249489
251.061 1.36898 0.0244909
249.4 1.41688 0.025769
249.854 1.51882 0.0277553
237.037 1.51388 0.0279742
235.929 1.59009 0.0303457
231.031 1.67819 0.029595
225.888 1.68651 0.0301172
219.695 1.70498 0.031884
217.676 1.79355 0.0337344
225.74 1.97891 0.0354688
213.867 1.9637 0.0366063
201.744 1.92066 0.0373125
209.988 2.07036 0.0382277
211.505 2.21477 0.0420092
198.505 2.15061 0.0422223
197.023 2.21642 0.0436795
199.939 2.3429 0.0468179
199.846 2.45717 0.0492568
186.475 2.43307 0.0490559
187.428 2.52368 0.0523336
188.934 2.58479 0.0542513
191.483 2.73526 0.0585022
181.081 2.67572 0.0589177
188.793 2.91697 0.0646358
176.96 2.83289 0.0653078
178.668 2.9527 0.0687015
174.774 2.99017 0.0705184
188.969 3.33942 0.0794111
170.124 3.11081 0.0747865
172.442 3.26208 0.0809753
170.974 3.35746 0.0850265
168.1 3.39579 0.0885899
170.187 3.52685 0.0914265
165.76 3.55296 0.0963615
166.538 3.65613 0.099846
166.228 3.78198 0.10612
163.442 3.79935 0.109999
163.122 3.88812 0.111746
155.784 3.87093 0.114468
159.957 4.08447 0.122899
154.667 4.03783 0.125209
155.455 4.16181 0.132509
157.706 4.31558 0.138942
157.763 4.45611 0.148625
158.131 4.56096 0.154317
153.167 4.55854 0.156039
151.4 4.62987 0.158696
152.204 4.7558 0.169088
149.296 4.75879 0.174287
142.789 4.6894 0.1766
159.874 5.3563 0.201022
147.484 5.09271 0.196549
146.051 5.14788 0.201948
150.666 5.41595 0.21476
148.253 5.43545 0.222213
145.193 5.47775 0.230939
141.957 5.4197 0.229739
143.685 5.671 0.245473
140.446 5.64451 0.248453
142.963 5.82113 0.26218
143.604 6.08969 0.279914
161.896 6.97295 0.323753
138.25 6.01031 0.285118
135.145 6.04494 0.292295
136.257 6.20049 0.309645
137.528 6.36281 0.319837
141.422 6.71756 0.341692
136.678 6.65667 0.350129
131.972 6.52748 0.349878
132.859 6.74306 0.36549
138.243 7.10652 0.388136
134.72 7.09305 0.39907
127.435 6.78824 0.384434
124.946 6.74661 0.389425
132.932 7.42238 0.435738
133.745 7.55031 0.452798
128.067 7.40387 0.447632
128.772 7.51796 0.465074
126.444 7.52053 0.477545
129.332 7.81791 0.503029
130.831 8.03509 0.516419
126.908 8.03436 0.531275
118.744 7.5709 0.509889
126.838 8.28468 0.558048
121.107 8.03605 0.557487
123.232 8.30046 0.586011
119.902 8.21191 0.586007
120.498 8.38798 0.615827
126.858 8.99665 0.667061
124.403 8.8999 0.662977
125.622 9.18889 0.699365
122.113 9.03457 0.698163
119.499 8.9213 0.694803
115.738 8.84992 0.700929
118.189 9.16344 0.739655
118.261 9.32897 0.758575
120.053 9.63703 0.803317
123.127 10.0041 0.849267
112.799 9.27838 0.793921
119.451 10.0059 0.870182
115.016 9.79848 0.866195
118.384 10.291 0.925358
113.253 9.84322 0.885951
111.387 9.86275 0.909065
114.657 10.3493 0.959065
114.615 10.5495 1.00211
113.115 10.4955 1.00914
106.115 9.90488 0.96386
115.125 10.9606 1.07595
111.263 10.7919 1.07476
109.681 10.7419 1.07918
108.957 10.8359 1.1185
111.519 11.2288 1.16917
107.78 10.9783 1.15197
108.434 11.2812 1.20308
107.522 11.2843 1.20911
110.339 11.8546 1.30045
107.655 11.6014 1.28586
104.911 11.4805 1.28191
106.027 11.6543 1.32577
109.057 12.2361 1.39864
107.396 12.2062 1.41984
104.016 12.0385 1.42811
109.265 12.762 1.52531
107.361 12.7079 1.53563
102.118 12.173 1.47649
103.413 12.591 1.56886
106.105 12.9901 1.61429
106.166 13.1774 1.66635
102.443 12.8218 1.64015
103.393 13.1869 1.70822
99.4055 12.8485 1.70302
105.689 13.7174 1.81608
102.273 13.3953 1.7984
99.8483 13.2488 1.80414
99.541 13.4537 1.85137
97.7324 13.343 1.85315
100.766 13.9534 1.9684
100.786 13.9959 2.00078
98.0587 13.7592 1.99142
99.6764 14.1866 2.06617
98.7832 14.2061 2.09448
100.576 14.6426 2.17194
98.5182 14.5073 2.17732
98.5183 14.6603 2.22867
96.926 14.6633 2.24681
93.5469 14.3947 2.24095
95.7308 14.7779 2.3269
97.8652 15.3286 2.44259
96.089 15.0983 2.41119
95.8271 15.3715 2.49946
95.8486 15.3832 2.50856
91.5623 14.9182 2.47595
96.4378 15.8847 2.65325
93.2023 15.642 2.65737
91.7757 15.3862 2.63135
95.3229 16.218 2.80623
104.985 17.8026 3.07561
92.6419 16.0239 2.81822
91.2294 15.9994 2.85225
94.526 16.7514 3.02673
95.3707 17.0247 3.07144
94.996 17.0454 3.09954
85.0075 15.564 2.901
91.1205 16.8124 3.1397
91.7368 16.9688 3.20003
89.2061 16.712 3.19377
89.3353 16.8705 3.23957
92.5749 17.7504 3.43528
87.3233 16.8484 3.31559
90.5724 17.7197 3.53152
86.4661 16.9502 3.37232
87.5371 17.4546 3.51921
86.4953 17.3914 3.55316
88.7713 18.0583 3.76038
87.1637 17.7683 3.66384
86.919 18.1113 3.79559
86.0242 17.9373 3.77724
83.6334 17.6037 3.74201
82.3791 17.6014 3.83159
85.3519 18.2206 3.94656
83.4799 18.0218 3.97934
86.8182 18.8789 4.14765
85.9659 18.902 4.1923
84.1034 18.7955 4.25249
84.3845 18.9539 4.31789
82.9906 18.7643 4.30837
83.2764 18.9946 4.41242
83.1045 19.0054 4.40682
82.761 19.3489 4.57108
81.322 19.2501 4.6337
80.2342 18.8812 4.53229
80.9278 19.1983 4.61644
82.3984 19.8087 4.81542
81.9908 19.9955 4.93824
79.3482 19.3767 4.77658
80.5408 19.8138 4.91835
79.4824 19.9086 5.01525
81.6799 20.6583 5.28433
76.8134 19.3231 4.9411
79.2406 20.2476 5.22366
78.9654 20.3225 5.28539
77.8465 20.2165 5.29314
77.1061 20.2055 5.35017
77.623 20.6587 5.54976
79.0494 20.985 5.6398
77.3488 20.9092 5.71682
76.355 20.395 5.54112
77.3888 21.1106 5.79943
76.2904 21.2132 5.9164
78.7559 21.7081 6.06846
75.2358 20.8812 5.82961
75.2871 21.29 6.07829
73.9012 21.0544 6.03451
75.1735 21.6176 6.27981
76.4868 21.9733 6.36579
72.7402 21.2867 6.31459
73.4266 21.5519 6.37828
71.6591 21.0262 6.27784
74.4207 22.0125 6.57665
74.3694 22.3588 6.78873
74.9751 22.6541 6.86769
71.1666 21.8321 6.77326
71.1962 21.7364 6.7153
72.0199 22.3403 6.98869
74.0227 22.889 7.14481
70.1298 22.0861 7.01585
72.728 22.9388 7.31003
69.9296 22.2305 7.1493
70.8496 22.8393 7.42246
70.7801 22.9995 7.54803
70.8408 22.9061 7.4681
70.4625 22.9609 7.56811
68.9094 22.8705 7.65506
68.1596 22.6034 7.57825
70.926 23.541 7.89225
68.1465 23.0204 7.82843
67.8195 23.2476 8.04412
67.9924 23.3541 8.11165
69.1412 23.8546 8.25621
67.6543 23.5244 8.25204
68.8526 24.1768 8.56104
67.6933 23.8509 8.48502
67.81 24.0472 8.58004
63.9238 22.8867 8.29973
67.8036 24.3144 8.7786
66.0329 23.8886 8.69784
65.1582 23.7339 8.74663
66.7729 24.5399 9.04804
63.197 23.3992 8.77625
64.8324 23.9125 8.90943
64.5585 24.4164 9.30274
64.1054 24.196 9.28416
76.4388 28.8578 10.7893
65.0791 25.2883 9.88244
63.4636 24.3894 9.48336
64.6174 24.9789 9.71519
60.9809 23.9048 9.48073
63.9051 24.92 9.7879
60.917 24.1847 9.69541
60.7631 24.2845 9.84595
62.3363 24.7369 9.92412
62.0074 25.1574 10.2639
62.8702 25.4469 10.3651
60.6835 24.5099 10.0086
60.9848 25.1089 10.4073
59.3102 24.3382 10.071
60.9768 25.4828 10.6802
58.7864 24.8606 10.5927
60.7913 25.5731 10.8811
61.0729 25.9877 11.0993
59.6261 25.4374 10.923
56.3745 24.4539 10.7419
59.8365 25.8466 11.2315
58.6421 25.6208 11.2342
56.313 24.754 10.9658
56.1671 24.8036 11.1573
60.2569 26.6443 11.8474
57.3788 25.6437 11.5442
57.2043 25.8278 11.8216
55.5356 24.88 11.3437
56.064 24.9847 11.2721
58.8455 26.9646 12.3911
56.5485 25.9592 12.0565
58.2412 26.9583 12.568
55.9959 26.1835 12.3531
55.6204 26.0394 12.2832
56.6632 26.5968 12.61
55.9944 26.5617 12.6692
54.0723 25.6076 12.3075
56.5731 26.93 12.9264
54.9219 26.3475 12.7605
56.0068 27.493 13.5685
55.7619 27.0616 13.2744
54.917 26.731 13.1167
54.0345 26.7343 13.2844
56.7852 28.2007 14.0121
53.1722 26.7222 13.504
55.0345 27.7681 14.1297
53.549 26.9075 13.6412
52.488 26.8077 13.877
55.0816 27.9136 14.2109
54.9071 28.1055 14.5142
52.8264 27.4933 14.393
53.3752 27.7659 14.5433
54.2612 28.1883 14.725
51.8431 27.3665 14.5224
52.3914 27.5938 14.6805
53.3637 28.6487 15.3857
52.6257 28.0174 14.9944
51.66 27.7133 14.9501
51.7761 28.2463 15.5357
51.9562 28.3784 15.6107
51.8593 28.1819 15.4105
51.0909 28.0133 15.5168
49.5471 27.1872 15.1326
52.0045 29.2443 16.4694
51.154 28.6285 16.2704
52.688 29.3326 16.5067
50.1794 28.1838 15.9524
49.5702 27.9268 15.8232
49.6174 28.3977 16.2761
49.6116 28.3413 16.2822
48.1751 27.9073 16.2518
48.6616 28.1857 16.6105
50.3432 29.0227 16.8214
48.0812 28.1468 16.6139
49.2882 29.1384 17.2393
48.1195 28.7053 17.305
49.9453 29.3044 17.3096
48.2035 28.9946 17.4615
48.7381 29.2808 17.6427
45.8355 27.7909 16.9377
45.9804 27.843 17.0953
46.3721 28.3055 17.3742
47.0887 28.7512 17.636
47.3704 29.5399 18.4521
45.9847 28.4138 17.8762
47.2593 29.132 18.0923
45.1374 28.248 17.8745
47.3119 29.8506 18.8477
45.8413 29.2236 18.7607
44.7903 28.1779 17.9811
44.8006 28.6084 18.3921
45.118 29.1935 19.0213
44.7688 28.5169 18.3606
45.1072 29.1632 18.917
43.585 28.5139 18.8664
45.115 30.0427 20.427
52.9605 34.0332 21.6248
42.3975 28.5088 19.305
44.1315 29.0297 19.3074
43.4107 29.053 19.5101
44.2594 30.0655 20.3886
42.0927 28.3032 19.3233
43.9367 29.7244 20.1466
43.1143 29.5033 20.3562
43.5684 29.8254 20.5853
42.767 29.0363 19.9398
42.0064 28.783 19.8374
42.6548 29.9456 21.0054
42.545 29.8596 21.07
41.8607 29.2724 20.6491
41.0052 28.8474 20.5198
42.0615 29.8942 21.4276
42.5943 30.0537 21.3302
40.3129 28.7692 20.7997
41.5803 30.0221 21.8729
41.5881 29.4732 21.0495
40.8197 29.5966 21.4141
40.719 29.9925 22.2624
42.5975 30.9091 22.5776
40.8844 30.211 22.4427
40.4791 29.7502 22.1913
40.9777 30.4194 22.6819
40.453 30.0733 22.5707
39.8102 29.5019 22.1978
41.7101 31.495 23.8309
40.8493 30.6751 23.303
40.7655 30.7269 23.2523
39.5443 30.15 23.1472
40.5373 30.8464 23.5872
38.2613 29.2228 22.5966
39.9556 31.0149 24.0604
39.0769 30.3694 23.7597
40.3215 31.2276 24.2322
37.8296 29.9604 24.0631
40.1704 31.0026 24.0676
40.3452 31.7226 24.8404
38.3731 30.791 24.8012
38.3283 30.714 24.7638
38.3362 30.3507 24.2546
37.5972 30.2229 24.377
37.3034 29.9616 24.2294
37.6878 30.3855 24.6384
37.7892 30.807 25.3109
38.3459 30.8027 24.811
37.7398 31.4206 26.0635
38.3483 31.4345 25.911
36.6545 30.5728 25.7791
37.8115 31.1238 25.7177
37.0701 30.9714 25.8113
36.4092 31.2329 26.8265
36.7402 30.6678 25.8983
37.9958 32.2842 27.411
36.8777 31.1393 26.3332
35.338 30.2139 26.105
36.0014 30.6341 26.2146
35.6059 30.5797 26.5579
37.2159 32.1472 27.7113
35.14 30.5445 26.7535
35.2622 30.5159 26.5208
35.5522 31.3713 27.6776
34.1806 30.0458 26.7909
35.9633 31.4475 27.6252
35.3881 31.3964 27.7922
34.2827 30.7378 27.7717
34.4866 30.6487 27.5013
34.3397 30.6704 27.6577
33.6456 30.0008 27.1406
34.3386 30.9808 28.0797
34.3252 30.9222 27.8536
34.176 31.6148 29.2495
35.1767 32.2241 29.8202
34.1636 31.1105 28.7045
34.567 31.2964 28.3671
33.374 31.6219 29.9536
35.4712 32.9115 30.596
33.877 31.6995 29.8712
33.7988 31.5683 29.7423
34.149 32.113 30.4281
33.7926 31.9007 30.3048
32.9137 31.1484 29.8796
33.1347 31.3735 30.1969
34.111 32.1419 30.244
32.4485 31.2935 30.3647
32.178 31.0348 30.2451
32.5099 31.4733 30.8899
32.9357 31.4457 30.3082
32.4179 31.7574 31.3339
32.7382 31.5491 30.7916
33.1952 32.457 31.9857
33.3131 32.441 31.4744
31.6259 31.6321 31.7955
31.4449 31.3104 32.0628
37.6993 37.075 35.9561
32.6888 32.2667 32.0518
32.2544 32.6786 32.9415
32.2026 32.6096 33.1154
31.1138 31.5677 32.3505
31.6169 31.9539 32.3954
30.5729 31.3301 32.5194
31.5353 31.7984 32.4658
31.4031 32.1218 33.0075
31.5583 32.2948 33.0961
29.8007 30.7975 32.2258
30.3818 31.5744 33.1444
31.5586 32.4372 33.23
30.434 32.0547 33.8336
30.917 32.7894 34.8286
30.4772 31.6494 33.2696
30.0556 31.7898 33.6017
29.9543 31.8639 34.0174
30.1153 32.2368 34.5898
29.1621 31.0468 33.3437
28.7194 31.0431 33.7998
29.6161 31.5689 33.8985
29.3205 31.9114 34.6365
28.1117 30.7377 33.9821
28.2426 30.306 32.8732
27.2778 30.2434 34.1139
29.6765 31.9874 34.9224
28.4886 31.1826 34.5037
29.1206 31.7565 34.8545
28.3238 31.0296 34.1133
27.3002 30.5821 34.5275
28.84 32.2079 35.9473
28.3946 31.7377 36.0538
29.2361 32.1335 35.6951
27.7063 31.2449 35.6959
27.8081 31.1272 35.2572
27.94 31.1806 34.714
27.569 31.6545 36.4231
27.815 32.0042 36.9234
28.3982 32.2358 36.7842
28.3771 32.6989 37.4662
27.2116 31.3512 36.1917
26.505 31.0245 36.2809
26.3095 31.1408 37.2774
27.5796 31.5872 36.653
26.9404 31.0029 35.7974
26.4814 31.4913 37.3868
26.4382 30.8731 36.3374
26.2922 31.1602 36.8778
25.9592 31.0564 37.2428
27.1048 32.6983 39.3547
26.3041 31.1761 37.3537
25.3763 30.5847 37.4121
26.2472 31.1528 37.5063
25.5088 30.415 36.5991
25.6053 31.0772 37.6439
24.9526 30.3402 37.3985
25.6871 30.9762 37.6234
25.8198 31.7603 38.9608
25.1322 30.8174 38.051
25.2182 30.9318 38.1215
25.4516 31.5318 39.1946
24.942 30.9916 38.7512
24.8277 30.5168 37.6932
24.9125 31.5866 40.2282
24.6496 30.384 38.3251
25.2653 31.7069 40.2266
25.8958 32.1769 40.2918
24.8144 31.3349 39.9107
24.7721 31.0142 39.0052
23.5752 29.6912 37.989
23.8293 30.2353 38.5555
24.2151 31.0432 39.7151
24.4771 31.8375 41.3301
23.8657 30.3772 39.6424
24.5295 31.0444 39.6507
23.9547 31.2788 40.9984
24.0987 30.9025 40.2501
25.2398 33.0522 42.6468
23.5233 30.7907 40.7168
23.6903 31.0351 40.8155
23.3913 30.8318 41.0046
24.3016 32.0048 42.0747
23.3222 30.984 41.5087
23.5844 30.9465 40.6158
22.7802 30.7344 41.6956
23.1028 30.8728 42.0089
23.6497 30.9694 41.106
23.1576 31.1164 41.6637
22.7932 30.8928 42.0066
22.6778 30.5991 41.6306
21.9994 29.5809 40.4909
22.2511 30.3963 42.0558
22.9881 31.1198 42.8328
23.5031 31.9371 43.7089
22.2163 30.4983 43.817
26.8996 35.7252 46.0994
22.7346 32.0956 44.1953
21.8902 30.7795 43.6179
21.5769 29.5256 41.449
21.6812 29.605 40.9596
21.8448 30.7009 42.7904
21.6366 30.442 42.8345
21.1728 29.8771 42.64
22.0859 31.0871 43.711
21.5185 30.3047 42.9816
21.7032 31.1446 44.9749
21.7391 30.2695 42.6981
21.625 31.1395 44.5701
21.5202 30.7495 43.7549
21.0807 30.7241 44.7333
21.756 31.3305 45.1628
20.9229 30.476 44.8943
21.0819 30.113 43.9487
20.7984 29.7835 43.4613
21.1509 30.5689 44.2114
21.0766 31.1934 45.6883
20.1582 29.5884 44.3564
21.3467 31.1536 45.6277
20.325 29.8832 44.8157
20.9779 30.8474 45.8224
20.9664 31.0089 46.6623
21.0962 30.503 44.802
20.7669 30.7654 45.3561
20.6167 30.906 46.0561
19.8992 29.7371 44.9972
19.8224 29.5989 44.8852
20.2311 30.3754 46.0932
20.2275 29.8395 44.2159
19.4261 29.5758 44.8517
19.229 29.3902 45.1402
19.7937 30.2225 46.2092
19.3737 29.5411 45.4496
19.5317 29.9485 46.2231
19.4559 29.702 45.3173
18.4769 28.3118 44.0851
18.769 28.891 44.9123
19.4254 30.1961 46.7737
18.8985 29.3258 46.0529
18.9354 29.4961 46.7423
19.0975 29.3271 46.1223
19.1347 29.4003 45.5882
19.2779 30.5389 48.0912
19.0571 29.9749 47.7957
19.3592 29.8752 46.2781
18.5624 29.7543 47.8978
19.1808 30.062 47.7169
19.2445 30.6805 48.116
18.0817 29.0073 47.2808
18.4307 29.0829 46.4582
18.2708 29.2894 47.056
18.237 29.4455 47.8092
18.2479 28.9316 46.285
17.492 28.3076 46.4316
17.8421 28.7185 46.9873
18.3124 29.467 47.6784
18.4087 29.951 48.7109
18.3939 30.1256 48.5491
17.1894 28.5439 47.6999
17.1366 27.7504 46.1435
17.8732 29.4974 48.9413
18.1916 29.9065 48.8087
17.8822 30.1236 50.8122
17.7301 28.9632 48.867
18.5816 30.4103 49.2768
17.3383 29.1465 49.1906
17.4418 29.3514 49.6529
17.4491 28.9874 49.1217
17.3356 28.5105 47.5095
17.311 29.1464 48.7029
17.1295 29.2529 49.5732
17.1449 29.2482 49.9637
16.6663 28.1149 48.3249
17.1529 28.874 48.3565
16.5982 28.9585 50.3332
16.7161 28.2346 48.5812
17.0208 29.3315 50.4438
16.7396 28.94 50.668
16.9738 28.9335 49.8368
16.5629 28.0381 47.8383
16.3192 28.3823 48.9081
15.9319 28.1599 50.0716
16.817 29.0259 50.5539
16.8816 29.4598 51.2094
16.7967 29.5795 51.7415
16.3734 28.5946 49.9186
15.4759 27.5377 50.0792
16.2181 28.1557 50.0736
16.4017 28.9501 51.5385
16.2674 28.6664 50.844
15.8174 28.2006 51.4856
16.3335 28.6696 52.8511
18.7798 32.7592 54.5135
15.4061 27.6905 49.6412
15.1893 27.6518 50.3727
15.8481 28.5059 51.5413
15.3266 27.3153 50.1085
15.9794 28.489 50.4852
15.1506 27.6414 50.5126
15.0019 26.942 49.0392
14.6294 26.4584 48.4339
14.9869 27.5572 51.0573
15.2063 26.9766 48.6822
15.1129 27.9993 51.7206
15.5178 27.9748 50.4318
14.984 28.098 52.4015
15.2948 27.9701 51.0858
15.0454 27.9395 51.5696
14.6768 27.6565 51.7271
14.1838 26.2611 50.7826
15.0298 27.3032 50.6261
15.1512 28.0498 51.31
14.597 27.8219 52.5287
14.431 26.8093 50.6498
14.5055 27.5066 52.499
15.0602 28.218 52.827
14.5023 27.4432 52.4729
14.6411 27.4194 51.876
14.2672 27.3914 53.2928
14.4153 26.3482 49.8105
14.1216 26.7369 50.4082
13.7547 26.0588 49.6122
13.9065 27.1457 52.6765
14.2375 27.0069 51.5877
14.0536 27.1551 52.7013
14.1308 27.318 52.7325
13.9457 27.1572 53.4683
14.3567 27.7874 54.5074
14.1169 26.646 51.4729
14.1431 27.5561 53.0625
13.994 27.5573 53.8046
13.9104 27.4003 54.5764
13.8549 26.2402 50.948
13.4832 25.9987 50.1712
12.902 25.6231 51.6515
13.7518 27.0097 52.9354
13.2175 26.2617 52.9525
13.5402 26.3007 51.6943
13.103 25.8973 51.4425
13.1443 26.3954 53.9901
14.0857 27.3339 52.961
13.3301 27.1414 54.4036
13.4227 26.8061 53.3501
12.7758 25.7606 52.6979
13.1329 26.1022 52.1005
12.539 25.1277 51.1358
12.7358 25.8034 52.7143
12.8479 25.9561 53.3192
13.1383 26.2837 53.2325
13.206 26.9712 54.8912
13.2107 26.6641 53.8538
12.6332 25.6389 52.4685
12.5724 25.7715 53.3666
12.6635 25.6679 52.6907
12.5051 25.6857 53.6476
12.4261 24.6156 50.4898
12.7594 26.8253 54.6835
12.4445 25.5971 53.2965
12.5124 26.0604 54.559
12.5953 26.149 54.6766
12.5142 25.5962 52.8328
12.0334 25.1412 53.2803
12.6302 26.2341 54.1777
11.9774 24.924 52.8824
12.3477 25.9444 54.2598
12.1682 25.6023 54.1461
12.1977 25.5415 53.9415
12.1985 25.474 52.966
11.717 25.0358 53.5533
11.8815 25.0506 53.2973
11.7919 24.9743 53.6571
12.0943 25.8199 55.1489
12.0338 25.4863 54.7913
12.0951 25.3426 53.5546
11.9285 25.3379 53.6287
11.8598 25.7781 55.0544
11.6312 25.3946 56.3069
12.0844 25.4637 54.7768
11.868 25.2533 53.9771
11.658 25.3741 55.5735
11.8782 25.4281 54.5668
11.5536 25.0273 54.8286
12.1091 26.2706 55.7599
11.408 25.2167 55.3004
11.4406 24.9062 54.3283
10.992 24.2004 54.3482
11.304 24.4604 53.6499
11.1335 25.2627 60.382
13.8342 29.2771 59.4016
11.4566 25.3644 55.5554
11.1323 24.9879 56.2004
11.513 25.2242 55.8491
11.2624 24.9075 55.5948
11.3148 24.9419 55.0052
10.9015 24.2635 54.6317
11.01 24.7774 56.0847
11.1477 24.3761 54.2563
11.2242 25.3319 56.449
10.8148 24.4363 55.4644
10.7917 24.0824 54.7614
10.7612 24.3187 55.655
10.8222 23.8701 54.1814
10.6463 23.7294 53.7879
10.8314 24.5718 55.2727
10.5728 23.8777 54.986
10.8275 24.726 56.2525
10.6806 24.0991 55.6727
10.9424 24.7424 56.3655
10.6916 24.5429 56.7444
10.7231 23.9486 54.625
10.6344 24.7308 56.3674
10.3044 23.6094 54.9739
10.4632 24.151 55.7496
10.2177 23.2429 53.6574
10.2084 23.9925 56.7677
10.5365 24.199 56.2358
10.2272 23.6064 56.0211
10.6116 24.394 56.717
10.4608 24.0276 54.9087
10.0758 23.4977 55.2079
10.1304 23.6127 56.0942
10.392 23.9657 55.672
10.1294 23.8756 56.5298
9.96272 22.9921 54.7324
10.2155 23.6236 54.2626
9.79074 23.5308 55.9693
10.1214 24.111 56.9516
9.86806 23.2919 56.183
9.99935 23.2569 55.228
10.0273 23.8163 55.77
9.83772 23.6895 57.1136
9.824 23.2533 56.2518
9.83775 23.0942 55.6221
9.88339 23.1754 54.7117
9.73968 23.6087 56.2376
9.70868 23.6878 57.0566
9.58643 23.4529 58.6801
9.9177 23.0088 55.27
9.74093 23.3175 55.6056
9.69892 23.8419 57.4499
9.58168 23.6497 58.8172
9.65943 22.8136 56.1723
9.70385 23.2103 56.0685
9.51051 23.0069 56.1334
9.4907 23.132 57.0543
9.63438 23.2334 56.9696
9.41979 22.4531 54.9241
