# pn-170911/RbIIR-54-AMC2-1280-1959.psd
# Power spectrum* (dif=0,1,2) (really just |FT|^2)
# NOTE: only the first half! (symmetric)
# weeks: 1280-1959
# 403 clock-days, 140 excluded
# PSD: 1441
853.572 0.123508 0.0584417
21592.6 0.32279 0.134681
170954 3.66353 0.137221
13334.6 0.544992 0.134136
31863 2.45479 0.128338
4549.53 0.479447 0.148697
3612.17 0.589935 0.115918
2521.65 0.500825 0.133675
2250.15 0.669815 0.13471
1671.66 0.59031 0.13408
1231.79 0.55074 0.122635
1172.52 0.62723 0.138085
1052.37 0.653376 0.133102
841.39 0.601508 0.129888
837.269 0.668634 0.131724
793.375 0.765217 0.130308
703.872 0.796947 0.136625
649.118 0.876078 0.146848
614.394 0.892203 0.135594
668.035 1.06044 0.132851
600.142 1.1214 0.145356
561.353 1.08725 0.136337
524.833 1.1358 0.148775
500.037 1.21594 0.142717
488.63 1.29289 0.144313
486.261 1.41566 0.148087
474.63 1.45439 0.148794
474.668 1.57332 0.140083
470.045 1.64183 0.149046
483.573 1.97025 0.147784
494.583 2.11059 0.144759
555.443 2.49868 0.141202
461.407 2.20543 0.154856
489.174 2.4856 0.155657
441.959 2.26473 0.143363
474.301 2.80291 0.164738
477.511 2.89638 0.15823
431.872 2.82792 0.143216
431.683 2.88622 0.157313
466.383 3.39407 0.158276
417.014 3.15516 0.153794
429.601 3.36659 0.159853
439.587 3.68901 0.163653
438.908 3.77193 0.167129
444.53 3.97522 0.18092
432.683 4.11661 0.164302
392.095 3.91492 0.164981
437.533 4.59295 0.17431
419.899 4.5554 0.190466
395.606 4.42967 0.171687
397.921 4.80536 0.175522
406.886 5.01946 0.213753
413.934 5.25078 0.208029
399.847 5.31105 0.200623
381.97 5.3206 0.199206
388.248 5.49165 0.194421
398.63 5.82393 0.233499
392.962 6.09915 0.213669
409.391 6.60756 0.238743
391.586 6.38359 0.232954
409.443 6.94978 0.244485
392.704 6.86883 0.252574
402.711 7.34393 0.267921
386.954 7.32304 0.275144
384.418 7.34104 0.270481
388.091 7.76828 0.287338
352.534 7.26133 0.283878
385.334 7.96498 0.30083
329.037 6.90885 0.272812
373.647 8.37537 0.296295
401.946 9.45114 0.321119
353.556 8.34202 0.326821
333.466 8.3166 0.348643
369.744 9.14958 0.357718
333.844 8.71709 0.348279
342.725 9.06301 0.350774
377.428 9.91629 0.405633
318.074 8.8992 0.384369
341.264 10.0312 0.407083
362.277 10.715 0.426635
324.045 10.0158 0.451589
314.758 9.77698 0.429347
320.294 10.1516 0.432875
319.875 10.391 0.45961
336.861 11.3509 0.522558
319.082 10.8351 0.467252
329.492 11.4281 0.525702
311.464 11.1088 0.525224
316.608 11.3391 0.564037
309.768 11.5341 0.568856
302.809 11.583 0.568521
281.445 10.958 0.530442
267.647 10.8181 0.583597
312.088 12.4809 0.596234
305.312 12.657 0.655196
296.175 12.2932 0.664588
338.169 14.7715 0.817694
280.666 12.5159 0.667418
274.586 12.6282 0.697801
288.196 13.0769 0.697468
273.149 13.0293 0.734685
280.022 13.4086 0.776249
299.25 14.618 0.83763
260.339 13.1234 0.748598
275.606 13.9237 0.822799
276.946 14.1148 0.870842
256.94 13.5691 0.849495
268.85 14.6192 0.936831
250.407 13.8077 0.841126
247.181 14.0711 0.896252
262.302 14.5401 0.939457
257.162 14.7915 0.974186
247.431 14.9624 0.992962
247.602 14.9848 0.98029
236.968 14.5691 0.963228
244.124 15.218 1.07874
245.061 15.3915 1.09214
210.929 13.4955 0.987304
224.827 14.4474 1.05279
233.882 15.6786 1.13401
214.144 14.533 1.08688
251.566 17.2399 1.23108
218.365 15.4233 1.18984
218.645 15.5495 1.21853
233.589 17.0723 1.35766
237.385 17.3736 1.36386
214.489 16.3218 1.3409
223.647 16.9386 1.36404
224.157 17.4966 1.44633
215.838 16.7675 1.39443
216.8 17.1945 1.49617
211.858 17.2625 1.44381
221.174 18.0851 1.56788
205.815 16.9195 1.46997
209.273 17.4934 1.55964
189.874 16.0989 1.43738
214.785 18.4453 1.65846
220.1 19.695 1.82299
203.437 18.1179 1.75861
218.3 19.8902 1.94786
210.481 19.2215 1.85432
186.686 17.2675 1.67908
192.126 18.055 1.76635
195.809 18.8279 1.89738
207.703 20.409 2.07876
181.493 17.7244 1.85684
197.359 19.6365 2.04403
188.373 19.4924 2.05827
193.342 19.9937 2.16581
198.438 20.6181 2.18817
205.665 21.2808 2.36792
182.341 19.3008 2.07738
186.257 20.0444 2.22187
183.921 20.1381 2.31574
184.694 20.3537 2.32255
183.018 20.7022 2.37543
178.45 20.3828 2.32609
174.134 20.0254 2.40904
179.737 20.9449 2.53587
165.218 19.369 2.32889
168.374 20.5303 2.57753
182.487 21.9036 2.73615
168.811 20.8609 2.67437
150.124 18.9094 2.45575
161.722 20.3624 2.71415
168.716 21.0105 2.63545
165.642 21.5116 2.81975
180.83 24.1721 3.19195
167.041 21.9274 2.85748
165.782 21.7826 2.96086
151.859 20.1648 2.74352
169.289 23.0348 3.20397
170.506 23.3335 3.20892
149.446 20.9387 2.97122
149.758 20.9424 2.98735
148.298 21.6151 3.13369
172.897 24.8458 3.69205
152.206 22.368 3.30505
172.284 25.428 3.75496
142.422 21.2329 3.24881
149.806 22.5077 3.3832
154.478 23.7981 3.62679
142.376 22.2347 3.59616
136.685 21.558 3.36398
132.698 20.9376 3.39204
141.279 22.5399 3.63963
147.08 23.6833 3.85022
146.569 24.2548 3.84738
136.043 22.3465 3.67003
154.312 25.7761 4.24484
135.01 23.0334 3.97601
128.091 21.7491 3.76086
195.23 33.5745 5.67814
129.737 22.7996 4.07326
137.461 24.0589 4.19198
152.109 26.6636 4.72071
132.893 23.6846 4.2937
129.636 23.589 4.25952
128.212 23.5322 4.23765
128.809 24.0683 4.53781
121.72 22.8839 4.34156
132.524 24.7656 4.57486
127.641 24.3874 4.53241
117.69 22.8731 4.35966
126.9 25.0531 4.87238
118.966 23.2064 4.56719
126.512 25.0993 4.98557
125.238 25.0105 4.92117
123.566 24.4622 5.02292
118.108 23.8309 4.89958
127.347 26.1497 5.44034
125.205 26.0588 5.45138
126.454 26.5266 5.49867
125.242 26.5435 5.5666
118.175 25.7537 5.62193
123.674 26.7369 5.83649
106.742 22.8087 5.06555
109.06 23.9369 5.21836
107.511 23.8587 5.23822
100.812 22.7262 5.11128
124.706 28.4973 6.40236
114.415 25.9739 5.82199
116.372 26.5602 6.01713
103.346 24.3296 5.75444
112.918 26.003 6.06248
116.581 26.9013 6.20368
106.784 25.84 6.17129
111.31 26.7615 6.40294
106.421 25.7127 6.22
117.558 28.8608 7.14431
114.643 28.0254 6.74456
109.274 27.3234 6.88618
105.176 26.3734 6.6881
102.065 25.1514 6.23234
101.827 26.201 6.74159
110.189 28.2671 7.22798
108.91 28.1409 7.37989
103.476 26.7782 6.95024
105.975 27.2372 7.07044
115.474 30.963 7.98938
102.558 27.6757 7.48807
94.0002 25.0017 6.75317
93.7859 25.7598 6.98947
98.4745 26.8428 7.43261
107.414 29.1601 8.10056
105.8 29.636 8.25119
95.84 26.2662 7.18933
90.7958 26.1783 7.62176
92.22 26.3475 7.62683
95.0091 27.3519 7.68691
96.1259 27.9314 8.09114
100.662 29.3308 8.78858
89.8532 26.2518 7.68042
103.512 31.0243 8.99842
89.0857 25.7976 7.60614
84.2419 25.4223 7.66144
86.9661 26.392 7.99911
91.7286 27.6676 8.40482
99.3598 30.4701 9.4451
91.8913 27.9103 8.68262
96.0457 29.953 9.25778
96.2308 30.1761 9.54128
88.5883 27.8905 8.96677
92.0894 29.2381 9.38405
99.359 31.0181 9.7209
86.3025 28.2407 9.31274
89.4242 29.5556 9.60094
93.9759 30.6031 10.0209
81.3968 26.941 8.97775
87.0097 29.3304 9.72428
85.3872 28.6141 9.47647
91.4295 30.4564 10.0626
87.0822 30.0939 10.2526
82.6866 27.9186 9.34714
80.0642 27.7433 9.73554
82.6519 28.5436 9.87728
82.4529 29.1281 10.2867
77.9624 27.2695 9.78856
88.2475 31.1348 10.921
82.1764 29.7201 10.6552
79.6725 28.5124 10.1094
77.8817 28.4279 10.3723
81.1732 29.2579 10.5657
78.5004 29.4774 11.054
80.0177 30.0083 11.0776
76.6166 27.8195 10.1523
80.7398 29.9959 11.4736
79.4102 30.4265 11.8039
118.634 45.3753 16.9359
82.3723 31.0745 11.8507
74.8159 28.6521 11.17
82.1913 31.6774 12.1085
79.4181 31.6926 12.5354
84.6282 33.2427 13.2596
80.5354 30.7144 11.7577
67.9498 27.3823 11.155
71.6594 28.7857 11.5403
75.3596 30.78 12.2851
68.0935 27.7178 11.37
70.6816 29.1377 11.9936
71.3117 29.0894 12.0136
70.7006 29.0649 12.0029
67.7137 27.862 11.5184
72.9489 31.1078 13.0115
69.3727 29.5841 12.5883
73.9879 30.792 13.0139
70.7995 30.8469 13.5458
69.621 28.9014 12.2377
66.774 29.4286 12.9917
69.9005 30.3704 13.1243
69.7066 30.9711 13.8733
69.2896 30.1731 13.0507
64.0351 28.1685 12.4546
71.0499 31.9762 14.262
67.9272 31.1322 14.2581
64.5143 28.5848 12.9294
69.5941 31.7642 14.3155
66.2725 30.0809 13.7351
62.8112 29.5961 13.9086
62.882 28.3879 12.9943
69.1043 32.296 15.0006
58.2891 27.4157 13.071
76.425 35.3073 16.1979
67.0843 32.0181 15.2636
61.6881 29.6558 14.1996
60.3148 29.0469 14.0871
59.1125 28.7525 14.1819
61.4932 29.4471 14.0676
61.5537 30.5973 15.451
62.655 29.7015 14.1051
60.7764 30.598 15.5117
62.4225 31.3301 15.6516
61.4541 30.4388 15.0747
59.598 30.3593 15.8397
59.5773 29.6243 15.1338
65.117 32.8251 16.6894
59.895 30.0699 15.294
64.9282 32.8324 16.5572
55.3243 29.6247 15.6204
59.5138 30.8575 16.4737
64.6082 33.1318 17.2049
59.9507 31.2452 16.0511
55.9479 29.58 15.4275
51.2541 27.8065 15.115
55.9347 29.6214 15.8053
55.7356 29.2302 15.5155
52.595 29.0926 16.2496
54.6202 29.3333 15.741
54.1271 29.6674 16.2466
55.127 30.9525 17.573
58.5222 32.1856 17.6739
58.5245 33.0124 18.5508
59.3997 33.2263 18.4751
56.5309 31.8006 18.0639
56.4018 31.2696 17.3183
52.8849 30.1725 17.2706
54.12 30.9614 17.7311
51.574 28.8367 16.2748
50.6291 29.6652 17.2337
49.1896 28.1132 16.2559
50.7015 29.0357 16.6402
49.6707 28.9896 16.9963
50.3426 30.712 18.842
51.6234 29.9225 17.397
48.761 29.282 17.8535
51.3545 30.5634 18.1399
49.7011 30.4105 18.5944
47.9989 28.9859 17.8832
52.1515 30.9933 18.3066
52.7493 33.4321 21.0312
53.1291 31.5653 18.8167
46.5724 28.9745 18.1157
48.2595 29.5514 18.4715
48.5952 31.0876 19.8673
51.3017 32.6923 21.0595
53.2297 32.6656 20.1463
48.183 30.4198 19.454
48.5381 30.9119 20.0046
44.8263 28.3099 18.2248
47.6169 30.3528 19.3082
46.8813 30.773 20.0928
50.5262 32.8175 21.2799
45.9186 29.7073 19.6137
47.0217 30.653 20.527
62.7273 41.246 26.2872
50.7689 32.7837 21.5535
44.2175 29.3613 19.954
45.5568 30.6067 20.9878
47.2229 31.8577 21.8041
46.1976 30.356 20.6796
48.9909 33.1085 22.7189
46.7327 30.7219 20.6036
49.0186 33.3081 22.4897
43.9155 30.1296 20.907
45.7355 31.4357 22.0344
41.407 28.1906 19.5607
48.2289 32.5643 21.7972
44.3633 31.3134 21.8455
41.0216 29.8093 21.8122
42.1791 29.8111 21.5288
43.3121 30.694 21.6147
42.9094 29.6551 20.7909
46.5653 33.5084 24.1281
41.0903 29.181 21.0774
44.7389 32.7947 23.974
42.6535 30.6075 22.332
41.4148 29.6031 21.4739
40.2225 28.9963 21.3902
40.5399 30.4651 22.5267
42.5062 31.3913 23.304
39.1178 28.3753 21.2069
37.6422 27.6077 20.6728
41.7074 31.1403 23.1194
36.3322 28.1466 22.1111
40.6716 30.828 23.125
41.6584 31.1321 23.3945
43.3899 33.5834 25.9912
42.4188 31.8324 24.9431
42.2368 31.3246 23.6407
38.5872 29.2547 22.7792
39.8225 30.991 23.9847
37.9139 29.8648 23.5231
38.673 31.0994 24.923
38.7112 30.0567 23.5595
38.8708 30.9448 24.8603
38.4389 30.8405 24.516
36.5023 29.0596 23.6574
39.1729 30.1719 23.4476
39.7542 31.8681 25.5953
35.8423 29.1279 23.5308
35.8773 29.4967 24.802
37.2778 30.2349 25.4123
36.9182 29.1975 23.7222
39.3689 31.3489 24.7546
35.4563 30.6339 26.5525
41.0506 33.39 27.4695
35.3576 29.1602 24.0554
38.8478 33.9609 29.2302
36.2875 29.9888 25.3205
35.7481 29.2306 23.7993
34.7503 30.1646 25.5125
36.8668 31.7582 26.9373
34.8027 30.115 26.1204
31.4836 26.9736 24.0105
38.9913 33.5163 28.6638
36.6919 32.0842 27.9284
34.8104 29.3265 25.4068
35.3968 30.7768 27.1407
33.7308 30.6754 27.5715
36.4184 33.2136 30.376
35.4024 30.1569 26.7567
34.7414 28.8316 24.0637
36.3417 33.072 29.357
35.1827 32.6945 30.2448
31.1562 27.7079 25.4462
32.6681 29.8307 28.2787
36.2176 30.9259 27.1634
33.309 29.9576 27.0903
32.8579 30.2975 27.9545
30.6919 28.1694 26.6352
35.5153 31.1671 27.219
34.9025 32.745 30.5136
35.7205 32.5007 30.0415
34.4517 32.1102 29.8974
33.9425 31.1986 28.7728
30.8463 28.6851 27.1783
33.6327 31.6332 29.7415
27.7752 26.0805 24.9944
32.3132 31.2551 29.9521
32.5925 31.6159 31.2451
34.3454 31.9256 30.0433
33.2059 31.3694 29.6308
32.9688 33.0341 32.3646
29.7804 28.6066 28.4778
31.4468 29.8317 29.4237
31.6416 30.0759 28.944
29.5141 29.3775 29.384
30.1253 29.1094 29.1002
30.9093 29.5747 28.9562
30.4057 31.0688 33.6927
46.4102 43.7039 39.1336
28.8717 29.5605 30.6425
30.2667 29.722 29.4844
29.2089 29.4132 29.6679
29.5275 29.237 28.6566
25.6939 27.1659 28.6567
30.0131 30.4188 30.7805
30.0324 30.3546 30.9673
28.0704 29.1371 30.6695
30.4009 30.9486 31.7362
26.643 27.3392 29.0791
30.8201 31.9478 33.0734
29.8488 31.0524 32.2887
27.9158 27.8993 28.5053
27.1131 28.3937 30.8956
28.5995 29.1201 29.894
28.1911 29.7102 32.2363
30.4606 31.0641 31.7169
27.1583 28.58 30.442
27.4458 29.4119 31.624
27.1829 28.7616 31.2364
28.7938 31.2709 32.943
24.57 25.6291 28.3306
26.9142 28.878 31.0311
26.7827 28.254 30.2974
25.9977 29.6697 33.7734
28.1235 30.434 34.3045
28.3821 30.7803 32.5667
25.1874 28.0762 31.6663
27.9728 30.5313 33.8771
27.46 30.1271 32.4146
23.9596 27.0211 31.811
28.7846 31.3146 34.1935
27.226 30.9639 35.2035
28.0035 29.9624 32.0692
24.6308 28.7662 33.7136
26.4498 29.7269 34.2765
26.4485 28.52 31.8055
25.5441 29.1486 33.4872
25.052 27.6296 31.0804
27.2745 31.529 35.9716
24.0787 28.6129 34.2971
25.636 30.1714 36.0914
24.3122 27.1046 31.6777
25.9458 29.4908 33.918
25.7326 30.3229 35.3175
22.7543 27.85 34.6806
24.1088 27.5218 32.7617
25.3452 29.0654 34.2098
22.359 24.6589 29.0167
26.897 31.3506 35.8561
23.526 27.2077 31.6543
25.5009 32.2219 39.0431
25.4954 29.1771 34.4414
25.7 30.9796 37.2262
23.7705 28.757 35.2037
23.3891 27.7007 33.3781
22.7385 28.125 35.579
24.521 29.3321 35.2143
22.9854 28.3112 35.0245
22.7314 28.3281 36.3763
24.2974 28.6385 35.0783
24.8957 29.9596 36.3526
22.8705 27.796 34.1647
22.8485 27.8419 34.1395
23.7885 30.6188 38.3323
23.1125 28.828 36.0272
22.6332 29.3469 38.4518
22.7264 27.8084 34.1935
20.6701 25.6911 32.7563
21.6941 27.398 35.3045
23.2975 29.2186 37.5377
22.3184 27.7957 34.9442
21.1091 26.0251 33.0508
21.5926 28.1633 35.8002
20.4724 26.9667 35.588
21.7779 28.2116 36.5737
21.1544 26.6035 34.4895
21.3555 27.5586 35.3461
22.3432 30.1214 39
20.1505 25.6225 35.9731
24.4571 31.2718 40.1654
21.2617 27.38 36.5837
20.487 26.6739 35.2955
19.9276 27.2973 37.6648
20.3803 25.8168 35.0697
22.0557 28.0335 36.5578
22.0939 29.5295 38.6954
19.6386 26.2151 35.4745
19.7282 26.3237 35.8275
20.7561 28.0431 37.0249
21.7411 31.4731 45.0954
21.9966 28.2344 37.1526
20.462 28.6534 40.0276
20.2317 27.1011 38.3618
20.4422 28.9375 45.3232
34.2419 43.7956 52.6013
21.2882 29.2095 40.2896
19.9807 27.265 38.8596
19.9008 27.561 39.1069
20.2203 27.1086 37.4959
19.3117 26.2188 37.2885
19.8259 26.6484 36.2942
19.2153 26.2458 36.5574
19.1418 28.3055 41.247
19.2008 25.7802 35.6148
19.1401 27.4289 40.3911
19.7048 26.7648 38.3975
21.2747 28.8914 40.3435
19.6528 27.9871 40.8473
20.9668 28.7667 39.9143
18.4109 26.1597 37.4516
18.481 26.5153 37.8642
18.0104 25.9141 38.9152
20.0223 28.6647 42.3214
20.5056 29.0946 41.4554
19.7951 28.3416 41.5753
18.8555 27.1135 39.1904
17.2011 25.043 37.2802
18.8277 28.3323 41.3262
18.0064 26.3094 39.5648
18.1832 27.0292 41.0269
18.7585 27.1949 40.6962
18.4831 27.2407 41.2908
20.1122 30.0948 44.3484
18.6841 27.032 39.1881
16.6756 26.1163 41.4303
18.5836 26.7303 40.4351
19.6085 29.2267 42.54
18.3055 27.3017 40.7665
16.9933 25.4094 38.5877
18.1046 28.5312 44.5727
19.0637 27.739 40.607
17.5253 27.6531 42.3298
16.5644 25.2892 38.7066
15.8604 24.8294 41.5965
18.5473 27.3629 41.5986
16.7095 25.32 39.8483
17.9985 27.3448 41.0592
15.4727 24.1394 38.9149
16.6335 24.99 39.452
18.5794 28.0894 42.8912
16.9821 25.4184 39.0112
16.8135 26.771 43.3337
17.5371 27.2263 42.8948
16.3995 25.1117 39.4506
15.7965 25.0172 41.5915
17.8782 27.0401 41.32
16.6188 26.3874 42.0708
17.2926 26.5918 40.7746
14.9102 24.6161 42.1114
17.0118 26.0473 41.812
17.2423 27.3718 42.8896
15.8113 25.282 42.5288
17.7794 27.5648 42.5183
15.0413 25.191 41.6288
15.7002 25.6197 43.3091
15.6326 23.759 38.4057
15.0912 24.3883 41.1265
15.3667 24.486 40.6869
15.8707 25.6055 42.1475
15.6647 24.9038 40.8441
15.8711 25.3957 40.1944
13.6022 22.8298 39.2935
16.0882 26.4894 42.5935
13.8434 22.5818 37.6531
15.2451 26.5834 45.0277
14.5397 23.9155 41.37
14.7409 24.1122 40.5953
14.8285 24.6364 41.1184
15.4062 25.6199 43.1115
15.5476 26.5617 45.4937
14.878 25.2579 45.8715
16.122 26.3316 44.9907
15.6969 25.106 41.7381
14.3099 24.4976 44.2601
16.0447 26.386 43.2912
14.1963 24.0513 40.543
12.8115 21.8057 39.302
14.719 25.6773 45.9764
15.1524 23.8926 40.4807
15.1635 25.4542 41.4584
13.841 24.2186 42.2656
14.1114 24.6507 43.5381
13.7845 23.9295 44.2078
16.1943 26.3831 42.1752
13.2558 24.2592 45.3583
14.8894 25.702 45.434
13.8901 23.4849 41.8777
13.6925 24.0485 43.1753
15.3412 28.0648 50.5939
14.1993 25.6952 54.9752
23.2435 38.7626 57.4631
13.474 24.5583 46.1729
14.7031 25.5725 45.1432
13.8173 24.2295 43.7162
14.092 24.7697 43.4102
13.2848 23.827 42.5346
13.1408 25.0041 48.0018
13.0926 21.7082 39.9171
13.1652 23.1076 40.2552
11.9394 21.3247 40.2241
13.3591 24.1962 43.3875
12.4726 23.0394 43.2887
13.1255 23.0099 42.455
13.3835 24.0179 43.7338
12.9685 23.8228 44.744
13.5358 24.7714 46.0334
12.58 22.8424 44.1895
13.8614 24.6575 46.5578
13.4859 22.455 40.5668
13.7429 25.3613 43.8837
11.3037 22.0709 43.2057
12.8803 24.105 46.148
12.2062 21.7005 41.4763
12.6234 23.3634 44.8488
12.7404 22.9472 43.1169
12.0685 21.5984 41.3597
12.0059 22.4296 42.7587
12.8551 23.7519 44.6551
12.0002 22.3123 43.4478
12.8535 23.1267 42.5034
12.448 23.2845 43.7968
12.5965 24.0101 44.0476
11.5962 23.1318 47.3723
13.2751 24.9096 47.7292
12.5047 21.9784 42.9573
13.4091 24.8949 45.7228
12.1235 23.9973 46.6857
12.3385 23.5602 46.8319
11.953 22.5466 43.3005
11.8707 24.1291 49.0318
12.5783 23.2558 46.1365
12.5052 23.1609 44.0423
11.8365 22.973 45.3299
11.2636 21.0346 40.9922
11.105 22.3507 46.302
11.744 22.2117 44.8939
12.2727 24.0467 48.1631
12.3473 23.1592 44.96
12.1131 23.0685 44.262
11.1874 21.4267 43.3606
12.154 23.8582 47.1838
12.0913 23.7816 46.1002
11.6907 24.3705 50.5333
11.4327 21.1669 43.778
12.5273 24.2026 45.796
11.0455 22.702 46.2402
11.5561 22.9851 46.3519
11.7824 23.6875 48.1914
11.0367 21.9048 45.474
11.1592 21.106 41.3183
10.8071 22.6735 48.7798
11.2061 21.7031 43.9452
11.327 22.5449 46.0092
10.9352 21.3879 44.2032
11.0318 22.7527 48.3632
11.4912 21.8865 42.4765
10.143 21.3709 45.6298
10.5629 21.1097 44.2171
11.0878 22.7433 47.3361
11.0405 22.8435 49.1947
11.9313 24.8863 51.5448
11.2373 22.5351 48.2532
10.5139 20.3873 43.7614
11.2534 22.4367 45.4634
10.144 20.4377 42.6048
10.9044 22.7718 46.2899
9.28871 19.3665 43.7728
10.2532 20.7658 44.1094
10.5716 22.5312 47.8661
11.048 22.6911 47.8573
10.7923 22.6212 48.596
11.6347 23.773 46.9131
9.55677 22.061 49.1808
9.9003 20.7729 48.8635
11.0182 21.8838 45.9064
10.8896 23.1034 50.0813
10.8986 22.7302 47.1441
10.0129 21.7552 48.4574
10.3208 22.0665 48.6321
10.4816 22.2716 47.4177
10.0781 21.6189 48.1536
10.2764 21.3455 45.372
9.36625 19.4571 43.8342
10.3102 22.9122 49.2237
9.60119 20.9292 48.8351
10.0237 22.2679 58.4826
15.1508 28.7374 49.9439
9.7553 22.9888 51.0069
9.34801 19.4334 45.4798
10.0785 21.0139 44.7816
9.52593 20.9694 48.7528
10.6115 22.7176 47.4743
10.034 22.7105 49.9431
9.33339 20.4556 47.6855
9.6034 20.5475 47.54
10.3094 22.0528 47.3074
9.4137 20.7302 45.4483
9.3824 21.5011 48.3166
8.85055 18.8422 43.49
9.05271 20.2894 46.2469
9.39739 20.2186 44.3776
8.41461 18.8618 46.5139
10.3137 21.6977 46.4551
9.64307 21.5208 46.9508
8.90799 20.3933 46.1068
8.72506 18.564 42.7689
8.89108 20.8036 48.9886
9.79621 20.6751 45.0536
9.11455 21.7818 49.4923
8.67093 19.0937 44.173
8.71645 20.3043 48.4847
9.04981 19.5528 45.1085
8.7976 20.3844 48.4545
9.63886 21.2076 48.5963
9.45186 21.7044 52.1442
10.0046 20.9873 44.0413
8.15813 19.8733 48.0264
9.30486 22.017 52.2616
9.23063 20.2235 45.0617
8.24291 20.1759 50.2232
9.35865 20.6325 48.763
9.4834 21.068 48.8227
8.71495 19.5175 47.4383
9.28164 21.3256 49.4377
9.12396 20.9787 49.8075
9.42473 21.7175 50.7525
9.18376 20.7717 47.5659
7.95714 19.0725 46.86
8.97569 20.7406 50.0634
8.85926 20.344 49.4977
9.18058 20.3897 46.8404
8.15439 20.1594 50.0292
9.08332 20.8727 51.0145
8.51312 18.4957 43.7743
8.14421 20.2019 50.8916
9.52192 21.498 49.7446
8.77054 20.3127 46.4233
7.53803 18.4502 48.117
8.52189 19.932 49.694
8.55616 19.9218 47.8066
8.31597 19.2291 46.53
8.32678 19.642 48.0496
8.42875 21.072 52.3008
8.53039 19.483 46.5323
7.6607 17.5236 46.3806
8.33339 19.3537 48.9628
8.9487 19.7087 46.503
8.73359 22.0509 53.7381
8.45988 20.0884 49.4941
8.10892 18.2367 45.6106
