# pn-170911/RbII-av-RbIIA-1280-1959.psd
# Power spectrum* (dif=0,1,2) (really just |FT|^2)
# NOTE: only the first half! (symmetric)
# weeks: 1280-1959
# 179 clock-days, 159 excluded
# PSD: 1441
18004.3 0.298701 0.0154192
1.00923e+06 21.7599 0.00801775
1.50518e+06 29.0378 0.00790718
516273 14.6621 0.00753648
280095 16.1887 0.00813132
148100 9.4821 0.00876009
104420 9.42469 0.0106156
73820.4 10.0464 0.0100255
57014.7 10.2881 0.0114648
43499.1 9.73511 0.0115076
35572.4 10.2985 0.0117469
31823.4 10.9214 0.0140073
24384.4 9.75709 0.0136737
21152.7 9.28393 0.0171708
18940.4 9.08288 0.0157469
15249.2 9.58544 0.018405
13071.9 8.80513 0.0163551
11812.2 9.09462 0.0194987
9162.87 7.76341 0.0229052
8972.45 8.01918 0.0207606
8047.69 8.38756 0.0238394
7576.85 8.96363 0.0274614
7627.73 9.68543 0.0297263
6784.7 9.27512 0.0290022
5456.66 7.52679 0.0272388
5496.75 9.3211 0.0304219
5606.81 10.2267 0.0383221
4699.45 9.66845 0.0401293
4247.93 9.92199 0.0446234
4226.63 9.92217 0.0485056
3772.31 9.49598 0.0457516
3231.4 7.64742 0.043831
3888.58 11.0955 0.063197
3152.73 8.86848 0.0528276
2935.12 9.29222 0.0587266
2847.62 8.91776 0.0589264
2701.93 8.06591 0.0566394
2433.95 8.83687 0.0604541
2413.45 10.0412 0.076077
2171.15 8.76608 0.0675977
2060.49 7.94837 0.0662165
2477.15 10.6108 0.0905389
1988.77 10.3123 0.0922657
1755.84 8.62375 0.090878
2056.9 10.5553 0.11027
1735.25 9.29187 0.101056
1742.94 9.40924 0.101778
1594.53 9.346 0.10972
1503.99 8.85413 0.106554
1433.49 8.87007 0.109492
1230.81 8.4615 0.109542
1336.52 7.91673 0.103641
1241.49 9.65493 0.130082
1168.94 8.67552 0.117186
1131.5 8.97646 0.13107
1090.89 7.69583 0.122611
1039.96 7.79773 0.125981
1142.43 8.60095 0.1465
1123.18 10.063 0.172592
1040.09 8.96964 0.159919
928.817 9.00861 0.154665
950.321 8.79143 0.151582
868.79 7.84693 0.147998
869.775 9.09946 0.183936
926.856 9.92196 0.21259
840.309 9.66605 0.207275
762.172 8.57865 0.177081
856.296 10.4037 0.231939
751.124 9.10341 0.210097
736.239 8.62171 0.198378
679.27 8.65513 0.198917
762.723 10.5803 0.26486
670.351 8.71874 0.229978
652.613 8.39211 0.226729
664.636 9.26513 0.252393
675.922 9.70249 0.267582
593.282 8.89841 0.255501
618.155 9.68906 0.285821
535.914 8.584 0.254234
493.268 9.58872 0.295927
550.306 8.45485 0.268843
531.442 10.1121 0.315736
506.301 9.37844 0.307233
524.601 9.25594 0.323966
476.69 9.12283 0.317221
539.952 10.4949 0.366671
525.387 9.31034 0.339545
446.892 10.0692 0.368388
438.765 8.904 0.323336
415.059 8.93655 0.355642
384.732 8.64959 0.332335
416.718 8.93627 0.347801
439.051 10.3968 0.412079
389.832 8.79156 0.369535
384.708 8.53161 0.37349
371.718 9.74006 0.424846
399.926 9.4817 0.418587
405.624 10.126 0.442767
393.72 10.2733 0.483771
380.828 8.88199 0.423266
335.098 8.58 0.422389
339.345 9.58406 0.481955
335.824 8.62564 0.438251
329.692 9.34781 0.469911
377.378 9.80632 0.509576
295.787 8.56422 0.46031
289.837 8.30927 0.45834
343.747 9.91033 0.545077
288.379 9.12337 0.509818
278.889 8.50811 0.498202
341.253 11.2338 0.652536
303.73 10.0443 0.608733
316.834 8.74808 0.509367
265.307 8.77269 0.530838
283.127 9.10639 0.587223
281.229 8.66423 0.565532
276.663 9.87501 0.672436
237.215 8.44756 0.557639
259.082 10.2064 0.681534
235.108 8.81522 0.602153
237.167 8.66865 0.608247
258.405 9.91835 0.687846
237.464 9.08269 0.64833
237.633 9.03557 0.67798
242.964 9.45657 0.677717
228.45 7.93442 0.582685
221.639 8.54052 0.625752
221.847 9.08454 0.698667
210.513 7.79047 0.605019
195.07 8.41753 0.660031
212.298 9.25252 0.742138
216.753 9.15195 0.744888
166.473 8.31567 0.709698
186.71 7.88293 0.645111
195.345 8.8745 0.757519
194.76 10.3084 0.872875
172.874 7.57938 0.677046
189.601 9.96677 0.884362
176.384 9.26059 0.813059
170.424 8.62563 0.784834
164.392 8.46622 0.790949
157.215 8.41473 0.785477
173.959 9.13862 0.896548
167.576 8.70521 0.824714
174.351 9.41021 0.944762
170.529 10.1337 0.983509
159.332 8.92146 0.899534
161.441 8.75884 0.909489
151.753 8.35843 0.884475
157.904 8.87673 0.930996
163.806 9.31663 0.998915
165.983 9.73697 1.05022
156.368 10.3514 1.14846
154.676 10.329 1.13186
141.557 9.57839 1.12325
150.791 9.77601 1.06822
149.087 9.42786 1.07378
151.052 9.32541 1.09586
137.278 8.36039 1.01068
137.303 8.98914 1.08132
133.546 8.87265 1.07556
141.71 9.42871 1.16725
139.148 8.83798 1.10294
138.137 9.12421 1.15425
128.814 8.18287 1.02663
130.992 9.20039 1.23794
148.44 10.9075 1.39007
129.162 9.77637 1.31574
121.257 7.90885 1.06091
116.822 9.25637 1.23339
123.769 8.83076 1.2147
117.596 9.11459 1.2955
122.65 10.7855 1.48394
123.601 9.00363 1.26002
122.617 9.66693 1.35796
110.896 8.52668 1.25156
123.621 9.71512 1.46053
113.346 9.86309 1.44115
120.168 10.5019 1.55805
99.9961 8.2548 1.27534
113.925 10.4451 1.52195
109.222 9.80914 1.56759
106.071 9.40907 1.4548
108.488 10.0997 1.60798
108.994 8.78133 1.43218
94.5679 7.87113 1.31518
100.558 8.67129 1.38787
102.405 9.15876 1.52246
90.2365 8.6288 1.45321
88.7347 8.32819 1.40404
101.53 9.30006 1.5735
106.016 10.8182 1.83148
111.029 10.548 1.81804
100.745 9.12285 1.54852
96.3684 8.55942 1.56469
96.3436 9.04523 1.57611
78.9366 7.40068 1.36604
93.027 9.17848 1.68862
92.4831 8.87678 1.62876
98.983 10.2247 1.86248
91.1116 8.71789 1.57449
84.6887 9.00617 1.7051
91.3823 9.19938 1.83335
95.9769 11.1764 2.20053
88.3664 10.1251 2.01107
88.5573 9.11036 1.75001
77.251 8.50965 1.71174
76.3713 8.25405 1.6277
81.0753 9.9429 2.04894
81.2311 9.9305 2.04617
81.8269 9.18429 1.83074
78.3834 9.97439 2.04343
78.7901 9.43641 1.96274
87.1654 10.2833 2.18426
91.4852 10.4921 2.24342
74.2513 8.80107 1.92408
81.6616 8.62349 1.90389
76.7185 8.92242 1.93861
74.2732 9.12586 2.05428
87.1857 9.52987 2.16222
63.7735 7.82812 1.78097
75.2967 8.56673 1.94619
70.271 9.09639 2.11382
67.2659 9.0985 2.07615
67.4342 8.05176 1.98738
73.946 10.3415 2.43575
69.402 9.46887 2.21946
73.3349 9.012 2.13932
66.2684 8.92773 2.15513
82.5827 10.7401 2.63914
65.0037 9.26661 2.2833
63.7714 8.98779 2.25663
67.6593 10.04 2.61235
63.0319 9.41426 2.33729
59.3344 7.68767 2.0127
66.6671 9.58856 2.41433
60.7595 8.80835 2.32314
68.1006 9.12933 2.39935
64.2531 9.65747 2.52119
62.6975 8.8616 2.3745
60.9548 8.88358 2.35186
62.7568 10.2885 2.84068
62.1199 8.13235 2.21436
60.4183 9.17705 2.43585
58.8827 9.61048 2.67678
63.07 9.5842 2.61948
62.8017 9.81503 2.82942
55.8538 8.59924 2.3455
67.6885 10.8999 3.11437
56.2684 8.80625 2.54901
60.981 9.61208 2.76191
65.1282 10.9314 3.24773
59.7567 11.0851 3.25986
57.0241 9.59878 2.89415
53.2659 8.74747 2.72322
50.2284 8.42657 2.54587
50.8049 7.44297 2.30162
60.674 10.2874 3.15215
55.0008 9.43351 2.89687
50.0103 9.13358 2.81589
52.8299 10.2956 3.2087
53.1699 9.01574 2.83915
52.2566 8.92212 2.87339
53.6735 9.67812 3.0345
52.2129 9.2588 2.96703
44.742 8.23427 2.71012
53.5801 9.18213 2.94049
48.1464 7.7334 2.62381
51.8658 9.69226 3.23709
48.9547 9.2575 3.12577
49.7802 9.53218 3.21639
54.3053 10.5598 3.63899
49.4459 7.72721 2.60324
44.7332 8.18098 2.84571
48.9973 9.51023 3.31584
45.7702 8.01539 2.74299
44.0742 9.03676 3.17763
46.4859 9.18536 3.3844
45.9341 9.33136 3.24591
46.4738 9.92081 3.58499
45.7781 7.93112 2.96118
43.562 9.24556 3.25989
44.3147 8.42811 3.07862
47.1871 9.45093 3.65323
42.9733 9.14646 3.54715
49.3304 9.67182 3.6589
44.1526 8.70033 3.26358
44.4475 9.24771 3.54644
43.975 9.51668 3.58979
46.9393 10.4998 4.04381
49.7538 11.5558 4.50414
42.569 9.23648 3.75143
46.0013 9.95829 3.77819
45.57 9.61156 3.68304
42.9 9.3439 3.69891
43.9479 8.67974 3.39208
50.8246 12.9813 5.2374
39.3188 8.93541 3.76589
44.4608 9.80051 3.90154
40.0641 8.92282 3.68043
41.4775 8.87675 3.7516
38.0452 8.80885 3.7095
41.6721 9.19322 3.81579
37.521 9.7024 4.11837
39.3227 10.128 4.25123
35.824 8.67002 3.64273
40.6194 9.3521 4.00677
39.6939 8.71986 3.62271
40.5497 10.1051 4.31606
44.3394 9.82039 4.17622
34.8167 8.62479 3.90667
35.4049 9.20016 4.04475
35.6656 7.65005 3.47336
38.0133 9.43968 4.23234
40.2241 9.33129 4.16269
35.4836 8.74922 3.84193
37.2103 9.47178 4.43961
36.3874 8.91248 4.17651
34.3429 7.83772 3.75188
34.5375 9.05877 4.07804
35.3718 8.34214 3.93321
35.3422 9.36814 4.50906
36.94 8.98581 4.23982
33.6671 8.95695 4.49604
35.1513 9.26378 4.43425
34.3853 8.83506 4.23931
35.786 9.17902 4.43233
38.1297 11.4358 5.79796
34.4291 9.37656 4.58013
33.5944 9.59538 4.66773
34.4404 9.59474 4.97247
34.6956 10.4165 5.17498
31.5985 9.41853 4.46797
33.583 9.17385 4.65411
33.5895 9.56124 4.94076
35.1166 9.56688 5.02914
30.8201 8.40559 4.27531
30.3423 8.88499 4.38697
37.0502 10.597 5.50099
35.1541 10.9775 5.89016
33.6095 9.84975 5.15893
28.6863 8.78705 4.74091
31.5148 10.0053 5.34007
34.2254 10.7986 5.64309
29.554 7.99522 4.27868
27.0913 7.61184 3.99119
32.1248 8.62194 4.71331
32.4283 9.58611 5.33264
28.1501 9.31565 5.33381
29.9144 8.67702 4.68112
27.1945 8.88814 4.94115
29.0975 8.81396 4.92022
31.0262 9.47542 5.38287
30.8385 9.59714 5.34315
30.3834 8.75651 5.14189
30.7614 10.3913 5.97797
31.0009 10.1746 5.91794
33.0685 9.22291 5.28471
25.922 8.83742 4.91286
28.6666 9.75036 5.91607
31.6184 10.4409 5.74926
28.4792 10.2265 6.10601
26.4717 8.50435 5.00231
27.6873 9.14013 5.77343
29.0526 10.1074 6.01982
26.1244 7.79172 4.6795
28.0707 9.07314 5.5668
29.417 9.92835 5.77372
25.1464 8.35983 5.03334
25.8403 9.85616 6.15875
27.6505 8.07401 5.03102
27.0269 10.438 6.81211
29.1757 9.73744 6.08315
29.7528 9.67208 6.00566
24.0131 8.51681 5.53438
27.6596 10.6114 6.56606
27.7943 9.75594 6.1234
27.354 9.44219 6.00809
28.7786 8.8469 5.44558
26.7143 9.02421 6.08217
28.2922 10.9608 7.01981
26.7483 9.41323 6.06668
25.4152 9.25949 5.99112
25.9357 9.47252 6.06733
25.1555 10.0304 6.78119
25.2317 9.72818 6.64445
29.6082 8.91998 5.54919
23.0782 8.45714 5.90265
25.64 9.23204 6.2182
22.6077 8.85761 6.15194
22.8395 8.49606 6.1004
25.4058 10.3846 7.13705
22.7272 8.29027 5.85088
25.1881 9.53529 6.54647
26.8889 10.7542 7.43085
22.3994 9.23025 6.44728
24.3535 9.61324 7.07389
28.0813 10.8652 7.35983
24.1271 9.50953 6.77826
25.737 9.52678 6.83551
21.906 8.81208 6.65751
22.2656 8.67057 6.26173
24.7644 10.2397 7.43411
24.3303 10.1859 7.13172
23.4755 9.99386 7.20881
22.1322 8.8496 6.80016
24.7448 10.7372 7.47264
23.1214 8.12583 5.97701
20.8814 9.30984 7.30626
23.2604 10.2869 7.41661
22.9784 8.01556 6.00537
20.6919 8.37166 6.23624
22.6066 11.0937 8.479
23.9327 8.87667 6.6901
20.8742 9.58141 7.27081
22.4935 9.43889 7.33229
22.0402 9.42489 7.10868
20.6832 8.97173 7.07908
24.3438 9.06318 6.84421
20.7667 8.98318 7.15749
23.3663 10.607 8.27905
20.3895 8.88707 7.20398
22.6095 9.30892 7.77909
22.802 9.84248 7.25888
20.3583 8.86536 7.07456
19.245 7.94083 6.44819
21.1511 9.77207 7.70987
21.2214 9.75757 7.73935
20.6552 8.80285 7.18963
20.2982 8.28312 7.01905
19.8943 8.62254 6.93314
20.4167 8.91422 7.13587
19.9889 10.1565 8.3239
21.8045 11.1098 8.94508
20.8131 10.5921 8.81243
22.0913 10.9923 9.27191
18.3337 8.33309 7.47502
19.1682 7.84419 6.37352
18.225 7.86811 6.53578
22.4807 12.312 10.8513
19.693 9.31801 7.41447
20.0059 9.86379 9.04319
22.5103 10.4004 8.54271
21.2868 9.16581 7.51756
20.511 9.93128 8.80984
19.0153 10.0703 9.06938
21.6062 10.8051 9.27341
19.804 8.53667 7.67112
19.6196 9.27821 8.2834
19.9597 9.33132 8.34953
19.6767 10.6007 8.98244
17.294 8.6573 7.817
19.8065 10.6047 9.94783
21.1806 9.08925 8.13462
18.1705 9.30947 8.47898
21.8167 11.0039 10.1008
18.5799 9.89033 9.45727
22.324 10.9621 9.39595
18.0855 9.51575 8.93722
17.936 9.01357 8.5821
19.9104 11.6609 10.8166
18.2788 8.66924 7.97434
18.4523 9.21087 8.56724
17.9081 8.45677 7.91417
18.0583 9.89573 9.27664
17.2947 8.32397 7.75388
17.3429 8.82167 8.61457
16.8944 9.42286 9.3493
21.1942 11.5918 10.2073
17.3233 9.41261 8.84536
15.4089 8.31643 8.23666
18.1569 9.35712 9.60339
18.6539 10.2866 9.65251
17.4624 10.2769 9.73936
17.1077 8.4628 8.61418
16.0811 9.4958 9.21313
17.3196 9.51863 9.1308
19.5042 10.735 10.287
16.1446 9.28879 9.77871
17.7909 8.79127 9.17873
15.0915 9.43954 9.39062
17.4209 9.6944 9.36077
17.115 8.74903 9.36707
15.6759 9.69912 9.92447
18.3165 9.83199 10.11
18.4911 11.3181 11.2103
15.803 9.40818 9.68779
19.2428 10.6379 10.902
17.3187 10.3809 9.89787
15.4357 9.09591 9.91567
18.6669 11.4068 11.482
16.232 9.39179 9.73272
15.7989 9.38961 9.87879
17.4946 10.2454 10.5305
15.786 9.64684 10.1126
16.0627 8.49422 9.24511
14.3557 8.39622 8.79439
15.8677 10.4492 11.3774
17.2483 10.1419 10.621
13.9894 8.32323 9.18178
16.7161 9.78635 11.3997
18.0294 10.8664 11.118
17.117 9.80205 10.3331
18.6516 11.4135 13.1405
16.9136 9.29222 10.4093
15.2615 8.4724 8.78239
15.098 9.39131 10.7725
15.1477 10.2238 10.6266
15.2071 9.21195 10.9561
16.77 9.72207 10.1176
14.2672 8.87322 10.0859
16.8429 9.79349 10.6953
15.0894 9.40879 10.593
16.8267 9.97887 11.3303
15.9035 9.36643 11.0151
14.8631 10.9526 12.4664
14.6248 9.1026 10.8344
15.5582 9.43355 10.5244
14.7485 9.75045 11.273
15.6756 8.50414 9.94899
13.752 9.9448 11.0131
15.2338 9.99323 11.4588
14.2511 9.72133 11.8014
14.4046 9.0031 10.5673
17.2331 10.7877 12.9554
15.1216 9.26966 10.5984
15.1101 9.88608 11.1442
14.4559 9.07262 10.906
12.2611 9.5051 11.4172
14.8317 9.9607 11.9774
15.2199 8.75261 10.8655
14.0008 10.8846 12.7851
16.0253 10.8881 13.0293
15.9741 10.1558 12.4533
13.2304 8.46506 9.70697
14.4044 9.49654 11.3934
13.2258 9.65152 12.5871
14.6062 9.0857 11.418
13.9265 9.71133 11.9554
12.4142 9.00561 10.9357
14.4868 10.3079 12.7829
13.7611 10.3625 13.0107
14.6469 10.1154 12.487
15.021 9.44128 11.5892
13.6448 9.39759 11.6673
13.7155 9.54664 12.0525
13.4759 9.43434 12.4028
13.5825 11.804 14.1734
14.6633 9.81202 12.2282
12.1369 9.11088 12.3298
14.3467 9.63663 12.198
14.2791 9.14163 11.1465
12.6925 9.68867 12.6124
14.9723 11.333 14.9809
13.4013 9.80326 12.0494
11.7029 9.41589 12.6556
14.1301 10.018 13.0486
13.3265 9.60928 11.8747
14.5477 11.6566 14.5644
13.3517 9.90023 13.7335
14.1751 9.97678 12.97
13.1658 9.20512 11.6882
14.3222 9.62041 12.5185
11.5827 10.1692 14.4047
13.9533 10.5784 13.9625
12.0695 9.06382 13.0035
15.2182 11.7034 14.8503
14.1693 11.1776 14.7937
13.0205 10.9907 14.0656
13.4924 10.2793 13.9729
13.5625 10.9357 15.727
12.8652 10.6899 14.765
13.7477 10.4272 14.8563
13.5432 11.8185 15.4217
11.9999 10.6137 15.4381
14.0878 10.5656 13.7325
13.3075 11.0745 14.6348
13.6472 10.5283 14.9731
13.8957 10.2469 14.5646
11.6171 9.15051 13.3757
13.4211 10.5321 14.6041
10.7338 9.16211 12.1553
11.8662 10.4047 15.0037
12.3867 8.98255 12.13
11.9295 10.8544 15.9513
13.4277 9.66709 13.7968
13.3209 9.70172 13.6862
10.2696 8.25384 12.849
13.5589 10.5412 15.4376
13.0782 11.4533 15.746
12.5681 10.1326 14.6112
11.5637 9.88984 14.3975
10.4666 8.25898 12.2999
13.6662 10.3009 14.3507
13.1246 10.9371 15.6075
12.1612 10.7711 16.2076
12.9987 11.1455 16.6805
12.7589 11.0388 15.681
10.9304 8.37024 12.6846
12.7928 10.6423 17.2467
12.8787 11.259 16.1477
14.44 12.7328 18.3664
12.8957 10.4064 15.8284
11.7226 11.38 16.5128
13.2328 10.8099 17.1708
10.8036 9.14741 13.1002
11.911 11.3481 16.9917
12.8298 10.4301 15.6557
12.2233 11.0947 16.9009
12.1705 9.31953 14.0642
12.7618 13.8171 22.4048
12.5708 10.7744 15.9083
12.7194 9.27709 14.1685
10.6118 9.31605 15.2859
12.0754 9.68194 14.8662
11.8361 9.08409 13.3965
11.0851 10.804 16.6048
12.0214 9.7136 16.9027
12.6363 11.5343 17.073
10.7721 10.7818 16.0358
12.1995 10.2476 15.5485
10.6895 8.26846 13.9327
11.9999 11.7209 17.297
11.412 10.5166 15.7615
10.8562 10.6388 16.2763
11.5665 9.61128 14.8177
10.2124 9.22561 15.6483
10.735 9.50422 15.8438
12.7533 11.8239 17.8439
10.2532 9.83068 16.1833
12.4784 11.2268 17.6972
10.5518 9.66337 16.357
12.0782 11.0679 17.8162
11.4279 9.80879 16.3885
12.199 11.2918 18.6918
12.2419 12.3946 19.8005
12.334 11.5034 17.7622
10.3857 10.3384 16.7628
10.7019 10.1928 16.6872
11.6353 9.84615 15.4714
9.40973 8.84188 15.3395
11.4782 9.90036 16.235
10.3901 9.16211 15.6725
10.0893 9.65532 16.1498
11.8876 9.91737 16.3577
9.36332 9.42288 15.3579
9.92221 9.90894 16.0724
10.0135 9.22179 16.8833
9.76385 8.05186 13.1538
10.7158 10.2166 17.4125
9.52159 8.61754 14.9257
9.99563 9.3988 15.7568
10.074 8.31358 15.0206
9.67072 9.14333 16.935
11.4494 10.0889 17.8918
11.706 10.7234 16.3675
10.001 10.0185 17.3316
10.6704 9.98398 18.0559
10.1545 9.72958 16.4395
10.6315 10.6271 18.8548
11.4614 9.32857 15.3217
10.3051 10.3653 18.7665
10.4474 9.30006 16.0418
9.89382 9.30732 16.8239
10.6319 11.0192 18.6663
10.8931 9.47061 15.9184
10.5436 10.7 18.7392
9.23979 9.55085 17.8612
11.3392 10.6914 18.7269
8.89926 10.6476 19.7732
10.9908 10.5525 20.5693
11.6117 12.2383 19.3813
9.66253 10.4753 19.1963
11.7714 11.1939 18.9275
9.85515 10.9824 20.8911
9.23329 8.64558 15.8887
10.8852 11.5358 20.0422
10.0817 9.97765 18.5572
10.3759 9.74033 17.8126
9.55858 9.47206 17.7118
10.0113 11.3672 20.0762
10.7233 10.5494 20.0237
10.4323 9.82989 17.545
10.2298 9.57434 16.6957
9.72664 10.0894 20.3955
9.01708 10.7975 20.4535
10.5782 11.3467 20.0216
9.45116 10.5486 20.8883
10.3317 11.4699 22.7391
11.0294 10.5369 18.0256
10.3565 10.8041 19.0768
8.98851 9.97712 19.8732
10.5058 10.9006 20.369
9.52294 12.0495 20.319
10.7799 12.2913 23.81
10.9128 11.8251 22.542
9.46326 10.2779 19.8439
9.79052 9.96409 18.9832
9.47164 11.6108 21.4671
9.24771 10.3709 19.7438
9.58935 8.83823 18.6603
10.1752 10.7218 20.9344
10.9443 12.8402 24.1646
9.2603 10.2066 19.3912
9.6614 11.0231 19.7913
9.88285 10.7584 22.4733
10.036 10.7998 20.3838
10.875 12.3432 25.3594
10.1146 10.1632 18.2157
8.59612 10.5765 21.2372
10.1593 10.7134 19.451
9.07748 10.7873 22.6033
10.8293 12.4222 21.9952
8.94654 9.96267 21.2245
9.69768 12.1584 24.5358
10.5613 11.9615 22.9688
9.25531 8.4414 17.6718
8.64012 10.2273 20.8978
10.4323 11.5101 23.3648
9.5496 11.1244 21.2843
9.47561 11.777 24.2945
11.1923 11.5227 21.3885
9.54884 10.8386 21.9473
10.1121 12.0782 20.8656
8.51332 10.2918 21.5442
7.94456 11.1566 22.4039
9.94007 10.5502 21.9523
9.2649 10.7194 22.3945
9.34425 11.6481 22.0349
8.53313 10.1559 23.6335
9.12358 9.60472 20.1217
9.4948 10.1052 18.5167
9.4189 10.6463 23.3934
8.4393 10.3234 20.1062
10.0458 10.0902 19.9303
8.51709 11.0056 23.0938
8.10412 9.67787 20.5494
9.4365 9.62524 21.3636
9.00215 11.2716 22.0929
9.01936 10.3996 22.8344
8.89147 9.96489 19.7274
8.48436 11.3018 24.4484
9.81731 10.15 20.1812
9.21464 12.1945 26.0274
8.61026 9.91671 21.947
9.89582 10.6811 22.7538
8.76612 12.0047 24.2786
9.35308 11.2423 23.7422
8.94728 9.31116 20.3468
8.30684 10.2808 21.9283
8.51472 10.6085 21.6817
8.89474 11.4185 25.8011
9.22415 11.308 24.56
9.35092 10.9945 24.2723
8.67516 11.272 22.911
8.51086 10.8914 21.8935
7.67152 8.84911 21.7701
8.9636 10.9655 24.2375
8.99147 10.7405 22.5865
8.68881 10.175 22.3209
8.27877 11.542 26.0422
10.2649 11.8202 23.1446
7.29528 8.83236 19.5815
8.45063 10.8044 22.4707
8.51316 9.72954 22.578
8.56627 10.4346 20.9833
8.30457 9.21605 21.5134
9.18298 11.6603 22.7536
7.78551 11.7407 26.2472
8.31884 10.6168 23.867
7.31166 9.01796 23.8981
9.0268 10.623 22.8437
8.61059 9.99825 21.0592
7.43627 9.59422 22.5923
9.57372 11.2705 24.2619
7.48887 9.75186 20.9099
7.83018 9.37142 21.1329
8.17804 11.0657 28.4226
8.40418 9.24184 17.6852
7.62236 8.83988 22.6408
8.6878 11.1756 23.5966
6.8112 9.6745 22.2985
8.58702 10.4757 24.0723
8.22358 10.8455 23.345
8.0696 10.7247 25.3685
9.5127 11.4107 25.5078
7.13918 10.2866 25.11
8.0304 10.9129 24.0959
8.04416 10.8481 23.0166
6.82064 9.83111 23.3263
8.17993 10.73 24.8425
7.86658 9.55084 23.1817
8.02283 10.7751 25.1892
8.42995 10.9511 24.4392
7.43127 8.80739 20.0527
7.95994 10.9596 26.0622
7.45805 9.80042 25.6331
7.37669 10.4475 24.9447
8.86347 9.77458 22.2299
7.85419 9.55647 20.215
7.3161 10.3142 23.8268
8.35369 11.4038 26.1438
6.99096 8.99295 22.7272
7.67656 8.96915 21.0492
7.68426 10.2181 26.2822
8.44085 11.5432 25.9181
8.27686 11.0997 27.0426
6.85595 9.92292 25.6651
7.49151 10.424 24.788
7.72841 9.10729 22.6216
6.97206 11.0767 26.2723
8.28069 10.2036 23.4091
7.49774 9.55581 22.4989
7.62804 10.2482 24.1795
8.02922 10.6674 26.7425
7.13668 9.39393 22.0797
7.82886 11.8811 26.5027
7.86695 8.62097 23.8827
7.40571 10.3761 23.0817
7.78216 10.7284 28.2139
8.25207 11.8303 25.8848
7.25214 10.5147 23.7173
7.49573 8.91318 22.5502
6.75626 10.7978 26.9268
6.90009 8.71849 23.2556
8.46293 12.3215 31.0868
7.64425 11.7793 28.7805
