# pn-170911/RbIIR-52-NIST-1280-1959.psd
# Power spectrum* (dif=0,1,2) (really just |FT|^2)
# NOTE: only the first half! (symmetric)
# weeks: 1280-1959
# 6 clock-days, 0 excluded
# PSD: 1441
102.257 0.0266916 0.0420506
16503.9 0.7121 0.0222477
108109 2.09417 0.090395
11912.9 0.592883 0.118251
65414.8 5.05746 0.104847
12584.5 0.940955 0.090475
5616.13 0.582961 0.110962
2743.02 0.329327 0.150038
6833.24 1.83258 0.0332291
3228.94 0.784411 0.0684652
1304.81 0.403111 0.0596083
1152.58 0.515123 0.0465062
2940.04 1.29419 0.0460514
1563.76 0.658732 0.0584626
779.283 0.670519 0.0811321
1309.79 0.767486 0.0428855
761.145 0.709849 0.156522
549.491 0.173917 0.114332
643.885 0.860154 0.0633516
592.72 0.708923 0.123772
840.94 1.51214 0.0757882
679.419 0.949677 0.114618
361.956 0.561516 0.034824
566.202 0.998171 0.111388
279.495 0.473918 0.0595602
239.327 0.612246 0.106254
399.241 0.786876 0.143583
478.958 1.73452 0.104396
247.031 0.731519 0.072925
338.224 1.00618 0.0980479
312.893 1.23534 0.173083
601.238 2.05042 0.0391358
275.396 0.663702 0.0661427
266.402 0.941814 0.0744522
424.98 1.63491 0.0388964
536.661 2.72587 0.0610909
297.813 1.47535 0.0865866
340.628 1.66811 0.0695899
248.221 1.07932 0.0556
110.607 0.934283 0.146367
293.549 1.40653 0.127418
311.855 3.30823 0.113947
331.144 2.5973 0.128192
307.585 2.51871 0.136614
489.682 5.51155 0.199457
223.355 2.2007 0.0653434
164.402 1.52081 0.145939
270.778 2.35453 0.101351
152.48 1.31053 0.0698762
199.151 1.69374 0.251224
117.034 1.88452 0.108947
226.712 2.63515 0.152632
247.175 3.38234 0.149256
343.653 3.45585 0.097772
241.464 2.97336 0.0626008
261.605 2.39785 0.0880651
458.198 7.70429 0.179746
285.421 4.35456 0.0726715
154.865 3.80018 0.13527
260.637 4.3281 0.257393
187.141 2.75513 0.141501
253.258 3.54285 0.117059
382.641 6.03232 0.309608
158.005 2.98663 0.163802
226.013 4.54333 0.0715878
164.532 3.96143 0.19561
329.454 6.67848 0.176248
64.4121 1.82974 0.0913469
315.603 6.46159 0.178157
347.074 8.24081 0.303991
230.594 4.26525 0.224025
61.5783 2.0657 0.119141
158.845 3.03251 0.307654
174.231 3.28036 0.142142
179.161 4.58294 0.232677
102.158 2.56041 0.197693
167.338 4.69373 0.198302
181.757 5.0537 0.193735
148.353 4.1155 0.122245
120.85 2.73092 0.131714
153.823 3.7852 0.129294
150.724 4.31672 0.219126
358.448 10.0403 0.390033
106.773 3.86768 0.222351
145.889 3.69076 0.119139
147.807 5.35272 0.346303
162.421 5.77033 0.267889
148.516 4.15344 0.203991
136.454 4.14419 0.253708
160.687 6.16992 0.265658
172.968 7.71066 0.40488
256.35 9.77116 0.32994
194.731 8.30229 0.441046
143.456 5.5863 0.32989
195.378 7.35901 0.311564
67.5885 2.13451 0.211756
164.569 7.85256 0.366948
259.84 13.2562 0.461436
254.861 9.95739 0.384583
80.469 3.84672 0.326939
139.194 6.54861 0.206347
133.509 5.18731 0.355065
279.798 12.8915 0.856842
79.6591 5.02851 0.295768
124.535 6.24315 0.43565
82.2122 4.89127 0.499672
225.723 9.43882 0.493603
126.651 8.50297 0.504417
110.247 6.19323 0.323376
141.286 7.67604 0.609264
231.23 13.4107 0.857885
89.6981 5.07067 0.343979
113.942 5.58461 0.537755
142.952 7.65713 0.557816
99.0425 5.52149 0.493715
147.275 8.20577 0.495199
69.5012 5.21377 0.270841
110.588 6.83075 0.610571
115.702 7.34223 0.488417
176.922 10.8068 0.779952
33.732 2.24899 0.27634
67.7092 4.36614 0.378957
205.134 14.6088 0.810058
70.6067 4.92985 0.227966
76.1797 5.32494 0.471208
85.6149 7.51445 0.692924
213.478 15.9141 1.30968
131.351 9.24365 0.902541
114.437 10.2091 0.687564
97.6701 7.89223 0.815347
83.3463 5.04256 0.449248
124.884 10.9281 1.26622
102.568 9.39122 0.940455
186.454 16.1298 1.57428
151.737 10.6246 0.73428
117.033 10.1037 1.32802
47.8481 4.12891 0.5231
138.275 10.4868 0.842683
191.032 14.6494 1.2127
156.946 13.1224 1.21129
107.491 8.08312 0.705832
217.763 17.3449 2.23644
133.65 11.5209 1.15301
60.9674 5.89328 0.625597
72.7282 7.91242 0.609298
112.075 10.5609 1.17817
73.7085 7.71529 0.508354
81.6781 9.93637 0.989531
90.1723 7.42823 0.774671
118.113 14.5369 1.46693
71.9605 8.06603 0.916062
164.235 18.0934 2.41043
57.8118 5.3625 0.657836
118.997 12.7597 1.84522
83.6 8.82269 1.20601
73.8423 9.56936 1.31187
104.199 12.6706 1.56567
41.7866 4.00584 0.534264
68.9732 5.77075 0.520683
35.9789 5.36637 0.738845
44.492 5.93222 0.914564
93.4391 12.3151 1.46028
52.071 7.81774 1.46496
131.783 15.1242 1.69693
191.611 22.5141 3.15632
189.268 22.4635 2.64636
108.493 13.4322 1.7953
68.2532 10.1096 1.04056
117.383 14.8941 2.36933
147.704 21.5221 2.57043
123.182 18.0443 2.12544
80.8304 11.3062 1.49409
115.846 16.6577 2.2449
22.1846 2.48102 0.294135
97.7818 15.547 2.31758
106.725 15.1044 2.29688
96.2782 16.2321 2.48764
82.2989 11.5713 1.52364
51.7931 6.2883 0.957215
110.911 17.8107 2.86225
84.4398 13.9916 2.33634
136.655 18.035 3.01104
114.818 17.3812 2.6773
28.4054 5.58268 0.920419
73.2635 12.2779 2.63202
56.8614 9.90964 1.91329
113.129 19.994 3.63918
125.626 17.5574 2.88155
88.45 13.8556 2.36972
71.7151 11.3291 1.85534
98.4491 14.6626 1.89847
160.905 24.5539 4.05948
79.9136 14.8195 2.29653
58.7452 10.3964 1.81408
111.675 20.0835 3.7913
104.674 18.2771 3.07609
87.2686 15.8816 2.75308
61.2559 8.55695 1.31525
101.004 18.4571 3.72714
95.6459 16.3086 3.02494
155.452 26.9101 5.84802
92.056 15.5174 2.28185
49.1426 11.147 2.44319
59.6217 10.3175 1.75996
41.8722 6.72683 1.77115
121.502 20.8089 3.43191
35.1228 7.05694 1.44788
62.1397 13.2245 2.92996
79.0517 15.3656 3.05295
80.0732 14.3437 2.33811
37.147 8.67221 2.52094
88.0301 17.7467 4.02691
87.5103 16.7788 3.30451
76.4203 14.6956 2.98233
40.536 7.43438 1.72871
53.3449 9.49571 2.09389
57.7114 12.7939 2.70043
47.0573 12.4035 3.0265
96.8094 21.8232 3.9796
65.5941 14.8509 4.02423
133.596 33.4541 8.52035
112.801 23.9002 5.49424
125.237 26.8523 6.53929
97.8569 24.2475 6.45131
56.2835 14.753 3.31903
113.213 24.8189 6.37443
53.729 9.63208 1.7873
111.128 26.7688 6.51978
26.0378 9.06387 2.38591
69.2718 16.9602 3.8808
50.3475 13.2657 4.45438
45.4178 9.56891 2.37644
53.6444 13.5046 3.42421
118.091 24.9092 5.19687
46.1867 13.3618 2.79125
58.8058 17.8466 4.90625
62.1547 14.153 3.53369
50.3425 12.3535 3.22365
85.9198 20.5972 5.44097
50.3013 13.5816 4.1229
52.8147 14.4689 3.54995
69.6486 19.8621 5.33751
86.6594 26.4776 6.90374
89.3058 23.3711 5.62169
103.156 23.9755 5.46417
23.1583 9.39054 3.43662
39.0444 7.86261 2.20009
60.6551 16.4276 3.90054
23.6177 9.19741 2.8164
49.973 15.578 4.95237
53.1286 18.355 6.60762
121.743 29.1611 7.67624
50.292 13.7349 4.1068
57.0207 13.6595 4.25633
144.474 38.9104 10.7344
39.4655 11.9811 4.0992
55.0993 16.438 4.28529
64.0162 17.5469 5.07048
38.8191 10.7868 3.23754
52.8787 14.8013 5.16062
35.8868 11.7855 4.60124
84.8749 20.381 6.2603
75.6848 22.2882 5.25219
40.4446 10.8738 3.21762
121.652 42.7558 15.3937
59.9105 17.9079 6.73235
72.0827 24.6695 7.30614
31.1734 13.4892 5.13114
43.5444 13.1748 4.85789
87.3474 28.2098 9.10403
58.7778 21.2324 7.18283
64.9406 23.1724 7.93422
47.6354 12.1886 3.54422
45.6602 15.8001 4.64425
39.8887 12.6939 3.93918
50.6832 18.5019 7.1116
65.2276 19.9027 5.93624
34.9478 14.8237 6.24117
93.7726 30.0512 11.177
82.9096 32.1066 11.0905
48.4659 15.057 4.46508
83.3615 33.9403 13.0633
87.3884 31.151 10.0702
41.2441 15.4507 6.22152
51.5534 16.3174 5.58136
46.0431 18.4368 8.86262
93.2089 35.5454 13.2547
71.1912 24.1621 9.48303
69.6115 25.6689 7.57418
44.6331 16.0611 5.3393
69.5748 29.704 13.4327
39.845 16.9814 7.47633
78.3805 30.8648 12.355
107.046 37.5359 14.3797
51.5587 18.2988 7.04614
127.665 56.2655 22.2013
29.6301 12.2084 5.14016
52.103 21.1129 8.90399
11.4108 5.2693 2.04217
55.6043 21.653 7.65566
22.2207 10.3897 4.34668
42.3483 21.6325 10.0065
63.6521 25.1044 9.91411
55.0121 18.7862 6.91243
32.3886 17.5339 8.0615
66.0081 25.6901 9.17073
54.9503 24.3384 10.3242
23.3588 8.90077 4.23678
18.0026 9.03676 6.15003
53.8169 23.3355 8.92198
27.4782 9.91401 3.56829
40.3693 20.1428 9.84232
31.724 15.6235 6.38276
32.9578 12.4791 5.67891
50.9328 25.9574 12.8883
29.8858 11.4091 4.59774
60.4597 30.691 13.928
62.5371 31.425 16.1417
71.0352 35.3038 15.8598
70.2841 30.1461 14.574
34.9511 12.8895 6.73217
67.8866 26.7853 11.4743
43.063 19.7307 12.5504
51.0396 21.6672 9.74773
88.8043 39.1103 16.9177
21.3528 8.49918 3.76247
36.9478 19.8804 9.95808
58.2211 30.7458 15.7151
41.8269 15.9921 6.0826
44.3094 28.2021 14.2035
59.42 26.7029 11.4177
66.8916 37.6486 18.1647
36.9783 22.3909 14.2455
34.7066 13.2422 6.16856
61.381 23.9925 10.946
68.3125 39.7693 22.1595
69.2673 40.0995 19.1422
59.1505 34.5082 16.7768
22.6208 13.5277 8.6198
30.5639 14.8555 8.0426
48.588 25.9663 14.1528
56.1261 21.7954 10.6754
48.1015 24.1332 11.8027
22.4551 9.35399 4.99841
38.4681 20.9543 11.962
57.6559 26.6745 13.0622
37.3697 19.9513 11.6304
36.8174 21.2077 12.0119
62.5371 36.6711 20.4358
44.1756 19.8495 8.32152
26.1117 18.3428 11.6278
43.749 22.468 11.2724
25.0326 16.4106 9.51922
25.2144 16.8295 11.7303
50.7068 31.0288 17.7102
47.92 24.6952 12.8897
35.6607 21.3661 12.4674
58.5991 37.621 24.0344
66.41 38.451 20.1825
43.8921 30.1944 22.3214
62.8677 29.1331 16.7934
31.1805 13.2987 7.3536
24.6537 11.1854 5.3686
47.5012 30.687 18.9895
20.8897 11.2102 6.79054
17.4944 9.29723 5.83465
31.9153 22.7215 16.5844
31.7782 17.5913 11.3386
47.3596 18.2511 7.58308
32.7675 18.4138 10.973
42.0001 19.8841 10.1065
58.4798 35.5008 22.3962
54.2426 34.9971 21.1549
33.8836 23.628 17.0962
46.8818 28.6783 15.9996
54.2546 34.4741 21.3072
13.1074 7.11044 4.94401
19.085 11.5591 6.84894
42.4615 26.9785 16.4043
19.6973 11.5805 8.5513
60.6421 40.0655 24.39
19.6927 13.3484 9.92996
42.9681 25.8508 17.0792
13.4727 6.67955 4.95939
77.1767 56.3886 38.1064
30.5347 16.2597 9.60061
27.7138 19.1567 12.5638
24.9237 15.0662 9.96785
26.4256 17.1255 11.669
33.8094 16.6347 8.79204
23.2931 16.5422 9.10622
16.6776 13.8082 12.4764
50.3564 38.4688 28.2809
29.2555 14.1762 9.22963
32.1112 21.776 16.1635
40.3252 22.1274 14.1789
36.0838 23.9566 13.6479
25.7883 19.457 14.6257
9.82025 7.97956 5.0639
6.50859 8.88721 8.23836
23.7853 15.4397 12.4389
33.0077 23.0873 15.5237
13.8262 12.5194 8.79018
7.39676 7.07911 7.34434
55.0397 34.5858 20.6375
35.9055 35.6266 32.6746
36.4078 16.3075 7.7023
28.3094 21.5287 15.9843
21.2079 14.0865 10.1945
43.9142 29.3719 21.918
24.6343 17.6338 13.2127
29.4226 23.5441 18.3021
60.4802 39.0222 22.8296
16.6364 17.3188 16.8398
36.1068 24.0496 16.7847
18.7285 12.6438 9.03965
12.5379 9.76712 9.09777
24.2036 19.6965 16.1982
23.7159 14.4723 9.60298
13.4677 9.30464 7.90424
20.7388 18.5146 16.4199
40.5774 29.3906 20.7993
26.389 23.2239 22.0534
23.4258 15.401 10.4488
17.9779 11.7831 9.0566
45.696 34.0973 25.2704
13.5479 11.0972 7.55735
17.8027 16.5065 13.3875
10.5361 8.79042 10.5472
30.9144 22.8102 18.6305
25.8682 22.3417 18.0376
10.919 10.2402 14.5546
30.0213 20.1226 14.7644
35.754 23.1091 14.6392
14.8413 15.3645 12.2838
33.2195 30.3259 22.8177
13.3038 9.23769 6.99938
34.103 27.4143 22.2305
9.7659 13.8745 15.659
26.6798 19.3097 15.4896
14.9851 11.6901 10.7435
39.825 37.8503 31.9987
13.8597 8.16548 6.29485
11.6933 11.6551 11.7429
31.4333 29.6297 26.2985
31.2584 26.8824 27.1386
36.7536 24.3197 14.1964
35.5682 32.7369 28.4392
13.5069 12.8587 14.2693
16.3101 14.7766 16.7391
25.5853 19.1673 14.0505
23.483 22.8602 18.6394
16.808 18.2613 20.9137
15.955 14.6159 13.9816
12.6204 9.03611 11.4431
35.8735 28.4192 21.0924
34.2274 27.2844 22.5834
17.0276 15.3961 13.2994
18.944 19.0305 21.2278
24.6299 27.0304 27.62
60.7581 55.1574 46.2605
21.5248 19.7866 21.6266
31.5929 24.9158 20.3662
25.0437 30.1807 32.7619
18.1182 11.966 10.3528
22.2587 20.6704 22.0364
26.5017 21.4516 17.0907
15.6489 14.4103 13.1496
29.3485 32.7655 30.6864
16.9356 15.3801 16.2725
11.1609 9.85789 13.4477
27.5065 21.3131 13.5373
14.4795 12.5475 8.13662
14.9177 20.4528 21.9801
30.098 28.6436 25.8734
5.1964 7.29973 10.9069
10.9705 12.9684 15.8097
24.3884 20.5969 15.9464
13.1814 12.8819 12.668
15.3768 14.1899 12.2747
25.127 31.4529 32.4286
19.1863 23.2432 30.4669
19.486 16.3753 17.7571
30.7403 23.7584 18.666
22.0457 21.3241 23.2785
23.2271 22.4848 24.4698
21.1381 13.2437 9.62546
19.5684 21.5249 22.1629
33.8091 26.9616 23.2946
14.7702 15.1646 16.4734
17.8995 19.566 19.724
11.4948 12.6893 14.8331
18.8933 21.0425 21.9155
9.46195 11.7067 17.4951
29.1588 27.0204 25.0247
22.2154 29.8039 36.0704
39.5141 35.4384 32.087
35.9569 38.9203 40.248
31.4013 24.8615 21.6333
16.3299 19.3397 22.8073
16.7689 19.2685 20.2215
9.81633 13.7802 18.2009
12.1749 9.40945 10.392
16.1019 19.4947 24.9083
28.1838 33.9443 38.4616
34.671 34.0702 32.2677
14.241 13.1882 13.9847
16.1227 12.1548 11.3426
19.0088 17.6613 17.3295
11.5272 16.0312 19.0873
12.0812 11.3485 15.335
17.8684 15.2837 16.374
20.6686 21.2216 23.7083
36.8189 37.5214 33.6314
5.72094 4.61491 7.93757
24.8909 24.5844 27.9962
37.4371 37.6017 33.6728
16.2214 29.5606 39.7141
14.9978 24.8068 44.75
33.4514 30.3472 30.6349
25.1905 24.2361 23.8153
10.4964 12.19 14.2458
15.7631 18.0525 19.5351
12.1807 15.2917 24.8428
36.8265 37.2158 37.2585
27.7787 28.9623 28.235
9.85826 15.2702 23.404
21.6516 20.155 23.0879
16.2027 15.2372 15.9118
37.3547 46.4208 62.2986
35.5475 38.7522 42.8705
27.1641 26.2837 27.7168
10.7399 11.9011 22.0324
27.9838 29.5821 26.7369
15.0569 24.9317 32.3723
19.0598 16.7288 16.1642
9.3106 9.3249 9.40665
13.6386 19.867 26.0648
19.5556 25.7698 32.2803
7.89857 12.3399 17.3827
16.795 26.5728 38.5853
22.7774 22.3062 21.5496
24.6066 35.2268 44.354
15.231 18.5809 22.0182
12.5677 20.6413 25.4015
33.0385 48.712 62.6069
17.1037 19.0077 28.173
24.0731 23.6925 29.3518
16.1045 22.945 34.2307
24.6305 22.8567 21.8697
13.3859 15.6666 17.2642
12.0971 15.2992 21.7953
5.16673 10.8146 22.5354
16.6341 22.0371 35.4857
18.2862 23.9706 28.3718
10.7002 13.9173 22.4601
21.1517 18.4444 19.1531
8.56581 17.2879 32.7617
16.3171 14.0944 17.0784
21.9573 22.8192 23.0307
13.9814 18.6138 19.2526
10.155 12.603 15.6925
13.6662 15.4535 17.4454
9.72886 13.2182 18.0052
9.22716 14.0242 22.2745
19.171 27.4914 31.1338
20.7509 30.7807 39.1012
3.14418 7.30359 21.6879
27.1867 33.8146 43.3142
15.9516 13.4576 11.5189
12.864 18.0271 21.1267
10.8979 27.0585 40.5276
18.3658 16.2934 18.6548
14.1604 21.454 28.0424
10.8212 18.8061 29.5483
17.8721 23.3535 35.1952
9.04304 7.04885 12.1172
16.8672 20.6015 25.3988
10.9094 12.3688 14.4982
6.40412 7.35694 8.00531
10.7908 16.9218 24.0696
11.053 15.4952 22.2639
16.4855 38.4128 71.098
33.1699 32.0055 35.984
16.4816 20.0064 22.2222
10.535 12.583 14.3166
11.2411 20.5728 35.1765
13.5077 17.0265 20.9607
18.5628 27.8407 43.8767
16.9966 21.1657 30.491
20.7594 26.8525 34.1767
9.37021 13.4669 15.361
10.9987 20.3921 31.4353
7.56697 10.3132 18.2568
14.0412 22.9964 34.3434
17.351 18.6928 22.6843
12.9823 23.2249 45.5624
20.278 24.4491 27.2287
11.8044 20.919 40.3117
25.183 27.972 33.9826
6.68224 10.7583 18.7159
7.75821 11.5921 23.668
9.88081 13.8177 18.2091
17.1719 25.1524 38.9675
18.1913 22.3657 29.4366
10.699 11.6293 12.4823
4.73693 9.37845 19.4078
16.6784 21.4827 29.7049
12.1371 17.6821 29.5388
19.4193 28.9717 32.5344
8.66045 12.9819 23.6909
6.81231 11.9452 20.3112
9.86727 13.7929 19.7918
10.0126 13.9298 23.5156
14.6841 18.18 18.0144
5.07523 13.9786 29.463
14.846 30.0099 51.3215
10.589 14.5052 24.5441
22.7241 37.0022 59.0817
17.9803 17.7309 18.9425
11.1924 18.8241 29.3164
10.3585 17.77 31.2189
5.56163 3.19406 9.90456
20.7701 34.8941 43.7444
7.79426 11.7689 17.9319
10.1815 20.8727 39.0282
13.3932 13.6885 21.0791
14.8899 29.552 48.509
20.6796 33.4671 60.9609
13.7032 21.542 35.3394
12.0151 14.3803 26.7842
18.9533 30.1858 50.8102
19.5205 22.2392 28.9344
16.23 21.505 26.1298
4.65895 7.21391 12.7177
17.3948 28.1695 33.1468
6.83116 15.1471 26.7158
9.21248 19.466 33.5763
10.8576 16.1898 25.1039
4.43327 8.42183 24.4648
13.383 15.5713 17.0784
13.0438 28.9523 55.033
9.28857 10.078 22.667
12.9132 18.0391 25.3639
13.0138 18.205 18.4643
12.6027 27.4558 52.4713
7.89706 12.0815 27.8664
19.0425 26.8143 42.7817
8.73526 11.1274 12.1386
9.52838 22.7565 43.071
15.9038 24.5122 36.1935
10.4593 15.1447 25.524
13.2235 21.7509 35.4158
13.6468 26.0715 52.2143
13.7934 15.2019 24.7462
15.6353 28.8384 44.0526
7.22681 10.6643 26.5389
10.4348 13.063 15.7264
2.71299 8.60062 21.2566
12.306 18.2793 28.9665
10.4577 20.4717 36.5679
10.9626 19.3317 41.2903
15.1261 17.6311 24.7292
8.08008 18.1549 37.0833
16.4603 21.3529 27.8721
11.1422 27.4833 50.3014
4.54722 12.4845 34.1148
6.87838 9.58326 23.144
9.30994 13.9203 17.9322
3.99651 16.9207 41.0302
13.7475 15.3882 20.6627
6.97332 12.9761 25.0174
13.9163 22.5983 37.4082
6.88852 9.13227 14.3318
9.49756 21.9507 43.3872
9.0915 10.1694 19.8252
11.1691 18.2766 32.3053
6.9935 14.3935 40.7129
16.9752 23.0854 32.7446
15.2461 23.9308 38.9285
15.5665 35.2061 70.8006
18.5765 28.4302 44.7618
12.8813 26.2754 47.3167
9.66265 11.0659 21.4912
9.78628 17.2288 24.281
8.84079 25.6623 57.8416
9.58924 12.1565 23.5265
7.9806 7.83 12.2377
13.2354 29.1202 50.7376
8.11821 13.1459 31.1784
12.1139 16.5889 31.8026
14.3909 20.652 28.0285
8.72 21.075 50.2404
20.4504 28.921 43.0906
6.43857 9.40858 24.202
14.0688 21.3812 27.3748
7.12208 18.7038 41.3894
10.6054 21.7551 40.4907
8.87285 20.1222 34.9311
7.02377 14.6161 37.8632
8.2258 15.5419 38.7303
13.5138 25.4117 52.8151
19.5697 28.3716 37.195
11.2259 22.167 35.9415
9.27954 24.8886 63.6361
18.2896 29.1378 55.6931
13.5017 18.0274 33.0743
9.76899 12.1573 12.4756
5.13873 16.1853 42.4343
15.3066 19.646 25.3119
10.4119 30.3223 52.3342
5.69882 6.56386 14.4329
5.58346 17.1757 40.3649
5.69851 9.87429 40.9696
21.7697 33.7325 50.0596
7.69682 10.408 14.7118
7.87186 19.1239 30.6923
4.5789 8.38206 20.9088
7.22175 13.3372 36.9153
15.5731 25.8299 41.1111
7.60701 16.7657 26.0689
7.61019 16.5579 38.8185
8.40571 18.6576 40.6831
9.40222 17.3769 31.7392
7.63378 18.7468 47.1324
13.5942 21.0079 30.812
7.12558 16.2091 28.6643
6.99528 17.6772 41.3469
12.9561 23.6971 34.5528
5.68102 14.7951 31.78
3.55935 7.49288 25.1497
9.37322 17.5904 36.6871
10.8167 27.682 50.6179
4.64672 12.4974 35.1819
8.00764 19.1875 63.4215
24.8005 42.9946 68.6082
6.16984 8.54886 23.3069
5.40719 7.10412 19.5924
10.0737 15.6101 27.8912
10.8296 22.8559 40.9091
10.6871 28.6549 69.6842
11.922 14.3427 17.9027
3.9945 12.3038 35.4594
8.3669 13.2559 27.5538
6.2883 10.4746 26.9737
6.61537 7.63603 12.977
8.85448 23.2128 44.8065
10.7419 18.3253 39.422
10.5078 20.2907 40.608
9.85374 17.8594 32.8687
7.24846 15.0945 32.4126
9.99354 24.3024 53.6411
8.79396 15.0697 35.3676
10.5919 18.3336 30.9501
6.02344 14.5507 32.568
6.48025 12.914 21.7686
8.70101 19.6299 31.005
6.99376 21.2945 48.9949
7.20063 20.1298 61.3511
9.56829 14.3015 31.8564
10.4142 27.7409 55.3065
9.06018 11.2118 19.4026
8.55616 21.9467 45.2502
10.1542 24.4588 58.7028
7.23336 14.6254 39.798
10.6592 20.4791 33.3097
5.84758 16.5814 44.0392
7.79536 15.1236 24.6698
5.89639 20.075 54.2339
8.15301 13.0758 20.0349
3.8037 9.60859 28.2351
6.5647 9.28802 11.6763
4.81884 15.3334 32.0388
2.78706 8.78953 23.1548
4.31391 11.5953 39.6022
9.86531 15.5505 25.4137
8.14116 26.0643 48.3706
4.8751 13.4103 40.8239
7.40936 9.34879 20.3529
8.96164 20.6295 32.8654
3.62118 12.5827 37.8139
4.62119 10.3678 41.5523
10.1359 11.8426 26.5941
9.29333 21.2169 38.4758
7.82144 15.4287 34.7802
8.71333 21.5068 56.9461
11.837 20.4303 37.5731
5.97144 10.8229 21.6264
3.93193 8.21356 19.1371
4.98829 16.528 42.6683
8.08273 14.2505 35.7305
5.73424 6.40842 15.6476
5.94272 11.8739 23.4319
5.5062 16.9697 37.7155
4.3309 5.14017 15.5025
6.91666 17.9854 49.8187
11.6967 23.4155 32.1473
4.26432 18.2095 63.3263
12.9533 22.833 47.0148
4.02059 2.72482 10.4042
9.00565 30.3776 63.4029
7.43807 14.4416 29.2466
4.7416 10.5841 27.3444
5.05085 12.4832 23.2139
4.03491 13.1681 38.1814
5.31403 12.1345 35.9402
8.66233 16.7857 47.597
12.8997 27.2302 63.0591
11.6647 21.4861 34.1828
5.43714 20.007 53.5765
8.79701 23.9688 58.9569
8.60067 16.9898 48.5979
8.22667 15.9953 33.0837
5.60536 18.0078 52.0792
10.2205 18.6189 31.979
6.21564 19.8517 51.2379
7.95042 16.5123 29.6449
4.86602 11.3018 28.2434
2.52109 6.6065 22.572
6.06227 14.3767 21.4348
3.70598 12.2877 30.0749
4.50346 15.0182 48.3377
7.27159 7.19915 8.85198
7.20297 24.846 61.9509
5.84586 14.4886 32.7148
4.49316 9.7251 34.3508
7.08828 14.0862 35.4236
8.68772 26.5601 62.4661
