# pn-170911/RbIIR-48-NIST-1280-1959.psd
# Power spectrum* (dif=0,1,2) (really just |FT|^2)
# NOTE: only the first half! (symmetric)
# weeks: 1280-1959
# 4 clock-days, 2 excluded
# PSD: 1441
102.839 0.0687654 0.0765574
16269.1 0.525807 0.0600842
89536.8 1.97884 0.293265
19898.9 0.441365 0.10431
22200.6 2.67044 0.0321966
4898.48 0.288838 0.0932296
1979.56 0.0627662 0.161565
2160.01 0.24054 0.198469
3236.81 0.537284 0.0758903
2362.56 0.487441 0.101181
400.359 0.655862 0.0469404
720.859 0.885347 0.234782
1128.49 0.442638 0.129313
503.915 0.476596 0.0665483
370.049 0.224092 0.0420161
560.277 0.555714 0.164174
844.647 1.06198 0.139502
937.657 0.755927 0.1036
799.859 0.739736 0.102738
556.896 1.35414 0.0967686
387.021 0.361373 0.115379
677.563 0.999133 0.238153
376.037 0.471299 0.0949927
391.554 0.881835 0.056734
390.697 0.858484 0.0521979
162.076 0.820622 0.354979
191.448 0.840264 0.0448306
182.745 0.323839 0.0598127
415.723 0.820417 0.0774304
337.913 0.773854 0.23271
272.447 1.22411 0.0733218
203.914 1.00965 0.0566414
259.275 0.598063 0.146622
113.345 1.08624 0.104738
224.072 0.778501 0.168109
41.1976 0.450095 0.0658383
71.0283 0.466797 0.125903
119.962 1.22588 0.0537603
98.8226 0.812181 0.221251
183.789 1.15976 0.136225
257.848 1.58287 0.0924445
157.745 0.8133 0.154031
265.756 2.82637 0.183336
81.0114 1.04856 0.0954023
127.755 1.1322 0.0927438
263.774 1.47945 0.183043
312.657 2.95474 0.0580371
14.9678 0.592065 0.11584
110.213 0.511264 0.180714
281.439 2.71424 0.11179
562.949 8.54564 0.0580383
267.333 3.18461 0.150879
492.408 5.74892 0.177557
136.171 2.90299 0.0627067
460.357 4.93475 0.162408
370.993 3.83276 0.348577
206.228 3.11616 0.108686
283.732 3.89585 0.213039
261.057 4.06096 0.0983441
89.2136 1.58109 0.147642
254.171 4.03012 0.0811609
257.739 3.95577 0.303163
396.192 9.11118 0.147305
185.209 2.70938 0.274627
169.566 3.77887 0.087032
74.4128 1.78515 0.220394
156.55 2.53124 0.149612
585.555 9.44759 0.467887
220.701 4.92488 0.0979012
310.471 8.45325 0.285202
307.37 7.42471 0.033144
410.437 9.15926 0.203503
231.357 4.79872 0.44277
406.397 8.97476 0.466897
167.228 4.27396 0.134072
295.245 7.19478 0.392126
299.13 7.60051 0.184723
146.01 4.85287 0.0901434
215.942 4.68775 0.214925
41.5483 1.79718 0.182274
273.362 7.57604 0.108442
179.978 7.41875 0.299702
98.874 1.77998 0.283298
332.92 10.203 0.62009
271.519 10.7858 0.460073
351.292 10.46 0.32922
161.867 5.68747 0.261571
213.277 8.03389 0.379269
279.927 8.36177 0.389865
123.316 3.83241 0.173121
200.759 8.58216 0.439746
94.5189 3.52261 0.161934
132.773 5.94246 0.378189
66.4189 2.66699 0.226186
94.9514 4.16239 0.324647
22.7946 0.892128 0.333017
99.1151 5.4378 0.382085
202.802 9.24806 0.362028
146.751 7.69052 0.255558
106.099 5.26551 0.245117
75.34 4.17728 0.35857
88.8381 4.51379 0.116444
103.164 4.26175 0.429588
302.152 13.11 0.864178
127.666 6.4722 0.400487
100.39 5.81577 0.366372
88.7819 3.87215 0.146102
146.534 10.6653 0.717382
104.021 4.7074 0.361368
156.309 7.18011 0.580568
163.667 8.39858 0.554491
51.0922 2.63186 0.297204
210.949 10.0415 0.677062
146.014 8.25201 0.758925
112.815 5.99574 0.442192
206.311 11.3843 1.0256
267.79 16.6576 1.18735
158.324 8.99832 0.696675
58.1769 4.09432 0.435524
63.3446 4.55534 0.225796
273.313 19.0984 1.13776
125.693 12.0865 1.21493
85.9818 6.07365 1.09284
274.472 22.0439 1.61482
223.476 14.8051 0.915512
140.936 13.332 1.03483
119.895 7.29255 0.438106
205.747 13.6504 1.16352
117.307 13.3034 0.809671
183.129 11.9764 1.44041
45.92 3.96471 0.182131
108.247 7.9905 0.781312
125.407 7.58441 0.960016
147.79 14.0603 0.850125
47.806 3.97135 0.359277
183.837 14.8932 1.51193
95.0221 11.2589 1.40135
398.66 29.3126 2.46112
219.388 17.9928 1.52155
132.249 12.7105 1.27275
47.835 5.36522 0.909156
52.7564 5.31078 0.678092
175.826 15.311 1.06202
177.817 16.5355 2.00962
185.89 17.788 1.75198
72.9771 9.32614 0.843707
247.931 27.4488 2.5567
155.427 20.7022 2.20571
182.252 14.1233 1.17319
165.791 20.4913 2.71219
116.691 7.51901 1.01159
436.377 41.8458 4.31731
120.448 15.0545 1.68149
207.283 18.4876 2.25506
61.8501 5.93106 0.653272
275.165 32.239 3.54509
123.121 14.5474 1.83808
62.07 6.19058 0.819176
61.8051 7.82439 1.06261
92.7071 13.5624 1.33739
83.1276 8.40409 0.714511
138.929 16.7819 1.94997
116.741 14.361 1.57833
113.596 12.9193 2.54225
145.013 15.9053 1.81991
137.798 15.9251 2.36
104.007 11.8333 1.35019
127.344 15.8498 2.89762
120.039 14.2687 2.0763
143.866 19.5917 2.62721
45.3379 6.67205 1.15143
115.766 18.4512 3.09237
196.19 24.1953 3.19769
118.799 16.5931 2.48264
91.7886 11.7424 1.74755
187.97 27.799 4.23483
136.47 21.9868 2.17638
71.586 12.7845 1.74116
132.193 19.2119 2.6896
57.788 8.52305 1.43363
195.628 31.8735 5.27971
113.424 15.9206 2.32891
58.4323 9.77094 1.2666
127.85 21.3274 3.72754
116.646 22.0202 3.72298
55.1657 7.40992 1.54909
60.8112 9.93556 1.46683
119.269 17.404 2.77152
66.4375 12.2001 2.03356
66.0752 11.6667 2.18952
57.6469 9.61729 2.11798
45.2343 11.2748 1.78437
65.0813 13.3479 2.04174
137.715 19.5953 3.71263
43.9003 7.15465 0.958831
108.127 19.3121 3.52542
47.7581 11.3036 1.72059
174.093 30.4345 5.27878
129.894 23.4948 3.75815
39.1721 9.13098 1.98832
43.9244 8.19873 1.49765
135.017 22.4254 3.70274
88.8645 15.9823 3.02712
42.0888 7.12765 1.19088
57.5609 10.9044 2.44099
56.8876 9.27675 1.36643
113.423 24.693 4.53665
31.4832 6.87524 1.67179
41.8421 5.91078 1.09602
68.7077 17.4442 3.46186
53.238 15.11 2.98279
61.6553 13.3983 3.13634
149.32 29.1134 5.3569
88.05 19.4533 4.53979
9.02957 2.50887 0.715518
52.2637 12.4701 2.46284
18.2895 4.67053 1.60524
126.452 23.8145 5.45851
58.347 11.9668 1.91713
144.979 33.5446 6.30035
131.495 36.372 9.25309
85.0912 17.5966 3.86277
207.866 42.8624 10.1653
57.3031 15.5474 3.94947
41.2844 8.35372 2.50312
29.6342 3.91312 0.955944
65.5276 14.8143 2.50015
127.093 34.17 7.32575
94.6536 24.92 6.24916
15.7958 2.35396 1.0215
45.9799 9.62226 3.03824
43.4994 13.5847 3.67153
115.04 31.2798 8.06562
45.8664 13.3955 3.15409
42.68 10.238 3.23584
149.534 34.746 8.18472
57.3008 14.0894 4.3754
71.8179 18.11 5.21342
82.8579 22.6899 5.91991
84.6524 20.0824 5.43176
138.364 35.5954 9.82325
102.568 23.1345 5.74395
57.5706 13.0247 4.90314
74.5047 18.2374 5.06615
62.3875 17.1472 6.01705
107.67 34.0411 8.88815
103.07 33.5516 9.58214
47.7085 10.5547 3.15933
57.3356 13.6708 2.95979
104.345 31.7124 8.71195
79.582 24.5927 8.10031
99.1674 29.1363 7.9752
18.2433 8.90813 2.59261
87.4173 23.3918 6.56318
17.7197 4.90372 1.39479
65.2908 21.5125 7.27126
101.104 38.3546 11.3025
42.1923 12.1353 3.51651
27.1215 10.0465 4.11866
67.9744 20.248 5.30683
78.235 21.7989 6.70101
87.9998 25.9614 7.78735
36.3286 12.5577 4.69436
106.203 32.4813 9.008
73.4408 25.8309 9.83808
60.7208 25.4718 8.82787
67.66 21.9008 8.17545
76.8431 29.0402 10.214
51.9166 9.30201 1.54997
77.9398 29.7334 10.6991
29.5589 12.9463 6.13409
57.979 15.1486 3.66653
133.614 46.1453 16.7632
70.7522 22.216 6.21822
103.498 37.8703 13.4278
88.7131 29.5611 11.1629
28.9057 8.34887 3.21691
49.6954 17.3809 5.31142
42.4729 13.5243 4.72639
22.416 14.0236 4.63559
37.4984 14.4127 6.15151
28.0434 9.37735 3.54405
51.585 17.4898 5.53681
41.3464 12.3453 5.36146
28.92 12.1048 6.42826
93.2684 35.497 12.0432
79.7468 25.3687 9.26312
58.6983 24.2298 8.67525
22.6066 6.88318 2.83885
11.6 6.23787 2.41675
26.5447 14.0593 6.74574
38.6795 11.8776 4.6888
28.2089 9.51557 4.0779
18.3591 6.27863 3.03262
103.552 40.7934 15.7129
51.0175 23.6487 11.1137
87.6438 38.4356 13.4319
89.5726 44.9537 20.4533
34.0195 10.0069 3.1529
52.8734 23.8466 10.5736
83.7052 31.1291 12.1683
56.8749 27.6173 12.7276
17.0424 9.77066 4.22209
36.9433 12.7467 5.09247
58.7886 23.8476 11.3204
69.6693 29.4234 11.3073
31.5552 17.2956 10.0351
42.5735 15.7108 7.69643
106.4 36.3818 12.9164
142.495 65.6999 30.578
79.6416 25.1178 11.6486
45.055 21.2806 7.75537
63.6257 28.8566 12.8295
57.189 28.704 13.4869
32.7044 11.9933 5.24266
36.4265 15.2628 6.49505
88.2567 43.1437 18.5913
38.1381 17.8037 10.1487
41.6715 21.0933 12.2183
38.7518 16.7166 11.5512
55.0076 21.7862 10.302
33.8342 13.6494 5.16512
23.7329 8.71768 4.41207
35.0244 15.7613 4.78563
36.6586 17.3995 6.32776
16.2202 10.3046 5.59209
33.0481 18.1007 10.485
53.7381 22.0315 9.51059
68.5307 32.7793 14.3472
29.2684 15.3577 7.40642
37.6748 23.2251 11.8317
40.7157 13.5533 4.82997
30.1587 17.0778 9.89715
32.7662 12.1495 5.2513
25.0387 10.3958 6.05682
17.995 11.5492 8.65542
47.5169 23.546 9.75366
26.3702 14.1307 7.98363
35.6547 23.6917 16.7468
157.589 73.8758 31.7967
5.98183 4.03231 2.22595
24.9548 16.2199 9.34353
74.14 36.7841 18.1203
20.8636 18.7522 12.5222
86.9678 49.5338 29.0514
52.8648 24.5843 10.4412
33.3318 26.4059 15.2238
45.3528 23.3504 12.5591
45.7381 30.0053 14.6458
20.3835 12.2733 8.79977
68.8169 36.1395 18.3504
38.3209 19.0958 10.2688
46.8903 19.2954 8.04504
43.0074 29.7291 19.0468
30.5159 12.6246 4.82405
45.394 30.4514 19.4277
33.5674 16.9356 7.7318
43.051 32.8618 23.2379
15.6205 6.18695 4.13189
39.6283 24.2141 17.0377
87.3642 45.5512 22.4205
50.3357 35.1426 20.4752
24.2372 14.2094 10.0866
71.028 35.289 16.0961
44.4156 27.3694 16.8383
75.8827 50.7427 32.0866
66.4472 39.3835 26.2151
92.0479 51.9569 29.7841
39.0519 22.6259 15.9377
33.86 18.5128 11.5946
46.5545 22.3031 12.0517
90.2079 49.5135 27.4927
67.0926 46.133 32.0383
36.1864 26.1865 14.1178
10.5274 6.36128 4.34031
22.4663 18.2656 11.9291
43.8966 23.807 18.0331
28.0582 13.4366 5.7083
45.8294 38.1002 25.676
25.87 14.5374 8.87409
42.3883 34.041 22.4378
55.8984 32.1184 16.1446
38.7571 33.0868 25.3233
47.3965 32.0257 21.0649
66.166 37.4278 20.6961
44.9531 36.2369 26.9991
40.4511 26.7875 19.8524
25.0409 13.0529 6.14201
18.8155 16.0263 13.7881
58.5323 34.7446 22.2118
15.7439 9.16202 5.72812
24.6684 16.2112 10.9957
22.6764 19.4482 14.8983
28.64 20.0359 14.1694
34.3007 21.8197 16.0995
8.55309 7.65003 9.18075
44.009 29.6281 20.2857
33.9135 20.3047 12.2454
28.0172 21.8458 13.2725
34.2064 24.5057 18.116
30.9596 28.8298 23.0588
26.3798 19.3506 17.8631
53.5114 28.1713 14.0804
10.4754 9.86541 5.77448
25.2002 21.9338 15.8784
20.8084 11.9315 6.30894
42.3044 47.3514 46.92
44.3661 17.8424 9.51266
26.0417 24.1304 18.6578
33.4868 26.6254 24.557
66.3038 41.5099 24.6968
17.4575 15.7989 10.6725
73.8108 53.9432 43.9857
34.6204 18.5843 9.67987
30.4812 24.1944 16.8857
38.8635 21.7727 13.2555
9.26169 12.4257 10.6848
27.302 20.7885 14.4108
26.8892 24.3051 20.2833
44.9834 30.9555 24.0039
19.5191 18.2146 14.2524
22.8722 16.1361 11.179
40.2015 33.5098 31.93
66.1606 56.0014 38.1288
66.5693 61.1406 56.8785
21.5025 13.1299 11.7215
37.2573 25.054 20.8221
34.5662 24.2482 21.0692
37.5871 26.6023 15.3445
23.8489 24.9574 20.9911
8.88175 10.3038 7.02179
19.7831 15.4086 11.3759
5.64935 8.52729 10.5783
27.828 21.8466 18.8051
66.8633 59.327 51.324
52.2746 50.4717 35.9256
22.8148 20.399 16.7741
20.9481 20.4353 21.4638
16.8488 11.908 12.4429
29.2849 27.0467 23.7825
19.2936 16.0246 11.9132
6.84447 5.49051 8.68874
44.8045 34.0786 20.0188
25.378 20.6896 17.2149
8.82368 12.722 14.8364
59.2567 55.6617 46.159
19.2813 25.5552 34.5141
43.2217 29.7933 21.1545
20.0585 23.0146 25.4292
25.4288 20.3771 17.906
17.6774 11.442 8.28817
15.0887 18.654 20.1434
34.2654 35.9736 34.4888
34.4384 27.5616 27.6568
59.2583 48.6621 34.6252
18.7148 15.8823 14.0619
6.90073 8.60077 12.8521
25.9537 12.493 8.91771
10.8894 5.47558 2.62811
15.3291 18.9398 22.6444
32.6839 31.3493 26.4112
38.5632 27.4328 21.86
38.3364 35.4158 28.9883
24.7153 23.5362 19.4405
10.0197 8.56948 6.50406
43.3219 50.4536 49.3172
18.4868 15.2661 11.9726
20.3041 23.2923 23.8463
45.6132 54.5925 57.9123
28.0014 26.9601 35.2082
25.2685 21.2949 18.6154
38.1184 33.2917 21.6596
5.21133 8.37952 10.3608
16.9753 16.9605 17.9613
65.2305 82.6963 84.2874
28.6358 20.8745 23.5695
43.8214 34.3591 25.6743
20.5568 22.8177 20.4752
7.46746 11.521 15.7638
11.1176 8.96365 11.4962
28.1075 18.9052 14.048
10.1363 15.5356 16.6586
23.4971 23.7281 24.9855
16.5745 17.5823 21.6172
21.7837 15.1041 14.5552
35.234 28.0252 22.0664
12.7109 13.6885 13.406
23.2215 29.1919 32.6693
26.4029 24.6773 26.948
48.8278 47.7939 40.8805
7.15473 16.0222 27.1403
11.8736 11.23 15.6069
11.8431 8.03119 14.0557
21.0996 22.7947 18.8568
17.198 24.7636 32.6315
35.5766 32.9651 26.1666
29.5666 34.9537 38.9937
38.6055 35.1283 32.6634
8.31971 9.0277 15.1459
19.6141 19.326 26.5366
31.0649 16.9934 13.4726
32.9079 37.432 40.913
17.9953 17.7702 20.8881
20.0209 13.1107 13.1698
46.1815 48.0349 42.7442
13.3117 14.2293 13.3971
19.1207 23.2678 24.4308
13.5665 15.3076 19.4659
18.8116 20.9265 33.7771
33.2867 46.7541 57.9422
20.1643 10.7615 11.1099
22.785 23.2009 22.6615
9.5514 10.3092 7.2004
18.075 30.1129 40.1017
19.6588 15.4361 15.6502
10.154 5.70916 4.97525
34.8045 37.7887 36.6517
20.3155 25.0437 34.2794
27.3323 26.7546 21.8023
9.92522 14.9155 19.5647
20.4181 21.1552 18.463
16.3424 39.2359 67.8434
45.5767 29.7132 23.442
47.2146 40.5555 31.8977
21.2685 26.3762 25.6183
24.5436 31.472 39.387
8.7535 9.50328 13.4749
17.2907 15.4179 14.7857
9.03014 12.726 19.0302
16.7667 18.1362 21.5099
4.39772 3.07067 4.55818
5.66754 6.31096 5.9158
13.5938 17.0906 19.0393
8.03102 9.02764 11.2429
6.70488 11.7749 22.1783
35.965 38.2512 46.3547
18.9703 20.6729 20.8103
29.5667 47.3597 59.4806
18.4689 29.3827 48.3359
48.2037 50.6752 66.3555
32.7985 35.1742 49.8655
50.4789 49.0954 45.7184
14.2019 18.0509 25.8658
12.3325 13.8146 13.1989
7.57029 13.2965 21.522
22.8109 24.9942 27.2037
9.2797 9.75891 10.386
6.36991 10.3537 19.4965
24.0305 25.1866 28.8212
23.4884 27.4176 29.366
27.2294 34.7808 36.7593
4.96648 12.7712 22.1674
5.66919 9.22057 19.495
15.9226 15.5208 14.3663
8.42255 10.2467 14.6573
12.6389 23.2075 32.1162
16.3537 23.636 32.9495
13.7594 10.5547 11.7474
19.5566 23.6723 38.6318
12.2376 12.1438 18.0143
27.2853 29.1702 27.2502
13.4587 19.1562 28.1165
30.3194 31.8451 31.0796
16.9445 20.8967 26.9575
19.9685 35.9641 47.9453
21.115 33.4044 51.1518
18.5314 40.4638 76.1193
28.5769 26.6803 33.2121
17.4204 18.0026 21.5697
17.748 19.4478 21.1048
32.5551 50.36 66.5419
19.7205 21.2903 28.2493
7.32217 10.4913 20.2816
24.7345 33.3497 49.5255
17.5181 19.3208 35.061
35.8617 41.7548 49.7719
31.7786 42.039 50.0769
18.6823 26.3252 36.3357
11.4801 18.2881 20.13
9.07315 12.0383 18.9243
13.0509 17.836 23.5355
5.13711 4.14367 8.43669
16.7624 24.422 33.1364
15.62 26.8741 46.235
34.0545 44.3871 51.6673
24.6543 44.0261 57.7926
13.1429 14.3255 15.4712
9.18166 26.03 49.6677
13.2344 15.0905 24.9346
16.2818 19.1349 28.8594
19.4792 26.3836 47.4292
25.2394 29.274 36.112
32.9786 51.0883 80.1797
19.6747 14.5382 14.4807
19.7182 31.8806 42.688
19.7224 27.8914 39.3608
18.3894 27.8779 55.1878
15.2668 17.0779 18.4469
25.0043 30.2487 34.4797
4.92267 12.7828 26.716
9.62251 15.6184 22.9639
7.69355 11.4808 20.2049
17.3772 27.4903 43.6621
23.9674 41.8663 59.6565
10.9171 9.6258 18.0323
22.6448 31.8619 42.2612
17.7836 31.1212 39.7475
13.1114 24.1748 47.0124
17.1491 20.5497 36.7267
28.7518 27.8623 27.9311
15.0331 24.2574 35.4593
22.6516 40.1015 55.2714
13.966 18.2431 27.5348
19.7971 35.0165 58.5965
13.9074 25.5637 49.8976
16.1423 18.736 25.6664
10.4919 13.584 16.9659
16.8598 29.7562 47.7285
10.766 16.1185 24.783
13.6694 15.5306 26.5778
13.1049 28.708 48.9663
12.2411 17.9536 29.5624
17.3405 29.1177 53.4963
22.3154 26.1582 42.2558
24.956 37.2335 56.5785
26.4678 34.9587 32.8031
28.7702 60.8886 98.0419
19.065 23.0274 30.34
7.33894 13.6627 22.2543
8.86776 10.7949 17.3723
14.3306 26.3315 35.9394
12.3544 16.5141 20.7157
14.8137 36.497 68.5428
19.5848 22.9019 32.7112
17.4296 25.0391 41.5799
7.74328 6.94963 14.1855
13.3362 18.3418 16.6679
11.432 30.6 57.8645
9.22727 8.35449 12.094
4.07821 7.36436 26.5486
25.2116 45.3131 65.7361
13.3848 18.7144 31.5514
26.0826 44.1604 63.4275
36.4681 57.041 74.5396
5.465 17.5853 41.4014
10.7768 17.5255 29.6952
3.5423 11.6238 53.4828
34.7397 42.5034 38.6543
9.60882 13.7538 20.6015
3.58324 9.10533 28.2515
13.9733 20.104 28.4511
12.511 19.3056 29.9211
10.7187 17.4007 31.342
5.17047 9.12218 24.3859
22.0243 43.7093 75.5498
18.3081 20.6447 25.9623
9.90318 13.7757 19.4331
6.83031 8.32479 18.1716
16.0163 21.9284 24.628
17.6629 40.3669 71.8519
12.2251 16.3376 26.6921
19.0557 44.1896 64.5695
6.02587 18.9093 50.1924
8.90011 12.9141 25.9766
12.6125 24.1179 49.8052
9.05004 7.52071 12.5655
15.6576 27.1468 48.1496
12.5994 25.0518 43.6488
12.1881 19.2549 27.657
4.62656 9.00497 20.9911
14.5786 33.2875 67.304
17.4975 35.1169 80.2895
19.7532 19.9734 19.5185
3.82831 4.94029 10.0428
12.7179 16.6904 24.4586
11.4565 25.9641 49.4064
16.4698 38.4921 78.5712
16.0483 14.0473 17.7961
24.6709 48.9377 86.0676
11.1687 13.2764 24.0221
11.9365 27.4122 47.6903
8.53563 14.2275 22.9645
3.68652 9.20382 18.9694
5.22039 8.41831 17.6011
13.1109 28.9696 53.3607
10.6441 18.7556 42.4629
10.7293 18.7628 40.6143
12.1013 23.781 45.8374
12.9449 20.4693 36.476
10.97 19.2801 28.4534
10.3087 14.4697 15.9454
15.2675 32.35 50.9615
9.2834 23.62 53.841
7.63203 10.0046 23.7105
7.89641 13.9906 25.8529
6.6847 11.892 19.2764
11.3378 28.5639 59.8514
10.1329 6.31615 12.7986
11.4001 21.8192 38.4942
8.76752 21.4108 45.9463
11.7105 19.9555 29.0697
6.75162 13.29 20.7229
3.67394 10.9283 28.2874
8.50379 17.1482 35.6718
5.16812 9.8452 25.6928
6.5452 10.4347 27.5947
11.1333 21.8995 50.2731
19.5536 30.0145 41.5116
10.0295 25.9929 66.5305
13.252 13.3466 13.629
4.70502 12.7072 28.7806
12.1956 23.5958 48.5482
13.1112 25.0919 45.7105
12.8297 24.3732 66.6913
33.0462 47.751 61.8785
12.4475 27.1843 46.3303
7.81232 23.3807 46.8576
7.22404 7.78321 16.8023
11.1173 16.3499 32.9372
6.65494 13.4343 22.2605
5.51024 18.1623 33.9314
3.50206 5.81246 23.5071
5.82844 14.2646 31.2015
9.13254 18.2301 42.895
14.0214 14.7967 17.8211
10.9675 36.06 107.138
23.5194 29.8723 33.7414
8.90001 19.7595 38.6385
7.12975 10.6902 20.1048
7.82674 26.1577 44.6567
10.6369 30.3747 73.8111
8.46125 11.9198 37.6785
9.66717 12.8423 23.8703
3.55294 3.12434 21.2501
14.8218 23.5182 22.7289
10.7266 26.7612 45.4123
7.03362 14.8795 20.3724
7.82603 18.5274 41.8441
9.70389 27.048 73.8033
13.6254 23.1422 29.8134
3.38727 5.97269 17.5765
8.39827 20.9192 41.3231
11.3622 22.6143 39.9636
14.3259 38.3318 95.8956
10.0673 13.0193 35.4676
14.362 26.4626 45.9245
6.83204 9.44425 25.3893
8.05312 7.88316 12.1593
13.1844 33.0011 63.7029
5.16357 5.21388 9.65962
4.51792 8.72236 26.6298
9.09516 18.7597 32.1957
13.3514 32.8784 69.2734
14.6134 32.7789 52.0621
2.68771 12.0281 52.413
15.4957 25.8499 45.9119
8.17291 15.7646 39.5734
8.29923 15.7243 20.7465
2.30283 7.36469 29.8268
9.86712 13.2091 24.3077
5.65652 15.6253 51.3411
18.6529 43.7121 81.6447
16.2082 36.25 79.1314
12.9715 20.9663 22.6124
5.54737 31.1731 80.5612
8.60593 12.2749 28.4981
5.74384 10.853 35.7642
13.9373 29.5042 49.5839
12.3478 28.6532 74.396
8.51585 12.0181 17.2092
5.20799 14.5933 25.7486
4.58908 7.27063 15.5721
3.59908 14.1168 36.1915
12.2974 46.8979 142.956
24.2891 23.4838 22.4939
8.42878 31.013 88.6705
14.2505 21.1246 31.1452
11.0401 25.3012 39.1866
6.69286 19.7297 34.3228
1.39366 11.5304 49.7911
9.34883 11.3693 22.1382
2.88281 8.38461 31.5574
10.291 21.4232 46.0141
11.6592 20.6616 47.2529
5.49056 14.1224 37.3638
8.60306 15.3591 30.6016
4.68829 10.0495 26.2228
10.7813 18.8528 32.1293
3.74995 8.88021 25.793
5.67037 17.634 41.9265
8.11325 12.6678 14.217
3.88293 18.3942 58.8819
13.3914 20.8855 33.0267
11.0475 38.8871 81.8877
7.30205 14.6776 70.6716
16.7139 29.7371 58.5238
12.0834 22.7954 35.8509
5.1513 7.03294 12.4588
11.219 34.712 81.0211
6.16861 9.3787 24.299
7.88413 25.7393 76.3508
13.3013 26.2272 41.7365
8.25164 29.1059 96.5311
12.3748 11.3635 15.4343
6.1823 12.5848 25.9188
4.92823 13.9788 44.5884
6.99577 9.41857 36.2628
12.17 16.4994 29.5174
6.63537 10.8817 29.1003
14.848 31.6137 49.7829
9.73726 34.107 64.8036
7.18292 14.3345 37.7992
3.37695 11.9664 58.5051
13.4224 24.5051 51.8099
11.8657 17.2522 18.7088
7.09069 32.1327 75.1474
6.45003 11.9456 27.1335
2.72122 12.4123 45.418
5.12435 8.1146 58.9047
23.4897 43.2296 49.3794
4.19008 17.8867 49.0823
8.51162 20.2339 30.1398
4.83208 24.6258 69.7825
9.64808 39.8606 144.067
18.8291 22.7413 35.9812
7.65921 9.2954 18.3381
11.3783 30.8364 55.7851
2.74022 5.3829 28.8135
8.37946 25.9258 70.0864
