# pn-170911/RbIIR-44-NIST-1280-1959.psd
# Power spectrum* (dif=0,1,2) (really just |FT|^2)
# NOTE: only the first half! (symmetric)
# weeks: 1280-1959
# 3 clock-days, 3 excluded
# PSD: 1441
109.987 0.0513344 0.0595138
76007.9 2.51308 0.278615
203839 3.64459 0.0545083
95219.8 2.27044 0.253952
15462.3 0.548647 0.09724
6879.17 0.657453 0.185716
4917.8 0.865182 0.148354
6384.56 1.87713 0.117111
3369.31 0.388626 0.194779
4153.12 0.904241 0.0615891
3233.11 0.915792 0.200087
2915.42 0.673823 0.0340014
1926.46 0.356629 0.187
3287.74 0.893192 0.0428096
1214.78 0.152341 0.144633
1810.73 1.5977 0.0849684
2248.69 0.930232 0.0993103
1211.91 0.854076 0.102477
164.736 0.889088 0.0666214
1385.98 0.680711 0.123823
299.838 0.38255 0.0463135
2712.07 3.35339 0.119892
1429.61 2.28803 0.0777586
970.555 1.45923 0.0844933
1300.21 1.91788 0.0828949
957.768 2.12582 0.0952564
579.269 1.49037 0.175021
1425.27 3.0078 0.0570382
2001.54 6.45158 0.23433
953.518 1.82436 0.0277674
187.51 1.51417 0.170275
651.329 3.23623 0.132991
1289.13 4.54934 0.171882
869.897 5.89314 0.155422
642.39 1.76033 0.10748
825.654 3.44783 0.210924
253.406 2.70272 0.0700276
1401.65 8.40899 0.329694
191.106 0.813863 0.0586178
689.633 6.22777 0.404643
331.971 3.41984 0.0323515
440.099 3.29204 0.35085
635.738 7.15519 0.100108
388.112 6.10122 0.268509
1571.06 10.0889 0.189263
627.338 4.95372 0.119623
359.733 2.5348 0.190875
643.931 8.80254 0.086338
738.246 6.36665 0.290312
675.532 5.49424 0.0560622
816.5 9.48866 0.417176
118.185 2.44048 0.0280749
639.481 6.23355 0.194423
590.568 9.36598 0.0797554
679.145 11.059 0.0877353
313.842 3.25938 0.0704601
735.488 7.25923 0.10601
681.094 10.0449 0.238165
294.325 4.60095 0.0868036
498.827 5.77005 0.395838
589.075 8.96185 0.232781
943.475 11.7369 0.430943
615.21 14.6048 0.175894
1005.3 13.9393 0.424931
1065.14 17.3259 0.133606
957.679 15.6864 0.372835
118.099 1.76375 0.170572
147.084 2.83919 0.0891603
364.839 6.01706 0.109022
480.978 11.0239 0.262515
238.721 6.81154 0.29356
402.43 7.65428 0.224809
533.56 12.1617 0.454671
457.354 12.3917 0.500166
371.495 9.85695 0.618238
299.078 7.76757 0.61741
218.287 9.00922 0.43832
566.668 11.87 0.88144
324.882 8.84663 0.282124
371.369 13.3597 0.263432
306.454 13.183 0.692299
135.799 4.4394 0.513439
299.196 10.6727 0.399552
237.475 7.21872 0.582136
803.988 26.2515 0.561308
198.313 6.16548 0.32025
141.999 2.91147 0.239926
467.15 14.7315 0.459698
483.431 17.5987 1.04687
193.112 6.90948 0.315507
448.75 13.0037 0.373559
185.705 7.85588 0.369128
148.185 3.89545 0.316766
292.771 6.7037 0.332909
504.982 16.971 0.669053
414.095 15.0277 0.97082
171.794 12.6569 0.401672
287.482 9.71954 0.203834
365.938 11.7231 0.770393
232.47 9.09677 0.546076
337.727 13.979 0.818242
76.3124 4.72245 0.479064
235.317 15.2868 0.68924
250.636 7.94759 0.570812
120.622 5.4037 0.561442
346.834 15.5758 0.661193
89.1059 4.21413 0.342551
737.983 40.3311 2.39224
324.977 12.7656 0.556922
95.6772 5.28121 0.316534
273.4 12.0256 0.86369
283.639 16.3107 1.02021
219.785 15.0015 0.60001
266.26 12.0467 0.572477
160.637 7.61089 0.748657
293.685 17.9301 1.83598
318.804 14.5947 1.10325
294.327 15.3872 1.45405
312.323 18.4683 1.47655
251.156 23.7931 1.19648
234.964 16.652 1.25964
453.915 27.177 1.89122
364.513 23.097 1.00207
150.344 14.2024 0.995269
94.6647 5.11503 0.817716
232.361 20.4843 1.80035
137.074 8.3879 1.18071
137.793 8.79123 0.789429
419.996 25.3757 2.64968
100.757 8.53455 0.69054
174.123 15.4624 1.45629
131.865 9.11357 0.820217
325.636 22.2562 1.40411
76.8926 7.27313 0.575099
268.274 25.5878 2.06208
116.593 6.69178 0.437424
228.243 17.5809 1.53176
228.401 23.7724 2.09192
110.402 9.24729 0.933309
130.696 12.3116 0.667198
237.9 22.3966 2.54628
59.2706 5.14143 0.820786
299.568 29.5022 3.42797
110.814 6.36125 0.815841
208.225 23.6923 1.78346
148.895 15.1936 1.1827
218.013 15.0518 1.86288
206.918 17.6208 1.46531
65.1688 5.78285 0.813134
183.354 16.9226 2.23015
23.3088 3.05817 0.530133
366.491 37.0689 5.25177
217.851 16.5975 1.54894
174.145 20.5654 2.21539
24.0975 4.35788 0.740459
107.585 7.14344 1.35147
149.45 16.6928 1.73678
69.2597 6.92741 0.295735
86.3848 16.1263 2.04934
134.797 17.8544 2.80164
59.0393 6.89499 0.825336
87.6859 17.0764 2.28392
169.908 11.367 2.17852
71.2588 6.30301 1.12603
143.145 15.3277 2.96086
77.1353 9.36867 0.9186
183.121 25.7061 4.61271
350.873 31.7809 4.42189
112.09 15.1635 1.47996
43.4265 5.47904 0.836376
70.6633 11.2522 1.88589
130.729 13.6338 1.73871
196.975 28.9623 3.92276
261.839 33.446 4.87264
102.643 12.5513 2.05931
204.255 34.4321 6.44321
185.518 21.646 2.4731
127.216 10.4925 1.86509
102.009 17.3608 2.52309
399.33 45.5123 8.03289
54.8357 9.0497 1.60275
175.119 24.6749 3.53079
57.3393 8.4363 1.57902
81.8068 13.5866 2.43007
114.837 13.8362 1.84856
30.7526 5.25692 0.843723
217.508 32.8117 4.6975
169.776 27.9824 4.62961
62.6511 12.4336 1.69861
3.14445 0.791417 0.415116
119.682 24.2236 4.14102
36.1018 3.79713 0.93934
277.513 58.1479 11.0776
188.449 26.4642 3.69157
223.456 29.1796 5.04019
50.4668 9.26828 1.8525
134.406 25.7119 5.19701
106.626 18.3911 3.28584
279.083 49.738 9.5955
85.9016 14.079 2.07539
59.0627 10.0491 1.87207
138.35 21.0205 3.19713
103.237 25.4425 5.17319
50.0029 9.14447 1.64132
120.408 21.5775 4.37973
77.9421 14.4375 2.07831
61.6809 16.22 4.5542
85.9426 8.60219 0.962093
148.299 26.8939 4.70238
80.4922 12.1467 2.82853
85.0148 18.736 4.57954
28.0516 3.8975 0.790799
157.66 32.4709 6.70621
59.1287 16.0792 3.19632
65.526 14.2876 2.87203
132.21 20.5336 3.59649
125.748 26.7294 6.22829
97.7106 18.0267 3.05815
116.724 24.5189 5.73853
51.8311 18.8267 5.29871
239.2 43.8544 8.88333
241.325 52.267 11.6365
92.638 25.5942 7.83628
180.209 34.4857 7.51551
250.083 51.5715 10.0814
77.9866 15.5167 3.26702
72.7866 16.2262 4.50775
28.3715 7.5877 1.19622
56.812 16.2247 4.99751
171.734 41.2903 8.82487
57.1349 17.2119 3.95976
59.7152 17.6222 4.82983
37.466 9.60131 2.35087
66.4627 18.6389 5.09066
90.919 25.6474 6.74882
58.8153 9.13516 1.72158
77.8105 19.9032 4.61373
60.7454 18.7948 4.87866
13.1684 3.33959 1.11511
41.9607 11.1234 2.25377
78.8507 24.5212 7.98938
193.614 46.573 11.3716
100.325 21.2694 4.68671
106.637 20.4349 5.70979
16.3848 8.10449 1.64525
41.5186 12.8442 4.01595
52.5174 15.6625 3.84317
158.257 48.6748 13.4119
51.0449 10.6991 2.27781
37.6419 6.86236 2.22337
217.42 59.7497 14.3854
67.6525 15.5398 5.21849
47.0284 13.3231 4.52436
227.51 58.7731 17.4184
157.696 40.8324 9.42975
83.8844 35.1932 9.1291
68.7912 24.2818 8.47502
97.6375 26.1793 8.2167
39.44 11.8029 3.42371
41.4609 12.084 3.33331
32.2522 16.6795 6.33225
50.6091 14.5171 4.538
39.6277 15.5348 5.23291
31.4592 7.06729 2.62234
71.9952 20.3551 7.19204
61.8266 19.0961 5.92905
47.6261 12.5345 4.08532
1.68451 1.59218 1.25755
43.8535 13.9729 4.35964
90.5746 22.4459 6.59479
125.954 43.4182 13.0571
101.259 45.0378 14.9152
151.973 50.0947 15.423
34.5944 16.5523 6.86582
72.9419 19.4862 5.61585
7.04664 5.99418 3.15208
84.7029 30.7838 9.89839
128.242 43.1071 14.5288
50.0339 21.0495 5.71081
34.6069 16.3662 7.09846
54.6129 10.8128 3.50584
45.6186 26.3064 11.2313
104.969 32.9317 9.14049
95.8169 35.0211 12.8828
55.132 15.3697 3.96137
64.5491 27.0448 10.4619
37.5619 11.0568 3.98918
38.8618 19.6009 10.5977
294.837 95.5253 31.1517
57.5879 27.9206 11.0257
40.1225 16.4937 7.20679
32.4544 14.1586 7.52652
38.3869 8.59347 3.45869
37.1289 17.5228 9.11124
153.362 44.932 14.2564
89.4102 38.855 20.3181
57.5287 19.7465 5.71863
198.847 74.2091 29.7114
12.8539 9.89564 5.74502
42.7288 18.2029 8.78661
107.785 34.451 11.8979
70.5562 21.632 6.63894
36.5749 14.2298 5.36451
87.6823 33.0068 14.0185
13.0978 4.77259 3.20762
23.2638 10.9635 5.52926
125.093 55.2941 23.4397
48.6116 17.0936 5.03895
16.4752 4.67543 1.29871
48.7683 19.3625 6.8718
30.1669 15.9614 6.77459
76.1214 41.7174 20.8701
63.5048 32.4241 12.6586
42.868 20.6569 9.7974
28.4078 8.48462 4.58422
34.7426 7.03643 1.74324
52.5702 20.1436 7.84361
78.834 27.8852 10.913
56.208 30.7998 15.0227
32.1156 15.1705 10.4067
77.5031 41.3086 15.3264
60.0515 29.2296 12.2055
10.6016 9.64883 4.7315
21.8802 7.76443 3.70395
4.31925 2.17775 1.95807
38.9306 20.7033 9.40232
37.6535 18.5521 10.4222
53.6551 28.333 15.3482
34.4025 12.5787 4.86443
48.4664 26.8259 10.6976
50.5478 25.697 11.2128
32.097 16.9183 9.04519
15.3917 6.02652 3.63491
16.7774 13.285 9.8982
29.1023 16.3389 9.67083
99.2064 45.9034 20.9756
34.7865 15.5273 6.96302
14.1698 7.76305 4.35947
82.9979 33.5391 14.4078
36.3186 24.8703 15.1976
33.636 19.0378 12.5565
16.1317 19.9607 18.4706
56.5666 17.3127 6.65904
19.1531 10.1042 5.04928
28.7286 8.13455 2.96542
28.822 17.1364 10.3461
44.0612 19.4979 9.2871
11.4946 9.40832 8.10077
61.9709 31.1733 16.4451
38.5548 20.6373 12.4826
136.178 69.6319 33.795
58.9705 39.0659 26.0981
115.56 56.3955 26.041
59.2766 38.701 23.4949
27.1359 11.4729 5.04298
9.04457 3.05685 1.80632
30.3958 26.6982 16.3887
41.4085 26.501 19.4084
91.5179 47.9443 23.2874
68.1458 30.9179 15.4968
32.0863 23.1817 14.5066
36.1911 30.0188 18.5643
58.051 34.5511 19.5778
57.0156 30.006 12.3287
19.5399 17.3082 16.2657
98.6183 47.4372 20.8036
73.3388 46.0125 30.8195
42.8428 26.9749 17.3982
20.2531 13.0846 6.0039
35.083 16.2795 9.31846
18.2437 13.9726 11.0869
7.74193 8.92974 7.45061
26.0034 9.68589 4.39918
82.2597 50.7812 30.8203
36.6765 20.1149 14.0377
74.4348 39.6574 20.4087
49.1363 35.4259 24.2634
20.4047 21.6949 18.3017
54.1567 29.3885 13.8908
50.1309 29.1603 17.2388
9.18284 3.88739 2.39772
12.5999 11.6235 9.09271
25.5415 10.4876 5.9213
16.2613 9.21954 8.93758
49.3118 21.8095 11.3745
36.5113 23.3229 15.0604
58.5239 34.1631 21.7203
22.5185 20.5071 14.7011
33.8703 18.7692 14.7572
62.6367 37.4013 23.0685
35.2328 28.8145 27.9947
80.3691 48.6789 21.6968
36.3762 29.9135 21.7169
20.6971 13.0453 12.092
19.8013 14.8426 10.6704
32.2218 14.051 5.10406
36.9879 26.9301 18.8607
8.55629 6.3832 4.83346
15.6809 17.6565 11.9633
7.41505 4.1035 4.38808
61.6353 53.1667 33.489
35.4042 35.2904 30.4867
49.7748 25.0133 9.71629
26.0365 20.5998 18.1369
13.078 11.4434 11.3249
23.8175 15.6086 10.3951
29.638 25.24 19.6016
39.5408 21.9622 16.3317
43.5722 37.8035 27.473
45.1608 28.1818 18.3126
15.6931 9.52579 4.62944
35.291 23.635 15.6316
42.9908 34.7501 31.8251
87.929 59.1856 33.5872
29.4268 24.9395 21.1464
18.5614 17.835 18.274
79.8971 57.9 38.4224
30.6584 20.7008 14.9928
24.6515 20.9086 16.2156
26.7705 14.1347 8.32976
28.4703 29.1462 23.5706
28.3113 17.0225 10.6285
6.07749 3.74028 4.20071
42.0089 35.0233 27.0101
9.8038 14.9639 15.1896
27.419 17.6709 16.9402
23.9064 20.7753 15.4016
29.8057 17.7831 16.4998
32.7704 26.4782 21.7475
43.4825 39.6283 29.4799
31.542 44.4798 48.8173
41.1338 10.7127 3.88317
36.0912 20.4579 15.116
58.3507 30.9014 19.8378
18.3397 16.5224 13.8864
67.6952 62.0645 62.6483
29.3771 20.1044 10.6274
27.259 23.2423 22.9593
9.89632 3.5072 1.94553
30.1125 32.4902 28.5847
63.8467 53.1806 36.2584
24.1265 19.6034 15.8949
27.2603 27.1463 20.7214
35.5886 38.8422 39.4009
41.6835 25.6697 20.4223
15.3649 10.4292 9.17175
11.448 14.27 13.7416
47.018 52.4786 54.4078
22.5178 17.0191 16.2482
25.9824 22.9664 15.1132
18.2193 21.5777 18.989
36.8085 33.9603 30.9664
6.76058 8.25739 11.0011
37.7161 27.5378 17.5499
8.00484 5.55213 10.3003
21.2281 18.6953 18.96
32.1993 34.343 31.9963
14.8366 11.2991 10.9024
57.9267 62.2451 61.8843
18.9969 13.5281 11.0414
24.1126 29.008 39.1733
63.3392 37.6447 18.1886
21.8584 25.6424 21.7958
24.3813 31.6327 31.6186
16.9937 23.5645 31.1555
25.8802 13.06 7.06384
18.4562 8.54467 4.26205
31.3119 25.0854 18.7127
4.7182 7.34682 15.8092
38.5322 29.3515 19.1215
16.6277 23.7618 25.2019
21.2091 30.757 42.5257
47.7892 20.3626 9.53574
50.2102 48.2389 36.6612
19.0587 15.249 13.7785
21.8432 21.9287 22.4009
15.8537 13.4123 18.5835
33.1165 16.5689 12.3467
23.384 24.6498 22.4731
17.2013 16.8748 20.4183
111.155 111 103.892
9.84586 11.7393 17.2922
9.86624 13.4622 18.0651
33.2109 46.5807 53.9736
37.9818 39.5411 38.2566
33.0768 32.9928 33.9049
44.3223 30.9 25.7336
16.7182 10.3452 2.91858
32.7356 34.7471 27.2967
21.8581 35.3629 49.0006
34.6822 23.266 20.616
23.2874 21.6148 21.0909
24.2736 26.4177 34.1417
33.8682 50.1112 42.4956
24.2248 22.657 23.9146
32.5986 36.502 37.4849
14.9321 14.1548 19.2351
41.9124 45.2585 43.7322
16.3312 15.1163 18.356
13.2265 19.0935 33.0865
56.6677 54.0281 47.1128
17.9251 22.8944 32.3953
40.2343 30.3357 18.0707
24.6762 22.3511 21.6876
5.0704 4.03031 3.62341
15.6094 13.6079 16.5054
19.31 20.9201 26.0496
10.4235 10.7426 7.82165
11.4026 15.4387 19.9364
44.4404 46.1074 47.7603
19.3695 21.6352 20.419
15.7267 13.6076 13.939
19.9913 25.0447 31.182
26.4244 28.0062 36.0181
20.1042 18.2697 19.69
42.5467 57.8997 58.821
14.4341 16.1251 21.794
12.4445 12.0304 16.3549
16.0744 8.76139 5.66961
21.2229 20.5666 26.5445
26.7793 21.7012 15.1118
20.4596 29.9551 49.215
43.0555 39.7033 36.4958
20.2239 24.0356 29.4665
18.1981 25.1101 38.0765
12.8408 15.5813 15.7215
14.2311 9.30123 10.9406
15.8793 13.342 15.2068
33.5597 49.1092 74.8878
60.0429 64.2687 66.2966
33.4681 25.8034 28.7557
28.7108 28.9104 28.4239
28.2948 33.9369 35.2383
8.17534 12.4248 23.3031
29.2019 43.4754 59.3821
43.8261 32.4396 22.761
20.6781 30.9364 40.926
6.71973 12.4002 38.1853
45.3311 43.4879 29.1743
5.30984 10.5916 12.9785
8.83155 12.0938 20.3793
12.5933 12.8437 22.2658
28.7926 28.16 26.847
47.0249 93.0188 135.904
33.8882 38.1485 60.8841
43.5243 19.4688 6.723
59.3802 65.5958 65.941
20.1426 27.1765 33.9313
9.64185 9.90008 11.9747
8.76676 8.52247 12.2506
26.4824 31.7986 36.3213
14.0611 12.5413 14.1954
6.03277 7.32155 10.406
8.17035 9.60636 8.9766
24.82 42.8722 63.7675
28.0378 17.1864 16.4216
12.2732 15.1448 28.1899
18.5173 17.5987 23.5136
32.7947 42.8126 49.5246
11.6488 6.73733 4.53092
28.0086 35.3952 44.3714
22.5047 31.518 37.0594
19.6233 15.9229 20.5049
20.5111 25.964 23.67
9.81284 13.8487 22.9655
17.3416 27.4495 44.3716
17.2489 16.0089 14.3596
12.4714 23.2654 29.4312
11.011 27.0507 53.6777
18.1397 23.8454 46.6501
47.1211 39.1946 25.3933
18.1573 26.6524 30.0696
8.18216 21.2884 42.9791
22.9278 24.2468 27.9833
16.7541 13.8076 13.2206
25.3507 51.1185 87.1887
68.3747 91.1105 99.1614
5.9293 15.4674 18.6657
10.6026 24.1706 42.6849
13.8312 16.607 21.8176
21.8002 37.0306 61.9007
27.3883 28.1764 57.4433
64.6554 74.467 83.8192
21.947 26.0249 40.2858
7.93362 9.10789 17.3263
13.6734 12.2846 20.563
20.8755 34.1306 57.9018
21.4587 18.9412 22.2077
27.1059 25.0839 18.1547
32.7437 57.0418 70.3513
12.7896 18.2821 26.7362
36.4805 53.9556 76.084
13.1494 22.9714 37.0758
15.604 12.6075 10.8823
22.0317 45.7205 84.746
17.0151 15.8554 39.2003
41.1316 61.3948 89.3951
27.2833 24.6935 20.4407
26.9165 32.1608 38.2224
24.4608 55.2219 109.019
44.39 41.3767 20.732
16.3803 35.5291 51.071
20.1138 36.174 52.345
16.1458 25.9612 54.477
46.1975 57.1911 72.4766
14.5876 18.6006 27.762
40.932 59.043 85.5791
7.66651 13.9909 39.2778
19.736 14.0293 14.3351
11.6677 11.9662 17.1964
14.9447 31.7024 55.9181
9.08377 10.3989 38.187
28.0024 39.9246 41.3494
9.3564 9.05996 11.9857
14.9113 39.5135 69.1238
38.945 57.2222 73.4572
6.33314 8.98627 21.4523
11.1556 15.7404 24.8878
10.1525 7.37736 7.00649
8.66357 6.89646 10.1234
14.8659 22.2215 28.3601
16.4617 31.4815 52.7637
17.882 26.9972 42.9922
25.0843 34.4403 60.6481
16.1057 32.5446 57.9102
7.68054 4.96491 14.7128
21.6736 22.0047 27.6411
6.96864 9.54641 33.4144
33.6998 42.2518 34.6097
12.6935 32.3135 50.5205
3.35184 6.6459 19.5907
9.07575 17.172 30.3336
6.38773 10.1016 27.5552
32.6151 44.9121 59.5544
2.73609 4.56272 9.04848
8.98921 19.7266 43.2242
12.2392 15.2992 12.4783
9.34112 16.7766 16.9828
17.7385 42.1357 79.5261
18.984 16.9368 16.9598
3.37547 16.0351 44.8054
18.3393 7.69731 3.50779
26.0866 51.4467 86.4054
10.264 8.15026 23.2077
11.7545 18.7151 26.167
17.7472 27.4018 39.2466
16.01 31.0397 69.5068
11.0363 16.3065 29.086
10.3232 18.277 30.7151
2.91918 1.1736 4.57511
4.52494 3.62535 12.1622
11.7759 24.0417 44.5258
13.43 24.4346 24.3768
17.6971 16.4373 22.3107
7.67755 20.3102 34.9652
11.1994 28.081 61.3397
29.3676 49.5557 77.6456
8.7134 8.44385 12.3641
9.47906 21.2818 47.1424
13.2936 18.7269 34.533
8.68589 9.01367 5.8264
11.596 26.0981 48.6224
13.2619 17.7955 26.243
6.73466 11.5266 32.0194
26.2715 34.6547 48.9268
11.2732 18.3893 28.0413
3.79858 14.808 45.8187
29.1774 53.6117 90.0433
19.9756 32.0962 63.0533
24.8459 37.7238 66.3656
22.9351 35.8211 67.5353
20.123 41.236 79.0784
28.3905 57.1329 91.484
15.2216 12.9943 16.1986
18.1945 39.9164 73.4934
13.311 15.3562 27.9409
13.9753 29.1603 51.9728
6.48077 10.6806 33.4964
26.3475 31.4617 45.4186
12.0942 25.2376 46.0262
14.4987 14.3281 27.6009
5.81338 14.3116 25.1377
13.5962 20.4671 26.8176
7.30657 14.4685 28.7908
9.41829 17.5948 28.5105
16.8439 31.6794 46.3436
4.87336 20.568 62.7889
16.084 18.8074 20.7336
10.3293 16.2627 40.9097
12.0554 14.2395 22.6139
12.8484 18.9543 62.4713
21.2691 27.1825 26.9655
8.59919 33.2118 69.7447
20.8091 27.5633 29.3097
12.1157 34.9907 83.9779
32.4718 52.4507 93.0842
24.9613 40.9702 50.2077
9.89655 12.2785 21.5155
9.81446 33.0612 75.8134
28.9985 42.1401 83.9182
15.2775 21.9619 37.6363
10.6992 13.1706 21.909
3.63565 21.3223 72.2132
22.414 27.6695 19.7714
14.6552 38.6796 78.9257
6.75078 8.8015 35.3832
21.2556 24.1238 23.7533
3.2801 11.8787 29.6251
5.30914 7.80045 13.64
4.36934 9.00772 21.2594
6.51341 12.9242 20.6595
9.31991 31.3998 76.0246
22.2194 37.9797 54.3726
6.93056 12.5057 31.3949
13.1206 35.9227 99.8572
18.9729 23.0007 17.9299
3.17538 6.24779 14.7977
5.93027 11.896 30.8456
12.8063 21.9124 30.9411
9.62078 20.7758 39.3619
3.62924 6.73088 25.8317
10.8245 22.3482 29.4074
3.90435 20.5832 52.5191
10.1162 15.9695 33.5393
19.1751 28.9827 52.5277
7.32766 17.0055 36.0556
17.0396 51.2895 142.242
25.3902 27.3366 34.0851
11.8887 17.7329 26.1072
13.6586 24.0036 51.7482
8.88003 15.2246 33.2402
1.53617 6.69245 22.939
11.4116 14.7421 35.3521
23.9303 55.4423 94.5771
12.0653 17.2865 51.9179
13.3628 11.1857 13.3984
4.2694 3.2081 15.6978
10.1226 14.2422 19.2539
13.0618 19.5333 29.7752
15.2162 42.1802 96.2369
7.88707 11.1047 56.6007
26.3573 27.3222 25.6291
11.029 30.6291 49.9491
3.43493 9.88792 35.3226
11.8029 35.122 109.069
25.0278 36.28 68.6403
12.6386 25.6958 26.3374
11.3586 30.8568 68.0102
12.0383 15.9966 29.6531
5.84163 11.7509 19.7407
9.82234 40.0916 104.054
13.117 16.1175 39.2394
12.7672 15.2929 30.2956
12.9682 23.9943 50.6785
10.2841 12.5615 22.133
12.1421 25.7936 35.3433
13.586 42.1378 110.701
10.1538 7.93039 3.76068
3.77284 17.5836 53.3958
13.0433 11.1922 14.106
13.6266 46.4543 92.6627
6.87268 3.96791 36.6835
30.5593 74.3469 112.481
5.3604 4.92324 12.6087
4.25272 13.6652 45.0952
14.5886 26.6181 49.2116
3.34913 17.0872 47.462
1.57008 14.0847 100.655
20.4621 36.4325 56.2239
16.2861 30.8727 32.5709
5.24851 19.5662 38.8072
5.81879 5.19636 16.7126
8.31812 12.9209 17.1289
5.34668 8.71255 22.8123
4.33829 16.915 62.8161
9.63386 7.86615 16.4645
4.12958 10.5238 24.4735
4.51573 11.9744 40.964
8.46361 12.2665 31.2087
16.2501 39.9875 69.9684
14.531 24.2579 83.6626
22.2924 60.4651 167.185
31.8982 59.1352 79.269
4.31841 17.5881 54.9829
13.4751 40.7335 93.501
3.83819 10.3543 78.0889
23.7055 33.4797 47.2381
14.6589 25.6726 31.7816
4.34079 7.1987 11.1365
11.1124 26.6421 42.6449
9.59355 30.6035 77.499
3.98285 9.17882 39.1928
8.12137 10.7221 23.3514
5.42603 11.5408 32.4895
9.28166 21.5388 36.327
4.09725 9.66478 25.2678
4.98311 13.5042 37.4689
7.10987 19.6928 69.368
15.5072 53.3114 81.0332
2.91259 7.67023 34.792
7.60851 10.3277 24.34
7.7818 35.6328 111.853
14.7659 7.74581 5.88198
13.5963 26.9662 36.4193
5.7237 17.3743 45.953
4.41453 5.41331 37.696
14.5589 27.9983 45.0448
8.15695 13.5826 38.288
4.23904 4.54901 27.3872
10.6907 24.6022 35.5994
1.62865 5.97683 19.5496
12.5907 34.3718 69.147
4.95791 3.96564 25.8009
12.376 22.9372 36.5975
3.8429 8.82997 52.436
23.7973 39.3778 77.9282
7.64671 11.9295 30.7713
10.9439 21.2808 69.2813
12.5932 22.277 25.4558
3.58899 13.0118 49.5431
11.6921 12.4385 22.851
2.87735 8.36368 27.9997
10.0013 25.2415 59.5458
5.43933 6.53858 12.0763
4.75549 14.1961 32.1562
5.02506 12.5125 34.0252
6.72307 6.7591 7.04934
6.49295 25.0006 87.912
12.9444 17.031 37.5639
19.6787 59.8539 125.631
