# pn-170911/RbIIR-48-USN7-1280-1959.psd
# Power spectrum* (dif=0,1,2) (really just |FT|^2)
# NOTE: only the first half! (symmetric)
# weeks: 1280-1959
# 476 clock-days, 60 excluded
# PSD: 1441
338.387 0.0758028 0.048074
21610 0.464456 0.112427
115990 2.46402 0.108492
14924.7 0.529135 0.108008
46809.1 3.66452 0.114913
5213.87 0.506887 0.112113
4620.47 0.688691 0.103318
2802.05 0.507091 0.106891
2778.25 0.739209 0.105445
1688.13 0.498578 0.106216
1555.45 0.582787 0.107647
1240.4 0.520328 0.10619
1125.26 0.572491 0.111176
877.94 0.525073 0.104373
814.31 0.581415 0.104767
737.613 0.601938 0.112945
661.559 0.694815 0.110662
562.118 0.646828 0.114379
566.026 0.731667 0.105987
491.576 0.658464 0.107598
478.523 0.722667 0.117443
426.925 0.747927 0.10717
413.195 0.807335 0.104067
359.062 0.800184 0.109172
419.378 0.930039 0.10608
371.418 0.938633 0.109318
349.903 1.0075 0.108952
307.488 0.896281 0.107977
341.458 1.09923 0.118946
300.178 1.03158 0.108081
318.027 1.17482 0.11657
317.822 1.24823 0.122447
287.327 1.29126 0.119966
297.527 1.40077 0.117689
289.672 1.45053 0.120584
265.876 1.44198 0.116284
261.803 1.44661 0.118254
262.343 1.63438 0.119492
285.692 1.78276 0.121717
248.813 1.62278 0.114144
256.012 1.75186 0.132033
260.751 1.88708 0.122014
258.514 2.0042 0.120828
258.794 2.0712 0.129218
256.299 2.15708 0.131209
244.275 2.15762 0.115925
253.579 2.39436 0.135975
273.841 2.58382 0.136158
262.928 2.70645 0.142541
224.466 2.44371 0.130297
236.795 2.66337 0.146034
232.105 2.67987 0.137357
233.473 2.82012 0.144196
257.82 3.30407 0.150451
242.075 3.08058 0.145864
227.477 3.07657 0.147204
235.86 3.32998 0.158214
218.712 3.19762 0.14458
224.176 3.4834 0.157794
236.245 3.7342 0.166796
237.946 3.91807 0.160746
229.38 3.82903 0.168951
223.109 3.9185 0.187764
217.734 3.93144 0.17227
216.828 4.0921 0.183687
199.485 3.86131 0.188904
218.172 4.35357 0.19122
230.664 4.83604 0.2272
197.374 4.13542 0.213519
181.857 3.94635 0.193844
222.426 4.99456 0.218685
193.777 4.53284 0.210326
207.08 4.88116 0.222628
199.188 4.88042 0.243129
202.745 5.13577 0.231853
220.381 5.58933 0.255017
216.953 5.74883 0.250305
213.236 5.78768 0.272655
203.686 5.80912 0.268763
188.822 5.52773 0.252359
180.581 5.35222 0.288874
197.451 6.0431 0.29125
201.081 6.12885 0.313966
186.26 5.97354 0.304511
180.905 5.87426 0.296532
183.154 6.22397 0.307745
195.03 6.68549 0.336077
183.991 6.32113 0.318925
181.985 6.51377 0.342738
181.524 6.74525 0.368612
186.632 6.98216 0.370711
198.904 7.72243 0.409455
190.839 7.44027 0.424783
165.861 6.54396 0.3571
159.579 6.48919 0.383341
174.339 7.31313 0.407214
226.43 9.81533 0.515415
167.744 7.20901 0.417113
157.125 7.12397 0.429086
157.562 6.92812 0.422819
156.371 7.39604 0.462263
162.129 7.5708 0.452287
169.36 8.10552 0.50563
166.612 8.17569 0.503997
162.826 8.05859 0.51245
162.464 8.27191 0.505393
167.274 8.61091 0.55681
172.992 9.24632 0.603225
171.553 9.42807 0.622508
161.369 8.70895 0.584941
134.052 7.52372 0.530207
153.022 8.60806 0.606071
151.029 8.76104 0.596582
162.225 9.63193 0.678084
155.87 9.42395 0.678092
145.378 9.00677 0.675378
161.393 10.0677 0.740974
147.739 9.3676 0.672305
143.838 9.26235 0.70242
155.441 10.4327 0.82858
156.579 10.6378 0.787367
133.721 9.00382 0.718564
133.469 9.1935 0.747367
127.9 9.07611 0.749413
143.986 10.2922 0.81
130.752 9.49851 0.77936
142.558 10.6338 0.884236
154.505 11.7416 0.988709
129.272 9.58432 0.818038
144.467 11.0598 0.987257
132.048 10.306 0.913705
141.813 11.4067 1.03678
135.236 10.957 0.969295
149.458 12.2505 1.07242
130.512 10.7342 0.994027
125.427 10.6028 0.974205
137.326 11.6015 1.10778
132.638 11.7267 1.14388
132.593 11.6931 1.16079
121.757 10.9867 1.08713
135.199 12.1643 1.17102
113.987 10.4361 1.03956
113.449 10.4437 1.07483
119.544 11.3454 1.14959
144.855 14.3944 1.5163
125.419 12.049 1.24837
121.753 11.8371 1.24982
120.102 12.204 1.3065
127.402 13.216 1.44202
126.431 12.7372 1.3662
105.528 11.2478 1.2676
120.306 12.9749 1.44037
106.987 11.3385 1.30467
116.934 12.762 1.46213
124.272 13.8324 1.60472
120.781 13.5573 1.64229
130.743 14.7472 1.73565
114.319 13.0503 1.57654
114.476 13.002 1.55767
106.46 12.2109 1.49278
115.068 13.7438 1.69796
123.358 14.8724 1.87152
103.664 12.4907 1.56993
102.458 12.4608 1.63219
112.153 14.2126 1.86346
110.56 13.8758 1.80052
100.676 12.7741 1.69113
112.371 14.9234 2.03782
127.223 16.7511 2.26836
108.69 14.0759 1.90733
108.738 14.4118 1.98035
111.31 14.877 2.12275
108.32 14.8903 2.1304
98.0838 13.4097 1.9929
110.818 15.6724 2.25808
100.98 14.3077 2.11145
111.265 15.7107 2.35711
104.922 15.2096 2.26494
102.423 15.2429 2.37141
103.627 15.1788 2.27532
106.673 15.8041 2.44693
108.041 16.1593 2.53415
105.932 16.2064 2.57185
103.375 15.6969 2.45541
99.6222 15.8197 2.65502
98.2604 15.4237 2.58765
106.687 17.2792 2.82554
98.2422 15.8016 2.54108
93.754 15.6161 2.67215
102.332 16.7255 2.86524
98.4041 16.6956 2.86474
102.244 17.1132 2.98927
125.677 21.8091 3.74424
94.7349 16.2737 2.84893
94.3401 16.8586 3.06678
98.5998 17.4383 3.10037
102.977 18.5012 3.3593
94.7225 17.2152 3.17615
96.6074 17.7145 3.3233
100.017 18.3014 3.49424
89.9138 16.5069 3.1143
88.5569 16.4759 3.25536
85.378 16.1555 3.0778
90.9028 17.2658 3.38375
92.8832 18.5812 3.68178
92.6921 17.4855 3.36131
89.0728 17.5205 3.47535
95.3453 18.6499 3.80498
93.9515 18.9331 3.94733
93.0548 18.4755 3.81594
91.6773 18.9685 3.97875
91.5898 19.1545 4.00922
80.8946 16.4761 3.46405
83.1401 17.2374 3.75833
89.4238 18.9039 4.08785
81.6335 17.8583 3.99614
89.953 18.6267 3.88288
79.3685 17.1912 3.83399
76.3946 16.9222 3.72001
81.1043 18.1539 4.12683
89.2985 20.4758 4.73737
85.9788 18.9275 4.19655
76.9916 17.7054 4.13207
84.1505 19.1412 4.44724
83.7289 19.5028 4.5575
83.4923 19.4399 4.67979
73.9143 17.4823 4.17443
81.0998 19.0015 4.46969
83.4759 20.4785 5.112
82.2604 19.5594 4.78465
72.4699 17.7235 4.34591
81.2251 19.8747 4.86668
76.3486 19.0726 4.77706
82.7283 20.6367 5.18186
82.2798 21.0905 5.39784
72.381 18.4653 4.82217
86.915 21.4919 5.45202
71.713 18.882 5.03157
69.7976 18.2199 4.80653
74.9843 19.9554 5.4691
73.0977 19.1843 5.14125
75.3497 19.8531 5.23339
72.975 19.6759 5.32558
73.8238 20.2853 5.57165
78.0164 21.6332 5.94514
80.0347 22.2545 6.17508
79.0946 22.0599 6.16414
72.0164 19.8489 5.49341
68.5166 19.8246 5.79289
72.1732 20.6614 6.04162
72.8438 20.4431 5.88292
69.4635 20.7225 6.0309
73.1082 21.1696 6.13245
78.0912 22.9361 6.69539
75.2663 22.5281 6.78127
70.2297 21.6511 6.668
71.2482 20.8914 6.28957
69.3288 21.0352 6.40993
67.6567 20.7325 6.29895
71.1139 22.1863 7.07136
67.5572 20.754 6.57904
67.7909 21.3836 6.81284
71.3622 22.2339 6.96081
66.9497 21.1691 6.86379
73.448 23.2573 7.36519
68.6025 21.9907 7.12506
63.0811 21.1768 7.06254
66.4437 21.1843 6.91282
66.9685 22.06 7.40093
68.9911 22.3933 7.27308
67.5387 22.1883 7.38297
67.8119 22.8368 7.7575
62.393 21.3751 7.33749
65.8117 23.203 8.23582
63.8998 21.7304 7.48605
64.6571 22.2902 7.93561
68.1258 23.5012 8.08175
65.5886 22.8757 8.03763
61.8931 22.0348 7.97585
57.6614 20.7376 7.4855
58.774 20.8659 7.59881
59.191 21.2668 7.81602
66.6712 24.059 8.85813
63.2931 22.726 8.25109
64.6149 23.5976 8.73806
65.6739 23.4666 8.39878
56.1495 21.5117 8.41223
63.437 23.9355 9.17355
85.5471 32.1034 12.0051
59.6974 22.2779 8.48173
55.2416 21.3888 8.37422
63.6133 24.6737 9.63641
55.4248 21.094 8.27157
63.1766 24.6633 9.65533
58.2009 22.9124 9.2025
56.1003 22.3248 8.97034
57.255 22.371 8.71879
55.1035 22.1594 9.03467
58.4238 24.1871 9.99336
59.1774 23.9363 9.90153
56.2828 22.5851 9.29102
59.1598 24.4934 10.0354
54.1 22.976 9.56972
56.1963 24.001 10.3593
58.5945 24.2738 10.1835
49.713 21.0181 8.96166
59.7159 25.4874 10.8967
52.3292 22.2577 9.78294
52.1036 23.1168 10.2752
57.3156 24.5196 10.734
56.0003 23.7857 10.263
52.6588 23.5533 10.5548
56.9907 24.7555 10.8631
55.9957 25.0246 11.0833
54.0542 24.8315 11.3853
60.2221 26.578 11.9118
50.3729 23.2869 10.8656
53.5157 24.6038 11.1584
48.7346 22.3863 10.5351
52.9525 24.3518 11.4656
50.5031 23.3604 10.9665
52.2859 24.1164 11.4278
50.4589 23.2184 10.9833
54.1513 25.0164 11.5807
52.964 25.3646 12.1528
49.9894 23.7685 11.5189
52.763 25.44 12.3057
49.632 24.075 11.7637
47.4032 23.0303 11.363
50.3181 24.3513 11.9459
44.6874 21.8646 10.9147
50.9225 25.1401 12.3438
46.9475 23.0076 11.4613
50.3018 25.0731 12.6527
43.9681 22.1866 11.1139
46.6378 23.6996 11.9886
45.0615 22.9737 11.794
47.3213 23.8078 12.2005
46.9386 23.7938 12.1661
45.3245 23.5996 12.5432
50.1864 26.125 13.3968
47.9272 25.4495 13.5313
47.2165 24.4973 12.8872
43.9089 23.9077 12.9982
48.7531 25.5209 13.6508
43.6118 23.1877 12.5548
46.2707 24.4827 13.0541
48.77 27.1176 15.1027
45.2637 24.9416 13.7856
47.494 25.8299 14.2939
46.3594 24.1676 13.0038
42.9391 24.2261 13.8694
47.303 26.6657 15.1782
48.3035 26.625 14.7482
48.8542 27.2449 15.4167
38.8728 22.1273 12.9371
45.8438 26.0099 14.7781
45.5093 26.0121 15.146
44.5166 24.9849 14.2946
42.1896 24.4894 14.4848
44.6248 25.6093 14.815
43.2729 25.1079 14.7813
40.2946 24.167 14.7972
44.0774 25.2241 14.8389
43.703 26.4483 15.9883
42.8717 24.7267 14.4559
40.0458 23.6886 14.385
43.4028 26.7417 16.3984
43.0841 25.875 16.0297
41.2789 24.6667 14.9832
41.9769 25.5972 15.6833
42.0643 25.7237 15.9359
40.7435 25.6193 16.1963
43.8588 26.6652 16.6019
39.3179 24.6665 15.3276
40.3247 25.5737 16.2615
44.3953 27.0813 16.7128
41.6031 27.1815 17.4467
39.7994 25.5333 16.4094
38.8629 25.0961 16.4686
38.4824 24.1216 15.5624
34.7567 22.8878 15.3912
38.9675 25.0799 16.4323
36.7124 24.204 16.5431
48.4039 30.6844 19.0193
37.525 25.1869 16.7005
40.4939 27.2397 18.4537
41.1016 27.8171 19.0249
36.8999 24.5925 16.9483
38.8457 25.4055 17.0066
38.8444 26.2435 17.8036
40.5088 27.6392 18.7233
38.8043 26.5831 18.3311
37.2278 25.6436 18.1768
39.7592 26.8393 18.3764
37.0696 25.2305 17.5695
35.8866 24.984 17.8436
39.5568 27.5773 19.3884
38.1627 26.4624 18.833
37.52 26.3959 18.8191
34.7668 23.9986 17.1113
34.9121 24.3635 17.1712
37.7757 27.5716 20.1301
35.8804 25.3891 18.4664
36.8517 26.505 19.0852
37.8369 27.0622 19.7423
37.6623 27.3855 19.96
36.0164 26.4745 19.803
36.5523 26.1135 19.0089
37.645 28.006 20.7009
34.6963 26.1648 19.811
36.577 27.261 20.5846
37.4887 27.6683 20.0992
34.7711 27.2132 21.1106
35.1164 26.3801 20.3314
37.0405 28.4728 22.1239
33.3515 24.8005 19.1797
34.9978 26.4767 20.5113
34.8413 26.3531 19.9354
33.9812 26.0681 20.1296
33.1686 26.1954 20.7912
35.8799 26.5044 20.0457
31.6259 25.2959 20.1392
30.7551 24.4928 20.1215
33.4468 25.8021 20.1048
31.3242 25.2387 20.3985
31.5822 25.4602 20.6748
32.4509 26.5137 21.9977
31.9656 24.7436 19.7462
30.0194 24.0582 19.9701
35.4373 27.8686 21.853
33.076 27.3518 22.42
30.0079 23.9258 19.7658
31.8398 26.6399 22.7697
32.6413 26.2439 21.5549
29.6037 24.4738 20.6434
31.761 25.8755 21.6213
31.4675 26.109 21.7899
31.875 26.2703 22.1945
30.4597 25.7576 22.1004
31.2555 25.7234 21.6442
30.3908 25.4251 21.8552
32.2885 27.5255 23.5565
29.1649 25.1434 21.8962
30.0008 25.3931 22.1319
32.0328 27.552 23.9464
32.1623 27.4656 23.4089
27.9156 24.6663 22.242
30.5738 25.9704 22.4186
30.1455 26.6235 23.5191
29.9553 26.0281 22.8943
29.144 25.5423 22.6866
30.9838 27.4096 24.2241
30.2934 26.7884 23.8876
27.6786 25.5468 23.6286
27.4763 24.7205 22.8508
27.4453 24.6428 22.7775
28.9429 26.2316 23.9966
27.693 24.3919 22.1479
27.3 24.666 22.6563
28.1985 25.7748 23.482
28.0646 26.6465 25.3552
27.1151 25.2776 23.915
28.3332 25.6247 23.5301
26.0362 24.2867 23.4012
27.934 26.3425 25.4177
30.695 29.009 27.6792
27.5935 24.8159 23.2706
28.5932 26.9761 25.238
28.7911 27.3777 26.1444
27.7569 25.6741 24.9831
27.6395 26.0061 24.7973
26.3855 25.5526 24.8595
27.2306 26.3783 25.9161
27.3836 26.4894 25.8805
27.3433 25.9792 25.2983
26.5844 24.7459 23.4402
27.3471 27.1406 27.2705
27.7711 27.3663 26.8934
25.1924 25.2666 26.8106
38.3403 37.3577 35.3525
28.6423 27.7529 27.3636
25.3129 25.2756 25.5233
25.513 25.0142 24.9133
25.7666 27.0037 28.2175
24.1269 23.917 24.6313
26.6163 27.0975 27.535
24.8405 25.0217 25.7985
28.0013 27.9579 28.5201
25.1632 25.6583 26.8006
28.4376 28.1255 27.6806
23.9738 25.6849 27.3486
23.7642 23.8435 24.4992
23.6514 24.5559 26.2333
25.6255 26.0026 26.9307
26.1505 29.0259 31.5279
24.4004 24.5506 25.6282
24.7408 26.3409 28.3154
24.9216 26.3822 28.056
24.9228 26.6628 28.581
22.9554 23.5397 24.9461
23.4993 25.6573 27.579
23.4445 25.6323 28.1236
23.0003 24.6634 27.6645
25.2472 26.5173 28.6149
25.1544 27.7954 30.7496
22.5491 23.1226 24.4971
24.1147 27.16 29.7281
23.6394 26.4541 29.277
23.473 26.3122 30.2395
24.1399 25.6922 28.591
24.1011 26.1497 28.8386
23.6083 26.2707 29.4929
22.9075 25.4386 29.2358
23.6778 25.6278 28.318
24.831 28.1195 31.7644
23.4053 25.6337 28.995
23.7097 27.1628 30.9812
22.3604 25.4011 29.5027
24.7274 28.0294 31.6156
22.0214 24.7795 29.0371
22.3434 25.806 29.8083
23.638 26.7743 30.2301
21.9474 24.9564 28.8825
21.01 24.7062 29.7625
22.5762 26.0301 30.6154
22.1845 25.5467 29.7815
21.1892 24.8055 29.4005
21.7965 26.091 31.7674
22.6553 25.7293 29.2066
21.7558 26.4904 31.9712
22.4535 26.5323 32.2454
22.9409 27.2885 32.4124
22.2388 26.5466 31.3856
20.449 24.5255 29.6519
19.946 24.4443 30.421
20.4856 24.9526 31.0119
20.3859 23.6824 28.4717
20.7075 25.0823 30.6631
19.6834 23.746 28.1642
19.0437 23.617 29.908
21.5002 26.9249 33.6745
19.8222 23.1895 28.5043
20.4478 25.7064 32.2249
21.0402 25.8837 31.6307
20.9125 26.1049 32.6023
20.2605 25.1859 32.5431
19.9241 24.2318 29.9421
20.9966 26.1554 32.479
19.2035 24.3208 31.8816
18.9436 23.2363 29.0053
19.2524 24.9978 32.7607
19.4586 25.1329 33.1352
20.8197 25.4296 31.5719
19.7718 24.6267 30.7694
19.9735 26.8539 35.384
20.6796 26.3898 34.3157
19.0043 23.3225 29.8417
18.6816 24.6876 33.3605
20.643 26.1972 33.9305
19.253 25.0751 32.7168
20.1006 26.8349 35.1794
19.1482 25.3675 34.2919
20.2476 26.6027 35.0824
20.4925 26.9691 35.2004
18.8254 25.1878 33.8729
17.6041 23.5526 32.2637
19.681 26.3369 35.3623
19.0974 26.5853 36.6231
19.6446 25.7192 34.8778
17.9701 23.4585 31.2572
17.0709 23.7165 33.7761
18.0333 23.3867 31.8484
18.6764 24.6121 33.1181
18.334 24.5586 33.9513
18.2898 25.5748 38.5622
26.2434 34.5167 42.4356
18.0903 25.6099 37.0909
19.3037 26.3237 36.3479
18.2523 24.607 34.0382
17.2475 23.5375 33.1095
17.8883 24.5992 34.7127
17.8389 23.9091 33.4848
17.9711 24.3855 33.7759
17.8247 25.1846 35.2437
17.092 23.7056 33.8838
17.6913 24.2261 33.5598
17.0296 24.1384 35.0192
17.3361 24.1725 35.089
17.0781 23.8679 33.5961
15.7263 22.5255 32.8994
16.3626 22.9464 33.1542
16.6972 24.3772 36.179
17.6902 25.131 36.4093
15.9942 22.9911 34.6396
17.123 24.4006 35.3692
15.8213 22.3201 33.1022
17.0091 24.3047 35.6468
16.3475 23.0368 33.7093
16.7848 24.0288 34.4285
16.0492 22.8808 32.9553
16.4598 25.3581 38.0723
16.6552 24.4533 37.1549
17.3332 25.3563 37.264
16.2739 24.1242 37.1284
16.0737 23.0538 34.7169
17.1768 25.8075 38.7731
15.2558 21.1856 31.6184
15.6725 22.6442 33.6361
15.3703 23.2658 35.9626
17.7581 27.5004 41.346
15.6433 22.7063 34.9917
15.9797 24.0386 36.9382
16.8896 25.5147 38.8498
16.6609 25.1149 39.2005
16.7584 24.8556 37.4864
16.6886 26.0746 40.2798
15.2506 22.3043 34.6593
15.0418 22.9334 36.117
15.5294 22.7135 34.1513
15.8834 25.7941 40.1038
15.0436 24.0576 39.0545
14.9624 23.2526 37.7448
16.1484 25.0828 39.5946
15.5997 23.9886 38.6263
15.5306 23.4884 36.651
15.3023 23.907 37.2564
15.8098 25.5427 40.3104
15.4308 24.1286 38.9198
15.9174 24.9677 39.8199
15.5703 24.1783 38.0041
14.7544 23.4648 37.2216
14.2918 23.9202 39.682
13.688 21.6365 36.2903
15.2468 24.5558 38.9505
13.8281 22.7093 37.5937
14.4774 23.024 37.9218
14.8129 23.057 36.2578
14.0388 22.8304 37.3921
14.417 22.9382 37.1661
13.7924 22.5154 37.6768
13.9942 23.2419 38.9107
15.076 23.8324 37.7065
13.5252 23.8958 41.9473
15.3757 24.2794 41.2187
14.9858 23.7384 38.6445
13.7256 22.431 37.83
14.2056 22.4708 36.6793
13.7706 22.6297 37.2331
12.3978 20.97 36.4127
14.0667 24.0626 40.8422
14.4318 23.8153 39.6972
13.3764 22.9488 40.6302
13.8943 22.2038 36.8478
13.1086 22.9298 41.2054
14.2705 22.875 37.8622
13.0548 22.8386 40.7924
13.7303 21.9014 36.1783
13.4488 24.0784 42.8278
13.0578 21.9163 38.2953
13.7577 22.4752 37.2099
13.3251 23.0586 40.0619
13.3173 23.1273 40.8239
13.7547 23.6468 40.9121
12.8364 21.9694 38.7874
13.0834 23.1802 40.8826
12.7596 21.9168 38.4374
12.7469 22.5178 40.5105
13.681 24.4442 43.8111
13.5247 23.6596 41.6662
12.2944 21.4187 39.9488
12.2773 21.8527 44.6299
20.2417 34.3052 53.2121
12.4173 21.7057 40.021
12.8249 22.1619 39.1626
12.3111 21.768 40.1559
13.395 23.9307 41.4631
12.0764 21.5427 39.3842
12.8759 23.6537 42.5173
12.189 22.1321 42.193
13.1262 23.1927 40.5671
12.0561 23.2234 44.5962
12.4956 21.4784 39.564
12.9777 23.3029 42.8005
12.9977 23.4487 41.9885
12.5385 23.1939 42.8529
12.0133 21.548 41.3016
12.9662 22.3363 39.0751
10.7047 19.2256 36.9532
11.9978 21.7971 40.8961
12.8065 23.2571 41.5983
11.6694 22.1604 42.3177
12.0067 22.995 44.5563
12.0463 21.1966 40.6343
12.9841 23.6148 43.5905
11.7409 21.1427 39.2867
11.9158 22.4019 42.0108
11.2481 20.5792 39.2537
10.2963 19.1361 38.6429
12.2092 22.1056 39.1014
11.0157 21.1246 40.1153
10.6594 19.9232 39.2631
11.8497 22.9041 45.3595
11.5099 20.6086 39.7459
11.9905 21.8939 40.2583
11.6085 23.2228 45.3124
11.1258 20.331 40.7249
11.2761 21.2335 41.5805
11.1914 20.4151 39.6022
11.5816 22.1981 43.0453
11.6493 21.9461 43.2575
12.0713 22.765 44.0436
12.2851 23.3199 43.8617
10.7309 20.7068 39.8693
10.436 20.7632 42.8198
10.7429 19.8506 38.2394
10.0015 19.9489 41.0949
11.5737 22.2644 43.5164
11.0598 22.0207 45.2206
11.8623 22.3528 42.6428
10.8271 21.4401 43.3814
11.2936 21.7544 42.6677
10.9379 21.677 42.9328
10.2918 19.7414 39.4495
9.68723 19.3036 39.1551
10.3492 20.8573 42.8931
10.9729 21.4685 42.3231
10.1131 20.2429 41.8982
10.311 20.3618 40.4545
10.3182 21.315 44.0206
10.339 21.3307 46.1527
10.6686 20.0068 39.6704
10.3408 20.5146 41.3622
10.3603 22.064 46.4142
10.6111 22.0866 48.1429
11.5963 21.2799 42.4332
10.0679 19.2727 38.9402
9.8855 20.1998 40.966
10.043 21.0538 44.9678
10.5499 20.8362 43.9742
11.2227 22.9816 46.4086
10.1718 20.5202 42.8959
10.3908 21.5357 44.4346
9.60832 19.1161 41.9025
10.9911 22.6942 47.6678
10.5713 20.7225 42.5066
9.69976 19.7887 42.0137
10.1279 20.8577 43.5145
10.3762 21.5826 44.8747
9.87105 20.6787 45.224
9.63869 19.7489 41.7102
9.94544 20.6106 44.0582
9.70017 20.5502 44.213
9.92619 20.7592 44.3568
9.43084 19.3808 42.3601
10.0652 20.374 40.5799
9.10962 20.3535 44.7364
9.21661 19.3703 42.0003
9.44126 20.2106 44.9882
9.35886 18.2437 38.5658
9.24645 19.7895 40.9475
8.49735 18.8445 42.5693
9.34931 20.1104 45.0802
9.72021 20.2248 43.0212
9.05068 20.511 46.5476
9.37718 19.187 41.7806
9.4866 21.0603 47.279
9.1239 19.4318 51.3168
14.5378 29.9349 54.8816
9.52721 21.2816 47.3912
9.62314 20.8781 43.9799
8.21993 18.5058 42.2084
8.36541 17.7111 40.3077
8.78644 19.4101 43.2277
8.72613 18.1614 38.5861
7.97057 18.5674 42.9671
8.76151 18.7474 42.7001
9.29585 21.0523 46.9529
9.29955 20.8087 47.5968
8.95366 19.0138 43.4229
9.12974 20.3157 46.186
9.31226 19.0343 40.5193
8.55532 19.9955 44.2434
8.6512 19.5689 45.9031
9.20341 19.6255 41.9092
7.33715 17.1844 43.4796
8.79479 18.3059 41.2163
8.52155 19.3571 44.2953
8.64892 19.4347 45.5262
9.20317 20.3115 45.9186
8.41238 18.8479 44.6682
9.16139 19.6156 43.3207
8.81151 20.7995 48.0184
9.29186 21.2793 47.6095
8.02342 18.3404 42.2957
7.98762 19.0526 46.157
8.80964 19.9336 47.1555
9.16231 19.7294 43.0013
7.94791 18.5419 44.4884
8.02046 18.28 46.0988
8.72393 18.737 42.9445
8.66853 19.5617 44.1451
8.27228 19.8929 46.344
8.3747 18.9236 44.8037
7.92099 17.62 41.1959
8.12137 18.9021 44.4448
7.84923 17.3821 40.0237
8.06728 19.8825 48.6025
8.23964 18.6835 47.5787
8.92886 19.1916 43.7849
8.10546 18.866 45.3714
8.19148 18.5718 43.7042
8.42733 20.0318 45.6808
7.7609 18.2368 43.5228
7.08105 16.7374 41.9154
7.92114 19.3936 48.9613
8.29217 18.8034 45.465
8.09653 18.5952 44.04
7.67654 17.8511 43.9015
7.93429 18.9884 47.193
8.20317 17.5435 41.1209
7.88938 18.5838 44.1803
7.85283 18.6998 44.4063
7.71191 18.5396 45.4537
8.12794 19.2972 44.9724
7.31421 18.4096 46.3079
7.66219 18.8597 47.7508
8.09578 19.0016 46.7375
8.24158 19.5278 46.2699
