# pn-170911/RbIIR-53-USNO-1280-1959.psd
# Power spectrum* (dif=0,1,2) (really just |FT|^2)
# NOTE: only the first half! (symmetric)
# weeks: 1280-1959
# 11 clock-days, 0 excluded
# PSD: 1441
350.388 0.0660951 0.021093
24004.6 0.744258 0.0134578
84066.1 1.43744 0.0156916
13670 0.423294 0.0150752
42151.5 3.04222 0.0154083
5795.4 0.71055 0.0173787
5177.6 0.507905 0.0147097
3931.31 0.623805 0.0145186
3305.17 0.689565 0.0148125
2217.87 0.536232 0.0152108
2935.11 0.825005 0.0145512
1206.65 0.504512 0.0156979
823.644 0.426677 0.0135284
969.904 0.550615 0.0179604
1924.6 1.28861 0.0172528
927.478 0.642844 0.0179896
835.572 0.709792 0.0152321
791.293 0.895512 0.0157087
742.422 0.511501 0.0177447
155.092 0.344108 0.0131438
409.666 0.648032 0.0116158
420.309 0.986399 0.0183653
400.287 0.787764 0.0143043
323.36 0.790168 0.012261
467.998 1.05749 0.0129564
504.435 0.866539 0.0156967
259.868 0.892306 0.0211684
509.762 1.73147 0.0180885
435.793 1.74677 0.0235335
311.55 0.908442 0.0233695
274.038 1.06303 0.0215276
298.066 0.939732 0.0244431
215.436 1.42579 0.0270373
474.066 2.21748 0.0253258
291.853 1.76568 0.0220197
311.271 1.11359 0.0268702
317.001 1.53053 0.0277599
316.172 2.41567 0.0296316
295.722 2.1554 0.0264507
316.211 2.17038 0.0143543
139.057 1.47782 0.0218197
248.318 1.89092 0.0351929
286.404 3.13477 0.0370064
241.978 1.91519 0.0422712
245.582 1.59238 0.0266308
310.538 2.4974 0.0303618
275.494 2.53942 0.0383403
236.53 2.16146 0.034822
213.827 2.78922 0.0458526
300.188 2.92076 0.0447439
281.293 2.56771 0.0370778
221.914 2.10684 0.0290918
273.929 2.76494 0.0411336
381.843 4.15628 0.0637646
248.981 3.25906 0.0524936
153.804 2.36475 0.0513857
282.908 3.67696 0.0777907
189.249 1.97526 0.0418532
272.703 4.05107 0.0806733
226.374 3.89227 0.0868596
164.445 2.31252 0.0729559
253.283 3.29605 0.0983671
268.875 5.21136 0.0836964
419.491 6.99145 0.150694
103.342 1.85282 0.0371236
168.096 3.4653 0.0778896
283.245 4.86739 0.0908011
258.484 5.38507 0.118632
137.443 2.81191 0.0872387
211.774 5.26533 0.123446
278.451 6.00959 0.119218
253.63 5.98943 0.160939
137.596 2.73213 0.0851376
185.362 3.97103 0.119431
210.274 4.2907 0.151683
151.415 5.3778 0.141565
325.171 7.33727 0.205426
178.961 5.70016 0.17733
165.916 4.5186 0.15177
228.894 6.09072 0.184429
205.289 6.07689 0.230321
236.261 6.00954 0.198565
179.055 5.55395 0.155465
130.174 4.34147 0.158139
203.784 7.43717 0.227575
115.412 3.58703 0.150804
173.984 6.46128 0.230702
138.17 4.34118 0.177304
178.44 5.90032 0.294796
250.857 8.69723 0.35169
183.52 5.38704 0.245101
127.782 4.03826 0.175514
196.06 8.49465 0.365911
180.098 7.79531 0.33725
154.164 6.55041 0.322949
117.189 3.8116 0.172112
176.434 7.52789 0.318565
113.319 5.5222 0.272009
85.6958 3.72555 0.154302
272.768 11.1019 0.604305
185.135 8.8088 0.504151
120.008 4.99289 0.290444
165.189 8.33275 0.450483
115.378 6.07005 0.296838
208.663 11.6553 0.630496
95.7972 6.42113 0.363865
179.449 9.4836 0.446758
134.07 6.37833 0.393501
192.128 10.7052 0.578378
200.023 10.1867 0.589025
115.757 6.47265 0.370215
220.655 11.9868 0.694047
182.376 9.68476 0.604766
121.647 6.86453 0.479905
72.0548 5.10441 0.329149
172.778 9.90394 0.684932
105.781 6.46404 0.470787
158.903 9.63559 0.664699
216.556 15.569 1.08526
135.845 8.56687 0.607404
98.9084 6.50968 0.503223
54.721 4.17052 0.297015
147.377 9.37114 0.630329
97.1131 6.40245 0.450176
125.598 8.52236 0.64517
112.638 7.87052 0.515207
143.931 11.0234 0.795178
272.46 18.2196 1.23784
214.983 15.0759 1.19148
145.444 11.5518 0.95022
74.088 5.85216 0.485281
166.879 11.8959 0.922226
59.256 4.91868 0.430586
82.4711 6.80801 0.658925
131.751 12.0354 1.08325
83.7048 6.03314 0.512528
146.179 11.0719 0.977245
84.1663 6.63938 0.613961
180.051 13.9503 1.20296
77.7391 6.62328 0.639633
91.7062 8.71457 0.783084
157.448 16.7973 1.69166
104.145 10.338 0.987507
90.3445 7.81073 0.837843
72.4396 7.98096 0.909844
82.8299 7.67425 0.768984
190.66 18.0112 1.79356
108.302 11.6509 1.1848
114.054 11.2627 1.23346
87.7337 9.79884 0.985943
67.5553 7.27676 0.830064
89.4769 10.7084 1.20104
133.541 17.1791 1.87021
75.9165 7.95703 0.796711
108.927 15.268 1.88582
190.794 18.2985 2.02169
193.406 20.3687 2.3162
80.5843 8.9437 1.06126
115.487 12.0023 1.44467
141.181 16.3617 2.0978
91.8866 10.1496 1.17151
167.051 19.01 2.40339
123.416 15.7223 2.01807
160.375 19.338 2.3359
114.864 13.7576 1.65407
120.359 16.5697 2.18727
67.5605 7.65832 0.985513
93.0186 12.849 1.83361
170.338 22.6936 3.08516
71.2837 9.44658 1.24248
141.83 16.6264 2.15722
89.6959 12.146 1.74999
84.2887 11.2153 1.69755
82.3981 12.3498 1.64379
93.0762 12.2237 1.83507
41.9835 4.64248 0.650969
100.538 13.5217 1.91012
108.768 17.6916 2.60122
100.442 14.2668 1.93187
104.234 17.0759 2.6615
85.5067 13.3171 2.25867
66.5574 10.4359 1.56383
78.0207 11.2323 1.77703
89.8291 14.522 2.40732
65.0887 10.1081 1.6608
90.7738 15.0118 2.4507
105.701 17.7829 3.0215
151.462 21.2013 3.33639
71.6718 12.2178 2.1162
85.4048 13.0981 2.09225
48.6091 10.912 1.97406
68.2448 11.1946 1.91664
127.393 21.259 3.57771
88.4396 14.6013 2.47873
80.329 15.0264 2.95243
81.6525 14.1592 2.62085
122.505 21.44 3.91861
52.1018 8.52584 1.65918
86.1527 17.0522 3.30141
88.8744 14.9879 2.94423
87.1981 16.2243 3.14367
68.086 11.0433 1.9903
113.832 18.4223 3.5399
102.483 18.5321 3.46752
81.5986 15.5059 2.99742
58.0342 13.9201 2.84983
93.8007 18.5007 4.03897
92.0152 17.0547 3.4329
96.5601 19.1247 3.59779
81.9733 18.0245 3.68993
96.3653 18.2684 3.7641
103.253 18.8551 3.79806
132.086 21.7142 4.19263
135.842 27.8912 6.21576
56.682 12.7462 3.11888
53.7388 11.3719 2.48805
48.694 11.4887 2.75201
90.6545 20.2371 4.7382
87.7728 15.3177 2.98997
134.481 28.6633 6.70402
120.974 27.1701 5.95755
75.4829 16.5726 3.88277
73.1408 18.2419 4.11502
62.4702 16.4052 4.04312
70.7634 17.3961 4.25641
50.3691 9.85591 2.12984
111.481 27.4412 6.38727
65.895 15.1785 3.66684
136.824 33.6105 8.94872
98.8533 22.4982 5.44879
74.2578 15.8674 4.12978
72.2372 17.2735 4.06166
72.9547 18.0057 4.36144
94.589 26.0648 6.54325
61.3365 17.2581 4.36839
49.2167 12.439 3.73951
74.7309 19.5729 5.36095
101.099 22.7787 5.32059
90.9025 24.1984 6.29496
75.1501 17.7955 4.73868
118.662 29.8107 7.89294
81.6474 22.9171 6.02763
93.6835 23.3006 5.63732
87.1391 26.9355 7.67358
58.9582 15.4566 4.27793
89.6617 25.7921 8.04852
73.549 18.367 4.62804
42.9081 12.578 3.55334
48.9852 14.5502 4.26102
100.641 31.3584 9.03091
57.8831 15.6945 4.36472
62.4212 16.5399 4.38015
51.7432 17.1779 5.50473
51.8116 14.9435 4.50371
62.4685 19.0688 5.71163
51.5643 17.1823 5.4271
60.9969 20.9596 6.85744
57.5101 16.6389 5.22702
82.9665 23.2672 6.68255
63.4323 17.8378 5.34778
101.486 30.4896 9.33484
61.519 20.0201 5.92893
60.3004 18.4668 6.09777
45.8024 14.2638 4.78528
65.042 22.5136 7.8861
68.4586 19.1619 5.45849
93.5045 31.4466 10.1076
72.859 22.0257 6.9156
52.4427 19.1331 6.91422
63.9126 18.2936 5.52133
52.3328 17.8414 6.07996
63.3701 22.3165 7.11625
40.0505 14.4135 4.97861
60.4358 19.1353 6.6371
59.9747 23.7507 8.84861
38.8628 14.9027 5.91653
58.5494 19.6867 7.15509
62.8959 21.008 7.17881
77.7716 23.2073 7.73583
57.6068 22.2164 8.47932
45.0114 15.5725 5.22593
61.429 20.1538 7.46772
74.0607 31.0656 11.6907
42.6431 14.2193 5.45571
70.7339 23.1714 8.38148
59.341 17.0451 5.47341
37.6679 15.0323 6.05742
47.0305 20.3416 8.54941
88.4049 28.9805 10.2318
64.4577 22.1982 7.98621
87.0343 32.2792 11.6627
59.5652 24.0953 9.05444
69.4727 30.7442 12.8952
78.9623 30.843 12.3954
67.9841 20.6592 7.093
62.7518 25.7206 10.6365
55.6706 18.1375 6.98952
26.1636 11.319 5.18184
52.4257 20.2575 8.8622
65.3446 26.153 10.3317
57.6413 24.0513 9.7412
45.8504 22.1292 10.5183
61.3468 22.7351 9.25341
42.6167 16.559 7.39839
84.0726 30.0288 10.9749
45.5327 21.4001 10.2391
32.8449 13.633 6.32527
53.0122 23.0471 9.91851
47.5796 18.5491 8.03472
31.3357 12.7815 5.43566
45.2964 21.2963 10.066
52.1807 20.0234 7.86113
44.2632 19.2388 8.52249
63.1833 31.1243 14.5822
35.8843 16.5325 8.17624
69.1367 29.5099 12.0612
41.6452 22.3968 10.9259
45.132 20.1752 9.18556
38.5963 18.9934 8.87658
56.7246 28.7726 14.943
83.7394 31.9067 14.012
50.0848 23.5902 10.6123
47.7469 24.6262 12.8138
47.9499 20.924 11.5039
58.3277 26.0194 11.2727
54.1154 22.9314 9.9153
48.3367 23.3495 11.7604
29.8881 12.1265 6.29595
58.7662 26.1782 11.6363
48.3544 21.9974 10.3994
26.0398 11.1835 4.87361
44.715 23.1595 12.5047
58.7766 26.8605 12.7065
56.9719 27.0443 12.742
57.0662 26.0457 11.7066
29.0676 14.1752 7.22983
38.8942 24.4096 15.1789
46.7381 24.3961 13.1566
44.7111 21.5558 10.1812
29.2866 19.6456 10.8101
42.8997 25.2306 13.9853
45.4974 22.416 11.2092
15.1351 9.10698 5.51083
39.9596 21.7662 10.7895
54.6871 33.2392 19.5432
53.1892 24.143 11.7773
22.1458 13.0385 8.83239
41.7288 15.5603 6.15555
35.0157 21.3035 11.8126
33.0634 17.976 10.7113
36.3439 20.5872 11.3477
40.6603 23.3077 13.5413
29.7582 17.352 10.8117
46.344 23.5991 12.6847
50.1209 29.9208 16.6823
46.7592 23.072 11.9812
35.4324 22.8099 14.0171
24.6749 14.3235 8.9229
49.6616 28.9457 17.8438
43.2969 21.4585 11.7917
49.0942 28.4792 17.0798
77.7043 45.7791 23.6692
32.1083 21.0627 13.1919
40.7027 23.9344 14.1818
19.3895 13.0474 9.62082
48.4191 26.8603 15.7531
35.2819 16.938 8.25658
33.0059 19.7379 12.8374
58.3131 34.7631 21.1213
35.6605 20.1033 12.0302
27.2351 15.6031 8.60071
28.3361 20.8237 14.9085
47.649 28.6659 17.9137
36.4865 19.521 9.68416
20.981 14.2981 9.08799
32.3876 22.2574 14.624
22.0738 15.4624 12.1858
32.8844 17.1985 9.61657
24.643 16.3968 12.8377
55.8165 35.4765 24.4055
59.1284 32.237 17.2335
36.1265 24.3301 17.5011
31.3038 19.1461 11.3075
22.8259 14.9714 11.0401
36.8967 22.7612 14.1896
30.3883 22.8531 14.159
16.178 12.3192 9.20855
40.5973 24.9059 15.794
20.7234 15.8829 12.1746
32.2027 18.0407 11.3381
20.7299 14.4103 11.7005
29.6161 17.3493 10.495
40.0941 27.1975 16.5919
22.0461 14.5637 9.71595
18.977 16.6624 13.2036
37.5087 27.7736 20.8924
37.6542 22.7768 14.0816
26.3537 19.5933 13.7086
41.9475 25.8101 15.5339
13.7709 14.0432 12.6933
31.5826 21.7653 15.255
17.4056 10.3934 7.59354
20.7661 14.9815 11.9504
27.655 19.6341 14.8396
42.3834 25.7633 16.1635
18.963 13.9013 11.2131
28.157 18.0891 11.6488
29.4052 20.7055 15.5406
30.3283 20.4077 14.758
27.9192 24.263 20.6345
36.0663 21.6742 14.4901
36.758 23.2905 15.2869
27.6561 23.58 18.3665
23.823 25.0021 24.3739
35.0924 23.4825 15.568
29.3871 26.7884 24.1469
38.7811 30.9581 24.6254
23.4464 14.6203 11.4266
40.5323 30.9379 23.1471
27.4646 21.2816 16.2898
19.2788 13.6032 9.75928
30.3756 26.5516 22.9578
29.8832 20.7728 15.9067
35.7728 28.849 24.9234
32.211 20.0451 12.7151
24.2775 19.5653 15.583
29.5484 17.5974 11.757
24.5061 20.6193 18.126
16.0873 11.9397 11.649
34.4754 23.6704 16.6006
28.0571 26.1287 23.0422
43.5014 33.5065 24.2945
21.4485 17.822 16.9474
34.9837 28.9656 22.2875
33.2219 27.7384 23.7706
43.212 34.1726 26.0373
29.2318 28.1912 25.6386
22.3656 18.8815 18.6995
30.4401 23.0989 18.4908
27.3187 22.6394 18.4547
31.2661 24.5267 20.2119
28.1516 23.9805 19.2322
24.5059 22.5584 20.0188
20.0583 14.7786 10.4928
14.1798 15.0203 15.6382
32.0745 25.9338 19.4601
19.9796 17.8806 14.8287
17.8974 13.2986 10.5024
21.9236 22.0266 20.7304
18.101 17.0953 16.357
14.6991 12.0597 11.2157
20.2148 19.6104 18.6463
35.7188 31.1166 27.3986
25.3192 19.844 16.7575
36.4797 31.536 26.2956
22.9911 23.9705 23.555
18.3572 18.0329 17.0009
21.5255 23.8089 28.3873
53.4732 43.5898 33.6381
12.8283 13.059 12.9369
16.864 15.8187 16.8057
23.7285 24.2419 25.1313
24.8531 22.3024 18.9824
16.4722 16.3473 19.3378
22.4963 16.1203 11.5952
21.9995 22.8133 19.4771
20.1822 24.4706 30.4829
30.0321 23.4589 20.2631
27.6461 28.8236 25.2695
18.564 19.8311 22.0192
31.9847 34.2304 36.7772
41.2212 34.4907 29.6798
23.9943 22.4743 21.1602
23.7157 26.5914 28.8687
25.3267 19.3172 18.0568
28.0933 24.7655 21.1151
18.6497 21.3104 21.5716
26.4469 21.0401 16.2351
13.0617 20.5329 29.2929
36.4223 29.4705 23.0709
24.1899 25.4597 27.5832
29.3135 22.1711 16.7193
11.0765 14.0927 17.4822
14.5886 13.229 12.6596
20.8561 19.2504 20.3447
33.1422 37.7989 38.1022
26.2873 24.784 22.4788
25.7745 29.9237 32.9185
28.9821 23.0624 18.5717
16.0409 22.6451 29.302
11.9923 11.392 14.0989
21.4357 21.4564 24.8756
24.0999 22.1324 19.6171
23.1559 23.4441 21.7792
14.7619 16.4171 19.9855
21.2798 20.7709 19.3051
13.3028 16.7156 21.4953
21.8779 21.6187 21.783
11.7117 12.9732 16.4993
22.9939 25.4001 27.8687
25.7049 23.6483 23.3078
16.6622 18.6147 21.1799
24.1609 22.8657 20.1741
14.9681 20.3133 25.4706
12.0572 13.5524 20.7059
38.6348 38.3074 35.5795
11.348 12.8983 18.6144
33.7067 33.9392 31.0023
13.6838 15.7625 19.708
18.8721 20.6748 25.1692
19.6759 23.8308 26.7713
10.9127 11.0052 14.4214
21.1726 16.6137 14.1329
17.6291 23.2636 27.7665
20.0683 21.4157 26.376
24.6217 24.777 22.3934
7.39012 9.6395 15.0333
22.8826 23.8479 25.9714
11.2145 14.974 20.4312
11.9887 12.6262 15.4434
25.8049 29.207 28.6527
11.1881 14.4636 21.017
19.4037 20.9472 26.3753
19.9075 20.683 20.3279
12.0145 12.8151 13.3738
21.4507 24.7012 26.3565
22.9581 30.8009 36.4323
20.4272 23.1572 23.0298
12.1424 14.5792 18.1193
13.5403 15.5024 17.8374
6.61901 11.3778 20.5882
17.9639 19.1181 23.0385
13.6073 15.5324 20.6483
19.3922 26.5064 37.6466
28.9585 27.787 25.0254
17.3977 20.621 25.6128
32.5001 37.4707 40.4342
19.9705 31.0763 39.5294
15.6208 17.0469 23.1794
16.1851 19.8166 23.0426
13.8394 17.7657 21.795
14.9042 17.9872 24.7144
20.8408 25.5365 34.6466
25.1295 24.7492 25.0616
19.3381 23.9985 32.0967
16.9677 17.6891 18.1931
25.4702 30.6488 36.4307
23.6223 29.524 36.1043
23.569 36.2338 48.5707
20.1193 19.9242 21.4467
23.5931 28.699 30.5018
10.753 18.4771 26.8122
12.3298 19.5567 30.4818
16.3646 18.9778 23.9953
8.40037 9.52633 17.2027
12.9177 15.1403 18.5146
20.6541 26.0629 28.7592
10.9167 15.8843 27.0102
21.135 24.2462 28.6291
14.4475 17.0467 20.4633
9.26241 14.5598 21.0042
14.5966 17.2336 19.5332
8.14655 12.1645 17.6709
20.064 29.6354 36.7713
13.2752 18.6515 31.5535
28.1016 36.7076 40.7288
12.2619 17.6126 28.9973
15.2184 18.5302 28.7335
19.917 23.9905 30.7998
21.4847 27.3471 31.0513
8.72624 15.4267 22.739
7.62135 8.86287 12.9219
14.0251 26.6523 44.0043
22.7224 21.4709 20.9844
9.59828 13.6839 17.505
15.2775 23.6112 36.2091
15.5225 25.0573 34.2022
7.8156 10.1803 19.7698
17.7635 20.7557 23.877
12.6058 18.1096 26.6481
16.7711 24.3124 34.4039
13.5578 21.0471 34.5506
15.2394 14.27 17.7567
12.3889 19.6543 28.3486
10.083 10.842 14.2407
14.4453 20.3338 24.0937
19.0283 28.9576 41.8817
10.952 14.1681 20.1324
10.8345 13.5922 18.1974
11.6499 19.431 28.34
11.733 16.6365 23.0874
11.9103 22.5871 39.588
16.6908 17.0559 18.2297
11.1309 19.6328 29.2292
10.1302 11.906 17.5272
11.9901 17.4578 22.6926
6.71462 10.0714 17.0433
10.0618 15.6635 25.1226
10.3373 14.6283 20.8296
13.1453 19.4048 31.0368
10.5452 14.3771 28.7633
21.4147 30.9567 37.535
12.8432 18.1564 26.024
9.9245 14.29 21.0973
13.0106 22.6581 38.4558
15.8422 22.9739 28.5129
9.93775 15.3804 21.3067
9.10701 19.126 40.8202
21.5619 27.6951 36.4439
17.1964 25.6846 39.8652
10.0505 15.9054 31.851
17.8365 21.458 24.1895
12.9621 20.6546 30.6503
10.8733 15.282 21.7207
13.6879 27.0176 45.7642
8.36277 9.35597 19.2447
12.3231 13.8548 19.2139
21.3049 37.8971 55.4378
10.6131 15.1006 25.3407
9.98882 18.9359 35.3612
10.2484 11.0916 18.4063
16.2437 26.7242 47.0179
19.8041 27.595 39.9504
14.9257 18.6743 21.1549
4.78424 10.6743 23.7644
13.5248 22.3912 42.4554
18.3838 21.1692 30.4553
15.0546 22.2541 33.7629
15.3922 25.8114 40.7639
14.0388 20.5727 31.4783
11.245 17.3279 27.601
20.4753 33.8166 49.3952
12.7716 19.1501 28.5637
8.84973 11.1603 16.6179
9.32195 17.0088 27.399
7.05871 10.9878 20.3965
12.8799 23.1025 42.7208
15.066 19.6201 27.323
11.3737 17.3346 24.8091
5.55642 9.3287 16.262
8.06182 12.1784 18.9688
7.53236 12.1662 17.877
8.5498 15.4614 28.8612
13.0254 22.9617 38.3411
16.2878 30.4656 50.5728
11.2097 13.7603 21.6769
10.6054 16.7673 23.3699
13.2894 27.9881 50.0536
8.36804 10.5661 19.906
10.7044 17.9432 30.2567
11.285 17.7518 27.9261
10.9973 17.0999 24.6067
9.31734 18.7552 41.4993
17.6982 26.3597 34.9906
10.1791 23.0448 47.3505
12.0613 15.2923 24.1965
4.58691 7.2227 15.2855
11.4036 19.4525 36.8268
12.302 19.5416 32.3797
13.3043 22.0673 33.1829
11.9696 18.986 32.6691
13.6953 27.4808 44.0571
9.29597 18.4547 35.9948
6.60926 14.2807 38.381
11.1756 12.7351 16.3855
10.2641 18.4857 25.3011
8.498 19.5891 40.4278
14.1941 29.1858 57.9327
11.2198 14.0519 24.6421
13.2342 22.3607 36.2333
9.35292 16.5605 29.9727
10.3506 14.6549 28.2781
12.8829 19.5709 24.8037
5.62207 13.0701 27.2123
9.15286 16.225 28.9972
5.62263 11.2232 23.5651
8.5899 19.7594 44.9393
9.54488 12.6754 22.816
12.5777 21.9395 39.5284
10.4306 18.3349 34.2363
8.87095 18.9932 47.0243
14.9244 21.0303 36.6484
13.0347 22.6395 35.9668
12.0112 18.618 28.7839
10.6649 17.2658 23.9682
7.39526 16.5439 32.0732
8.6887 13.9169 26.9644
14.3756 25.7356 41.0974
8.89446 16.0045 20.8087
6.34997 19.5645 43.3651
10.5454 18.4305 32.0183
10.0901 21.9349 39.2227
5.63119 16.0555 44.1699
11.8835 15.0602 23.6153
6.65413 8.98943 15.8615
6.07025 13.1766 28.3236
8.9988 18.7965 33.1572
7.48442 13.4591 26.7361
10.0445 23.2986 51.7848
12.4735 20.4656 34.5432
7.38603 16.4029 34.7994
5.48446 9.66469 33.221
11.6062 17.5095 39.4997
13.8623 21.2656 38.0148
16.4961 22.9391 24.1504
11.7047 31.3909 65.0677
11.4412 16.1052 27.5131
9.84295 20.9485 42.1034
8.30215 13.173 22.0822
6.90772 14.6796 34.4754
12.8153 24.1818 38.722
4.19895 8.24957 27.324
9.13714 10.8091 17.6849
10.8613 21.47 31.9201
10.9062 25.1935 45.0074
6.98794 14.6497 29.3544
7.09709 16.2798 38.9965
12.1842 27.6872 63.3918
9.48393 11.0855 19.3078
7.79377 15.3599 35.7002
8.03434 12.6435 27.0276
13.2762 22.6006 34.186
7.46882 18.9088 38.4789
8.87336 20.7879 45.9864
10.9186 19.2052 37.2783
9.57199 18.2652 39.921
12.2868 23.1077 40.577
7.75556 15.742 39.7023
11.0441 15.1265 23.0509
11.1973 23.6096 40.1111
9.4359 18.7521 31.7916
5.60579 12.3957 27.5401
6.38307 15.1759 35.0112
7.60949 16.3964 36.9915
7.3362 14.6353 30.2054
8.28927 17.7878 45.482
14.4953 29.727 54.5499
8.70394 15.7087 37.5933
8.70936 18.347 45.9747
11.3043 19.402 31.7264
6.18303 11.4838 18.9601
5.24674 12.7445 30.4858
8.52961 14.246 24.0092
8.09843 18.3457 31.7527
8.27636 23.0329 52.3408
8.7172 16.1966 35.6748
6.83281 14.0779 26.8574
10.0064 22.3354 39.8499
6.53619 17.3856 39.7133
9.19363 23.2948 51.2452
6.36575 11.6112 28.7563
10.2741 25.3576 58.9196
11.2391 18.2398 32.0368
6.60158 18.2778 50.3355
8.30398 15.3281 30.9745
5.66537 12.2835 36.1238
9.68899 15.8768 27.7496
6.75379 18.3462 43.8443
8.69453 14.0582 26.0681
6.4817 13.1707 28.3015
6.2861 10.9241 27.3024
8.68433 15.7899 21.4035
5.39518 16.4171 39.1944
7.55476 17.2543 47.5009
7.73847 16.5531 43.2398
9.02637 15.6695 35.136
10.0762 15.7032 18.5436
4.22504 14.1266 36.3941
5.69428 7.62969 15.6323
3.38378 8.12422 16.9999
3.58638 8.18055 26.5123
8.6431 20.0222 41.2267
7.03254 12.5541 27.0549
8.38214 15.2392 27.5761
10.6114 27.5366 57.7686
5.75044 13.4715 47.2067
14.6256 29.8502 53.6602
6.64761 12.7019 23.6563
5.03749 17.5784 43.2231
9.92987 24.2851 61.6965
8.02583 9.77665 17.6294
9.77379 25.6138 50.2552
4.57177 12.6896 43.3373
10.432 19.232 34.2779
6.25442 15.9818 39.4958
6.40988 13.6544 25.8385
5.36369 14.5842 38.2393
7.15648 11.703 32.5127
10.8155 21.7572 36.5662
7.76773 20.5056 42.3947
6.29896 14.8 30.7787
5.8966 18.0133 41.6767
4.56503 12.3826 38.1452
5.30739 10.9681 26.4386
4.20412 6.98596 17.4027
4.65122 14.7064 48.5986
8.33131 14.687 36.3188
7.50679 13.9373 24.6882
4.36131 10.1095 25.3987
4.29873 9.92191 29.4341
6.39548 10.1506 14.1574
5.45175 20.9743 47.6651
5.71248 14.812 38.5306
7.69796 19.6401 50.568
5.9861 7.93261 13.7115
4.00008 12.6453 39.3592
10.808 27.618 56.9456
6.75396 16.6401 46.9207
8.57548 19.7712 54.544
10.1342 18.7748 41.2343
9.96947 21.9952 48.2532
5.2595 8.63306 24.9392
6.1455 16.4534 40.8557
8.92971 16.5275 32.703
8.26637 19.3244 38.3542
6.53144 14.6985 33.8968
8.26249 23.7067 62.6751
9.02212 17.5705 39.2704
7.49785 16.0703 28.3795
5.28975 20.523 62.7584
9.42721 16.5484 33.7986
7.38379 17.7776 31.5262
4.93999 13.8133 34.5579
3.97293 13.2472 40.2325
6.29507 12.3326 31.9134
5.53747 13.6658 35.995
