# pn-170911/RbIIR-45-USNO-1280-1959.psd
# Power spectrum* (dif=0,1,2) (really just |FT|^2)
# NOTE: only the first half! (symmetric)
# weeks: 1280-1959
# 9 clock-days, 2 excluded
# PSD: 1441
331.662 0.248751 0.0312908
14229.2 0.174275 0.0345503
63745.9 1.53813 0.0328143
17801.9 0.859199 0.0471631
41327.5 2.97257 0.0605986
8433.61 1.10138 0.051177
16931.8 2.64573 0.0634638
3700.44 0.960582 0.0505662
18354.8 4.85705 0.0495039
2000.14 0.864984 0.0495786
21961.9 9.06116 0.0310964
1356.75 0.903985 0.0254665
3864.68 2.3685 0.0239334
922.601 0.892768 0.0281576
4981.74 4.8779 0.0506035
2063.37 1.97139 0.0466951
3159.44 3.6971 0.0814267
1645.57 2.27025 0.060012
13448.7 21.705 0.107602
1463.7 2.83512 0.0547094
6905.81 14.1765 0.051231
763.255 1.84665 0.0388148
4113.23 10.0065 0.0374133
1194.28 3.13559 0.0321075
4523.48 12.2397 0.0612279
1113.83 3.38261 0.0341825
3174.94 10.8054 0.0752194
1347.11 4.204 0.0490716
4799.9 17.0095 0.0928622
978.875 4.06635 0.0618893
4142.71 16.3087 0.0906555
1196.36 5.56321 0.0451706
2837.44 13.7406 0.0966187
1489.89 7.82867 0.0789478
1792.31 9.79567 0.093721
1046.94 6.24502 0.0734309
6476.6 40.2582 0.312377
1017.89 6.2925 0.0611528
727.37 5.32977 0.140333
1376.34 10.1268 0.144114
2922.91 20.1875 0.212873
689.573 5.17708 0.0896774
2343.12 19.631 0.264667
1241.54 10.7267 0.10551
2469.64 23.8934 0.266648
736.339 6.36491 0.0893893
2748.02 27.4179 0.303085
374.272 4.05415 0.0614453
2914.44 32.4697 0.420854
1063.72 11.5084 0.238961
1344.84 16.8905 0.265639
897.696 11.8219 0.166538
2566.09 34.1395 0.384077
873.999 11.0578 0.210771
1682.31 24.0778 0.326566
436.53 6.15973 0.12895
1170.96 17.2771 0.209921
618.6 9.11544 0.198138
2144.3 34.7187 0.674674
504.199 7.96884 0.134553
1626.1 28.4568 0.445314
911.24 15.8893 0.408676
593.353 11.0148 0.195008
488.382 8.86715 0.280417
2710.28 54.1878 1.11967
1249.6 23.7895 0.471196
3098.34 65.8442 1.43575
658.953 12.9733 0.297579
1209.08 27.5779 0.661189
343.63 7.31608 0.171421
1411.1 31.8379 0.735824
1012.35 23.2553 0.622594
1734.2 43.7922 1.38598
431.646 10.1891 0.282531
1228.19 31.999 0.854424
740.867 19.7591 0.609696
857.748 24.925 0.607782
365.987 11.0872 0.310547
905.266 27.6306 0.801319
954.458 27.3773 0.859234
648.644 20.5142 0.601814
691.12 22.329 0.524507
771.85 24.1286 0.745153
354.676 11.4692 0.486798
1727.5 57.5509 2.13009
460.542 14.2389 0.623702
1392.12 49.5733 1.80304
274.765 9.81157 0.460699
726.47 25.9542 1.11211
228.852 8.31553 0.350888
679.735 27.0883 1.01633
705.004 27.4428 1.14121
1583.32 66.0632 2.87932
872.043 34.2713 1.25045
467.394 19.7238 0.859944
554.606 23.309 1.015
637.14 28.3631 1.27853
567.755 23.5941 1.11729
851.806 39.7007 1.81623
905.856 39.8579 1.80133
462.505 20.6764 1.02254
330.376 15.1554 0.710582
796.585 40.0122 1.98354
573.737 28.4536 1.48675
546.619 28.6398 1.7636
277.133 13.0804 0.779341
885.644 48.4921 2.49894
485.804 25.2457 1.45311
379.071 20.4672 1.22344
465.767 25.8916 1.66997
915.455 54.0883 2.99388
193.47 13.2809 0.782076
605.828 35.5772 2.19177
504.485 31.4774 1.99092
394.814 25.7753 1.64766
384.056 22.3628 1.09626
325.272 19.7255 1.44996
162.988 11.4344 0.848518
311.544 20.623 1.29936
309.06 20.491 1.41571
221.902 15.5234 1.25201
201.199 14.8431 1.07341
234.235 14.947 1.00148
238.992 14.7374 1.05111
326.449 25.2603 1.83416
372.361 23.7303 1.61917
335.649 26.3732 1.95753
457.315 33.5504 2.30017
713.815 58.6559 4.87367
325.388 25.7868 2.11886
554.986 48.2657 4.06154
271.837 19.752 1.63728
403.474 33.576 2.92412
525.402 41.9153 3.61806
592.159 49.7473 4.46142
478.434 38.6355 2.99569
367.721 32.0365 2.73698
409.955 37.3607 3.48281
181.159 18.3168 1.95928
457.66 37.227 3.37988
347.11 32.9685 3.59495
227.354 22.0577 1.93381
228.967 21.6412 1.98724
347.819 33.114 3.2794
436.394 42.5414 4.18432
332.486 31.9245 2.99708
185.727 18.5777 2.00759
430.083 42.1914 4.45832
217.763 23.7295 2.8319
258.973 26.3837 2.99559
218.68 22.6222 2.26623
332.172 34.1167 3.9569
385.707 38.6886 4.13351
416.271 44.8469 4.87702
320.451 38.5396 4.81313
345.426 35.7633 3.62829
229.86 28.0592 3.28124
199.429 23.738 2.6348
292.079 33.5417 3.90733
82.735 10.4645 1.2756
607.231 74.7689 9.55769
286.908 27.256 2.50106
299.625 37.7703 4.55146
180.653 21.8716 2.945
158.381 19.8956 2.86043
474.329 60.5355 8.06484
164.247 20.6931 2.78084
138.587 19.4312 2.71254
238.255 31.3546 4.30141
188.068 26.7412 3.88364
425.413 54.5343 7.59016
199.305 25.9462 3.36635
171.51 23.0916 2.90495
341.964 44.3024 6.10986
231.434 33.0101 4.64285
165.579 20.5729 2.71939
341.296 52.7445 7.74482
229.142 37.4046 5.74034
217.016 28.4137 3.94059
144.061 21.1744 3.18817
238.916 37.1919 5.50292
341.136 54.0202 8.11905
168.705 29.4054 5.29028
164.427 27.3534 4.54979
230.56 37.1017 6.26767
114.511 18.7366 3.06195
266.496 45.842 7.59348
189.952 29.5524 4.9203
195.073 31.0727 5.06461
174.569 26.0973 4.33938
110.656 19.1747 3.35704
185.835 32.952 5.2161
242.195 41.6246 6.74281
197.802 35.2898 6.98204
261.528 45.6244 8.26327
97.0637 17.284 2.75452
263.573 48.4558 8.52598
172.859 32.2704 5.41848
181.487 37.7327 7.87184
201.696 33.5233 6.30641
165.137 31.1498 5.90887
98.2227 18.7427 3.93776
345.83 62.336 11.7134
121.204 22.0163 3.98995
130.933 22.5651 4.37138
229.606 44.7385 8.49098
104.862 22.8257 4.37464
224.184 47.2382 9.61338
88.8953 17.4769 3.4945
143.042 26.9584 5.26427
143.384 31.2083 6.98331
187.555 41.2932 8.55639
80.6925 20.2589 4.56378
186.076 37.4514 7.51661
172.304 36.5894 8.06281
211.293 42.6959 8.71123
129.217 32.8908 8.08368
188.868 37.0999 7.05902
213.104 53.9154 13
248.722 51.5314 10.5002
89.1263 22.2997 5.93968
169.332 36.1394 8.10434
192.416 45.9702 10.7353
148.646 32.4923 7.04043
80.1804 20.7451 4.54854
134.784 31.2955 7.63932
161.728 42.4872 10.6213
157.521 34.5892 7.01918
199.169 47.727 11.8339
118.309 30.0712 7.01209
124.805 35.3821 10.3221
96.1134 18.9802 3.861
124.329 30.6687 7.66681
161.628 38.5952 9.2051
141.421 34.5202 7.76769
76.5455 19.7074 4.94624
123.962 31.8713 8.62491
73.9423 19.446 5.33993
122.856 33.0244 9.0364
144.132 38.6638 9.84229
170.972 54.6645 16.0025
131.94 29.4148 6.53776
179.944 54.6135 16.5006
152.437 40.9905 10.9268
155.528 39.874 11.0601
143.193 40.3403 11.0567
156.675 45.0511 12.9916
89.1588 24.0275 6.40692
108.732 32.8478 9.85623
80.8437 22.1451 6.52817
185.815 56.8041 15.9446
88.5747 22.2376 5.58368
120.535 37.4062 11.3655
112.276 31.3655 8.82236
67.9529 22.8203 7.52063
116.952 37.445 10.8739
101.294 36.4537 12.3222
111.368 34.4536 10.409
177.238 49.8753 13.9435
146.651 42.2455 12.2673
106.124 37.0967 12.275
88.3749 29.8692 9.51678
98.5914 29.6583 9.14978
119.906 42.2298 13.8984
124.915 42.7958 15.3103
117.18 33.1403 10.1622
148.132 50.077 15.5791
63.3054 20.201 6.74666
97.8749 30.5351 9.12769
52.4929 17.1036 6.64631
172.493 57.6833 19.9106
103.07 33.2955 10.801
130.245 47.8056 16.6036
83.9377 28.9163 9.70013
106.504 39.4016 14.7771
93.7388 29.613 9.80805
115.502 38.787 12.395
132.76 48.1513 17.8114
87.0133 27.2247 9.19943
75.8276 24.3356 8.40319
113.233 46.8701 18.1772
130.56 46.5849 15.4294
81.6354 28.0113 10.7291
100.963 33.2181 11.344
81.3623 30.4063 11.1967
55.1694 20.3174 6.99154
121.65 49.5859 20.2806
46.6968 18.0652 8.81577
172.462 62.3976 21.6703
64.674 24.1967 8.73486
60.982 25.002 10.3326
84.8336 32.0206 12.6463
97.8109 38.7449 15.6861
117.224 46.6951 17.6781
115.535 48.2407 19.0439
81.4099 33.2188 12.2136
57.5863 26.4757 10.6877
42.954 17.957 8.49792
100.421 36.1512 12.0411
55.4373 23.5309 10.6408
71.9841 26.6755 9.75333
130.913 63.9832 28.2669
182.738 78.1897 32.8919
140.356 60.1086 25.4531
96.2183 35.6948 13.5001
73.9869 32.2623 13.5662
109.262 46.868 19.3772
162.578 71.0459 31.4907
88.3992 38.7758 15.8388
124.554 68.3523 36.5038
75.1076 25.3848 9.17582
83.4808 35.0105 14.9332
148.811 59.2642 24.7675
167.808 75.2633 31.5775
148.877 76.2243 35.6672
96.6741 46.2737 21.1233
72.9302 34.6422 17.027
115.655 55.9486 26.388
65.9448 29.7131 15.0022
111.87 53.7804 27.0551
82.0873 34.2135 15.5297
87.867 38.154 19.3438
105.629 45.2281 18.3244
69.8555 33.2836 17.007
165.572 78.7866 34.47
60.2215 32.5748 15.6006
80.3391 44.8766 23.8213
91.3692 46.7288 23.3328
60.313 35.0311 18.3487
76.9272 34.1934 15.9031
46.5589 22.735 11.5905
67.2025 35.0836 18.9242
62.5917 38.9007 24.504
120.587 50.9364 20.377
45.8987 28.543 15.6629
63.6626 30.062 14.5281
96.1045 46.5947 23.9819
44.8742 20.8661 10.2921
63.7168 38.3024 23.9526
77.041 33.8165 16.9758
95.6735 48.7829 24.5246
108.276 58.4002 28.3619
72.1417 36.2978 18.4885
64.6075 41.8506 27.4974
65.3125 29.3087 12.6736
57.9996 29.5897 15.2515
110.756 61.3039 34.5032
68.0774 34.4039 16.9901
55.9851 36.2121 21.7346
51.4175 26.9847 15.1327
54.5743 34.1893 21.031
47.7683 32.0139 21.7356
138.791 75.4306 41.5227
40.5948 16.0948 9.61147
79.8266 40.5295 18.7645
82.5939 49.467 27.2734
38.4642 20.4596 12.4469
106.627 65.6658 38.4557
62.1191 30.8855 16.3748
83.6703 47.0789 24.1799
25.1095 13.4406 7.86782
38.9977 26.9949 19.0861
86.2057 47.3314 26.9395
93.8747 49.3745 23.3869
60.3449 44.3297 31.1572
52.8656 31.6414 20.133
59.7098 35.4675 21.8776
38.4512 25.254 17.5614
68.9676 41.3993 25.2889
67.3696 35.7589 18.7918
72.0037 51.1292 33.7252
85.7671 49.5095 27.3767
51.0871 33.4231 23.8826
84.2546 50.4774 28.9668
87.9064 53.3863 29.1205
48.2318 31.1426 19.9509
37.9121 26.9992 19.2034
109.761 70.3819 44.655
78.4803 44.3495 24.5068
51.5587 36.2531 23.8017
44.7466 33.7408 26.1175
102.413 66.9244 41.646
54.1227 37.3865 26.6041
55.1857 35.4726 21.8524
37.38 24.4784 19.2423
75.0046 45.288 29.0052
65.8623 37.0466 21.6618
45.8767 33.4198 25.3426
71.4293 42.3654 24.3777
50.2514 33.9137 20.7366
64.717 44.8693 30.4963
52.6427 33.6537 21.8328
52.5 42.8994 32.1131
58.5562 43.6171 33.3237
70.674 46.7961 28.2368
46.9673 37.7756 30.5992
35.7175 26.1795 20.207
73.6526 42.8371 24.061
40.8505 33.7276 25.7576
53.0729 42.341 30.1195
32.9723 27.9983 25.5209
63.1895 40.1793 24.2465
23.1384 16.7452 15.4651
58.7429 42.4402 30.3463
32.2717 17.8932 10.141
71.0135 59.5443 45.3236
22.6634 15.7252 15.8004
69.4918 41.0955 22.9006
49.696 39.7901 31.859
45.2903 34.3206 23.692
41.5954 33.0662 25.8913
20.4343 16.926 14.9414
52.79 41.9258 34.5382
39.6739 26.3941 20.3186
43.1358 23.1432 14.4923
69.5702 53.6833 35.5216
26.6319 21.8329 17.4751
12.4909 13.0478 15.0454
76.3871 56.3636 38.7742
34.0648 31.3563 26.9203
59.2327 42.4839 24.9005
42.6417 46.042 40.3213
48.9885 40.8514 34.8734
46.081 36.4479 32.682
49.3491 37.5333 28.1187
36.7233 26.0845 16.8301
69.7947 71.455 64.8566
58.774 42.3462 36.1637
74.139 52.828 33.6804
21.6006 22.9845 22.0181
37.769 26.2359 20.1592
28.3837 23.1355 19.1742
26.3192 24.7616 21.9631
37.7091 41.1583 42.2763
53.4059 35.3579 22.9487
37.9941 41.3253 44.0833
80.5379 57.385 43.4576
53.5542 46.9788 41.6479
64.8228 52.6281 43.6463
55.4616 45.535 37.9971
44.4975 34.1719 27.6098
40.3195 28.9176 20.371
24.2151 19.8642 16.9104
58.4959 50.3283 42.4618
40.0819 32.1061 26.751
22.4185 19.4555 18.7036
43.9808 39.7396 31.5661
52.0765 47.7092 38.8717
27.1426 21.2737 17.9559
26.1946 30.4834 33.8448
61.6315 51.2148 44.5598
67.0169 59.7569 52.3477
38.915 32.6753 31.3059
41.4394 34.6601 28.7823
49.8438 49.2773 48.075
35.067 26.5057 22.3746
29.2744 29.6857 31.9723
57.2824 50.1954 42.2702
34.5021 34.3001 31.0184
34.9115 34.5438 34.1133
20.7699 18.26 16.4582
14.8937 22.4951 33.5586
59.6627 50.8971 44.5383
32.4903 24.3821 20.0078
36.656 32.21 27.7256
21.9744 24.3266 27.3254
35.4419 27.1079 25.5415
44.7338 36.831 31.6991
46.5843 41.6089 36.0659
53.2994 59.4754 62.3961
35.6506 28.6674 28.0734
37.3086 32.5093 27.7204
31.4893 28.912 29.6912
38.1938 34.2904 27.6089
21.2958 25.81 31.5355
37.145 31.854 28.1705
53.246 52.8725 52.2397
62.8948 61.0899 53.1811
39.4243 36.8756 33.0168
34.3483 45.2006 54.6153
52.1692 54.2389 54.7114
31.7302 25.7674 25.3677
38.8708 44.3683 51.1864
42.5361 45.9826 51.6116
45.8372 38.7448 31.8422
39.2645 51.1798 61.7763
31.2795 27.9742 32.6273
46.3041 40.9073 38.6535
42.2146 40.8901 35.5618
23.3329 28.3682 34.7403
51.448 50.8616 50.5968
46.7865 55.8614 66.1012
38.1217 32.3255 36.8403
88.0034 90.164 87.4657
38.8411 38.0193 43.512
64.0208 62.2184 55.0827
60.1529 60.6235 58.3445
28.1399 29.3926 34.947
36.9731 37.6168 36.2029
21.195 24.8329 29.444
28.3909 27.1975 25.4173
20.7624 26.5882 31.1413
29.3001 30.9431 36.385
38.2975 41.006 43.8206
42.4451 46.9283 46.8372
18.489 31.2051 51.5429
57.7538 57.005 62.337
30.1859 27.1064 26.3396
19.6304 22.8559 29.4774
43.0082 39.7167 38.7387
14.4749 10.8917 12.7936
50.8577 56.8007 54.5453
26.6733 38.587 49.2714
31.9817 36.1994 40.1134
46.3216 52.305 51.5384
38.052 56.324 75.3044
32.114 21.893 16.5821
20.2077 23.7011 25.6221
26.6758 40.1254 54.4417
44.3559 47.1163 49.9987
11.9132 21.9883 44.7685
39.8719 33.2042 34.1254
36.8836 33.777 34.4155
57.4805 65.37 68.2631
28.9509 35.1124 46.5207
68.1997 83.7475 89.6043
18.4519 19.9864 30.3256
40.4226 37.6439 35.797
35.1185 49.9001 64.601
23.8119 22.4184 24.1521
26.8423 38.4493 50.7407
32.7001 38.1189 43.9207
30.6291 33.5907 36.8208
22.4783 25.7519 36.4807
28.5044 29.2947 32.1636
37.7281 44.8538 47.9677
29.0659 41.8954 50.5551
17.2176 29.7723 51.1728
22.4638 25.3279 40.5079
44.5702 39.4827 37.0063
44.1576 41.3527 32.8766
45.7535 74.8973 96.7187
18.0437 18.847 24.6902
17.9703 31.3002 44.9925
22.4204 29.7822 43.2299
36.1605 40.2727 51.4361
27.9143 33.0477 45.8464
42.5764 48.4896 55.3597
25.3999 29.7593 35.0962
16.5384 20.7606 36.3956
59.1576 71.6596 77.7488
22.9494 29.302 43.923
47.4968 57.9724 69.5123
27.9673 34.2344 46.2153
32.432 37.322 44.141
22.2177 21.4292 24.6294
33.8613 39.6222 37.3151
34.628 60.6 80.5507
16.5163 26.4204 50.194
46.5217 58.6244 66.4167
29.1548 40.2066 52.4019
28.7929 36.7067 51.1757
31.0385 40.4914 51.0891
19.6405 31.0769 56.4842
32.8535 35.605 43.2297
43.115 57.4674 69.9404
19.1561 20.3616 28.4886
23.6879 29.02 39.0538
27.9402 37.6792 56.9686
33.2635 35.4847 38.6862
24.2188 32.9077 42.6382
22.7954 25.1323 26.9929
29.1849 45.7402 63.078
24.8746 34.4288 47.4533
49.6334 75.3194 90.0547
13.2336 25.6187 51.0923
31.6427 45.7242 71.9885
29.88 29.7755 31.4658
20.4613 30.4295 42.6187
30.8309 52.391 88.0176
40.4549 45.3764 51.7223
30.9357 42.6544 58.6133
28.7967 41.5119 60.2016
23.3502 27.2171 35.4734
20.1855 30.4152 44.8797
23.7932 39.5095 63.7795
35.5398 40.2026 47.7922
35.0528 62.4602 103.848
25.8621 19.5955 18.0833
33.4793 55.2248 74.0467
21.5565 31.657 42.7794
9.32604 20.442 46.3853
34.8741 51.6419 78.5464
29.0927 41.0429 67.9734
38.3858 49.7559 67.0039
46.3897 69.9827 92.1192
27.684 41.0987 56.1793
16.2929 30.5878 56.0342
26.6185 31.9911 40.8879
15.4763 17.88 25.1638
28.7801 46.637 66.0787
23.4574 35.0959 59.1366
28.5732 35.3426 42.7988
12.3419 19.0561 28.0531
18.9436 35.478 60.9081
26.6115 36.9626 48.6825
25.5327 50.4744 88.959
23.7815 27.2989 41.0083
24.3425 36.5663 51.5966
28.2343 43.229 72.2799
21.4608 17.8534 15.7334
25.9086 46.8534 71.7757
23.0596 36.0478 58.2666
21.0937 30.2258 46.3652
29.4593 49.571 82.7234
25.514 31.3983 43.0681
22.1252 33.8531 54.363
15.6328 17.4199 22.0706
17.38 30.566 43.111
17.6235 37.5522 67.8384
18.826 25.3895 42.4546
28.6255 44.2889 63.896
14.9168 22.9044 45.9373
30.237 45.2775 71.0537
26.3378 39.1083 65.4533
33.1284 44.9197 47.2792
18.0378 35.9353 51.8935
14.5996 39.0988 78.202
17.8141 21.3338 42.339
14.7329 20.0312 30.011
7.42481 15.0232 45.8183
30.7599 30.3199 23.6458
16.1322 30.1589 50.9386
21.9972 31.4756 46.3787
18.2742 33.8092 65.6166
30.6743 40.0219 48.3047
16.8565 34.3483 61.575
18.8459 31.1496 61.6462
31.4381 50.0199 76.0853
14.6533 22.2378 43.1538
16.8118 21.6539 27.6975
18.8407 29.7948 37.2196
10.7647 24.8387 48.5614
19.0978 35.5986 61.1078
15.8831 23.3864 48.7369
16.7829 22.7096 36.1671
18.7675 33.2318 53.9405
23.7452 39.0501 53.655
13.6978 37.1274 83.7207
25.1563 34.3589 52.4856
14.5275 20.1129 40.4355
18.4801 25.8267 47.4023
20.2667 29.261 44.3011
23.1868 39.1287 53.072
8.74422 21.9476 53.1023
19.3872 27.7052 46.9807
25.3137 47.4686 93.7804
34.8227 54.384 78.606
24.2928 46.7051 86.4954
23.6449 36.593 58.1289
9.16837 12.4114 26.0495
13.8052 21.8052 33.8013
16.2593 44.3506 101.018
26.8877 35.9732 49.6796
14.2492 23.3227 44.6461
16.173 28.2682 48.1536
15.8878 31.417 64.3085
29.6411 52.8975 99.4516
22.7296 28.7546 54.7591
34.0722 54.9756 83.4863
24.4969 43.4388 72.5923
16.4519 25.9025 56.1663
23.033 41.3825 71.9074
20.1143 29.5344 52.2786
28.6802 48.2026 73.3047
31.1795 57.8191 85.886
18.6576 39.8707 82.6606
23.8314 40.2971 66.6773
18.2657 32.2005 59.8943
17.2132 27.0274 46.2113
14.41 29.1003 64.9969
20.3044 25.6443 33.2896
12.3922 28.0483 60.6874
20.5378 31.0354 45.5465
12.5094 23.1513 35.0075
13.7849 36.2903 68.5197
12.6375 23.3166 50.0135
11.6149 22.912 61.2588
23.5538 34.401 55.464
16.5903 30.7992 60.0069
23.6537 42.0306 79.6592
19.2824 31.1237 59.3407
19.7926 38.1281 64.3419
13.9972 28.7206 76.9348
33.3623 57.131 90.8936
19.2215 33.442 57.9845
21.2393 43.6627 76.0399
15.1454 30.3007 63.1029
13.2454 17.1691 31.2053
11.025 16.3091 21.7507
12.7461 27.9216 49.0474
7.60962 14.7942 36.8228
15.8647 30.0735 47.8429
14.2746 39.2236 86.6599
16.7298 26.3035 46.5175
13.7394 20.6076 29.9946
9.50692 19.8019 34.0078
4.57518 12.7705 42.4513
13.422 20.9324 31.2521
9.68246 25.1373 61.5897
17.9067 32.7787 58.6492
14.2719 23.8389 43.725
10.4474 24.5155 65.4823
21.8888 36.3627 64.6636
23.3256 62.7015 146.703
34.5972 53.0925 83.9142
20.195 31.8457 54.6817
11.9099 27.8852 78.0579
32.1777 57.5812 90.5509
8.15679 15.0103 41.9076
18.9492 34.0989 51.0951
9.78491 19.7725 46.7216
15.2552 28.8888 49.6461
12.0822 23.1168 42.4228
5.39032 14.6386 55.0334
23.6983 39.0429 67.1909
25.6618 52.5511 81.3808
11.8957 27.9069 73.9663
14.9051 20.8684 27.1506
8.93684 24.6089 62.4735
20.3551 51.3223 101.697
9.44779 9.02439 26.4011
10.3282 15.3218 27.6196
7.68939 19.6252 50.9695
17.0319 26.5589 50.0535
15.4125 35.0746 65.2009
15.6159 39.7888 89.0221
17.4809 33.3157 83.5204
24.9123 55.3177 116.329
28.0977 44.5005 60.0261
9.88092 19.2593 33.887
10.6071 34.3412 88.4572
14.0654 20.5561 40.994
10.1613 22.1436 48.7677
13.549 30.0197 64.4552
11.336 25.9266 63.0456
12.8978 22.6499 44.3299
11.7393 28.2958 78.86
23.1886 33.7633 44.2374
13.5537 39.5583 87.3964
12.2798 27.278 64.8393
12.3165 18.6901 41.4426
11.6182 20.1857 35.1945
7.89175 20.2015 50.9232
13.6481 29.713 58.6672
13.551 32.9233 72.1233
11.3999 22.1832 60.3722
13.8185 23.2062 65.0312
24.3063 41.2216 49.4918
4.51521 17.0525 58.4895
18.7691 36.0687 69.2298
19.1602 40.1098 69.1324
9.17271 22.275 54.7861
10.4411 18.5761 45.3983
14.5352 31.6833 76.2535
21.8659 41.2182 63.2845
9.0797 22.821 50.7309
12.1559 31.9863 75.6618
10.9127 22.1371 37.8878
10.4751 25.4412 55.787
11.4688 30.8917 58.9368
8.42149 24.8956 61.0765
8.96323 24.2577 73.3341
16.0784 29.3895 67.4345
11.663 29.9791 85.6795
18.0062 36.6438 72.1757
10.936 21.7029 61.3551
11.1877 14.2399 27.0677
11.4046 21.7697 35.2921
7.83452 18.0031 40.5712
11.4565 28.5638 77.1886
19.1219 42.7206 64.8194
4.76582 10.2829 36.466
10.5629 23.4505 48.2291
9.4634 21.9952 54.8582
16.6351 38.5954 85.2082
16.4554 35.7839 79.492
10.9054 23.764 61.1509
9.24317 12.4352 20.3131
9.82783 32.2186 84.2345
12.214 30.0617 70.0273
8.92073 15.1441 50.1359
11.4864 22.3058 43.0439
9.79721 26.4299 53.0933
7.26124 20.7103 65.2265
12.5764 25.4099 54.9413
9.27481 18.2624 42.4089
9.08253 20.6223 52.2876
10.5043 20.1116 60.1203
19.01 37.4242 82.0454
18.018 34.7764 79.8909
16.8398 29.8734 51.151
12.3731 38.5293 93
15.3322 26.5412 46.1757
9.26877 25.244 68.9773
15.4698 38.784 91.0101
16.706 26.0991 38.1194
10.1581 32.4742 62.8787
5.95973 16.4846 54.2127
9.79952 20.5334 48.4861
11.5845 28.952 64.8486
13.6626 33.6186 74.3742
12.4205 29.7376 58.6532
9.43106 33.8253 105.918
17.5471 31.1291 46.6842
5.67801 26.9812 103.271
17.3107 34.0114 66.8554
11.642 24.4574 60.4483
14.59 43.4348 117.158
12.1195 18.0493 38.4816
13.6501 39.2149 106.285
18.952 39.5504 67.5326
5.95854 24.2594 94.4615
18.136 29.1517 64.133
9.94128 19.1046 49.7843
13.6343 32.3482 74.3752
11.6712 28.9842 64.3933
14.2319 35.5663 72.6067
12.1478 31.2813 71.4659
9.86279 33.4009 84.1253
11.6176 32.5388 89.0346
11.5959 24.388 60.6363
