# pn-170911/RbIIA-av-RbIIA-1280-1959.psd
# Power spectrum* (dif=0,1,2) (really just |FT|^2)
# NOTE: only the first half! (symmetric)
# weeks: 1280-1959
# 12725 clock-days, 4795 excluded
# PSD: 1441
10595.8 0.323897 0.0137869
990134 19.6609 0.00775539
3.16741e+06 60.5582 0.00899506
571687 17.6803 0.00813332
339365 19.3709 0.0091387
174131 13.2104 0.00907843
117394 12.9712 0.00964678
79219.5 11.2659 0.0103786
61749.8 11.4175 0.0110057
47103.6 10.7096 0.0115465
38725.2 11.0784 0.0123934
31025.1 10.2899 0.0138442
25822 10.1503 0.0144912
21658.1 9.96201 0.0156919
18533.1 9.80251 0.0165568
16260.4 9.74571 0.018342
14113.6 9.76517 0.0197097
12298.7 9.57168 0.0207467
10733.3 9.11525 0.021642
9267.14 8.86264 0.022754
8746.54 9.13105 0.0247081
7856.29 9.18677 0.0268035
7187.98 9.05877 0.0285466
6464.18 8.90779 0.0300906
6081.08 9.01604 0.0324985
5541.72 8.90079 0.0334672
4961.79 8.6531 0.0354378
4620.21 8.65267 0.0372819
4339.45 8.9501 0.0413008
4086.2 9.00144 0.0430457
3803.94 8.64878 0.045555
3552.34 8.69345 0.0476711
3246.54 8.38552 0.048225
3136.32 8.90062 0.0532387
2923.63 8.6501 0.0552916
2764.12 8.75176 0.0581262
2560.35 8.5717 0.060689
2528.78 8.91433 0.0656584
2365.43 8.70283 0.066631
2167.17 8.12886 0.0661906
2102.96 8.38806 0.0715429
1997.87 8.42812 0.0741649
1897.61 8.53998 0.0785744
1828.86 8.53614 0.0823829
1702.5 8.28787 0.0836174
1629.29 8.38958 0.0886514
1590.21 8.55389 0.0943545
1478.53 8.32379 0.0942613
1442.71 8.35305 0.0993555
1379.56 8.30649 0.102481
1303.28 8.31256 0.107104
1289.1 8.3512 0.110247
1242.31 8.35097 0.114349
1191.03 8.33242 0.118525
1128.61 8.34568 0.122539
1088.71 8.34648 0.127568
1049.48 8.44484 0.132466
1028.7 8.34484 0.13621
959.042 7.91307 0.134393
943.861 8.48659 0.149055
914.849 8.28986 0.149434
891.313 8.32254 0.153914
844.061 8.15256 0.156479
828.979 8.23127 0.163437
809.024 8.29475 0.169015
781.257 8.18296 0.172594
763.884 8.25748 0.178587
736.58 8.15836 0.182047
696.19 8.07572 0.183716
699.669 8.51348 0.200839
688.363 8.11337 0.196736
657.929 8.31936 0.206653
645.882 8.29086 0.213022
613.325 8.17167 0.213972
604.61 8.12347 0.2177
590.469 8.30413 0.229518
584.529 8.38316 0.237823
555.992 8.35724 0.242808
536.245 8.20929 0.244981
519.699 7.97319 0.243625
513.005 8.22542 0.257579
500.272 8.03398 0.258485
488.39 8.22702 0.269617
477.152 8.34673 0.28171
469.052 8.24704 0.282819
459.697 8.25585 0.289925
438.736 8.12494 0.294031
429.862 8.03201 0.295158
425.751 8.19209 0.30625
411.822 8.0833 0.309783
399.643 8.00437 0.31558
397.657 8.2357 0.331534
388.539 8.10053 0.332304
380.361 8.22316 0.347336
363.108 7.89578 0.338439
367.093 8.30044 0.363196
352.248 8.03224 0.358659
350.756 8.13096 0.369169
337.596 8.04831 0.372385
333.944 8.19702 0.38779
318.763 7.96149 0.385413
323.176 8.20897 0.403734
316.903 8.18636 0.408187
313.205 8.2267 0.421987
304.706 8.15399 0.425307
294.265 8.03156 0.426787
292.472 7.98178 0.431139
287.954 8.0969 0.446135
281.02 8.16707 0.459912
283.341 8.36466 0.476017
269.3 8.13589 0.471552
266.366 7.98078 0.472836
261.546 8.1413 0.489304
258.972 8.13971 0.501135
249.374 8.02528 0.499824
248.415 8.2633 0.526566
244.756 8.24674 0.532674
238.489 8.04716 0.525342
233.38 8.04197 0.536238
235.154 8.18384 0.554794
230.492 8.21152 0.565605
225.684 8.37657 0.58828
220.632 8.14102 0.58022
213.843 8.04849 0.582195
216.842 8.16397 0.599463
207.843 8.11584 0.607938
208.545 8.01884 0.60845
204.913 7.96984 0.613953
201.996 8.08564 0.632118
198.839 8.14493 0.647597
191.88 7.9302 0.642551
193.339 8.20889 0.675287
186.184 8.23381 0.68572
185.937 7.94163 0.670315
180.497 8.02146 0.685464
179.259 8.09479 0.702775
178.369 8.1046 0.716767
176.264 8.22251 0.737793
170.95 8.00518 0.725138
168.636 7.99711 0.735383
165.595 8.05952 0.753682
163.746 8.26813 0.783847
162.248 8.06819 0.769888
158.803 7.99727 0.781544
154.182 7.89471 0.779262
154.877 8.20623 0.825253
156.029 8.25037 0.836055
155.633 8.04666 0.824977
150.749 8.05241 0.837458
145.793 7.98837 0.844909
147.934 8.22616 0.874121
141.612 7.86366 0.852305
141.875 8.14405 0.897374
142.795 8.26183 0.919845
136.331 7.97993 0.899278
137.501 8.07549 0.920221
136.4 8.1759 0.94223
133.582 8.21078 0.959248
135.272 8.26721 0.981225
132.152 8.33559 1.00296
131.085 8.29887 1.0089
130.061 8.20889 1.00758
124.43 8.16206 1.01986
125.844 8.20859 1.02932
121.632 8.08658 1.03622
121.176 7.94436 1.02194
119.434 8.16636 1.06542
117.483 8.13525 1.08067
117.858 8.21315 1.09452
115.478 8.02721 1.08527
116.364 8.35328 1.13766
114.025 8.15347 1.12499
111.864 8.18919 1.14242
109.447 8.04121 1.14211
111.348 8.22663 1.18272
108.199 8.10308 1.17242
107.585 8.28698 1.2106
105.663 8.119 1.20046
105.202 8.30504 1.24117
103.72 8.17619 1.2414
102.028 8.09016 1.23814
101.582 8.0562 1.25096
101.911 8.2387 1.28937
99.4586 8.30412 1.31065
96.7398 8.07568 1.29238
96.5119 8.14511 1.31536
94.3926 7.99819 1.30175
94.3203 8.21609 1.35301
92.971 8.12342 1.35189
92.9327 8.11928 1.36603
91.5496 7.94341 1.35347
92.2197 8.16767 1.40048
87.7665 7.92934 1.38498
87.6967 7.91981 1.38176
87.9321 8.15738 1.44941
87.3336 8.29791 1.49505
85.9085 8.07017 1.4548
86.5492 8.30228 1.51434
84.6302 8.11588 1.49661
85.2192 8.14176 1.51213
82.106 8.04105 1.51782
80.2949 8.16582 1.55392
81.0883 7.98103 1.52952
81.0286 8.10965 1.57261
80.5086 8.11207 1.59314
79.362 8.17743 1.6199
77.7846 8.01738 1.59363
79.0543 8.18862 1.64545
78.464 8.32482 1.6854
75.798 8.15798 1.67495
74.9321 8.19118 1.70121
74.1561 8.1469 1.70547
73.1532 7.91432 1.66419
73.3642 8.0688 1.72179
72.5401 8.07772 1.73551
72.2875 8.24391 1.78762
70.6365 8.15341 1.78364
70.3428 8.10322 1.79458
70.5679 8.17716 1.82222
69.9762 8.11294 1.82599
68.9604 8.10485 1.84491
69.5319 8.23575 1.89253
70.0557 8.45972 1.93716
66.6407 8.15049 1.90229
65.8801 7.99428 1.87072
65.9278 8.2429 1.96348
65.817 8.1533 1.9421
63.8635 8.11271 1.96665
64.3403 8.14762 1.98059
65.1523 8.38039 2.03908
63.2531 8.19995 2.023
61.5142 8.20367 2.04782
62.4539 8.07138 2.02662
60.7122 8.03777 2.04627
61.4945 8.24335 2.11832
61.555 8.12754 2.09535
60.6481 8.25964 2.14129
60.2811 8.25601 2.17003
59.8232 8.27329 2.1888
59.0337 8.17825 2.17703
57.4277 8.10622 2.18318
57.3713 7.96451 2.16779
57.8028 8.30622 2.26818
57.3118 8.10498 2.23346
56.4751 8.22664 2.28347
56.7762 8.41533 2.35598
55.875 8.22214 2.31919
55.3693 8.24039 2.34464
54.6444 8.25058 2.35974
55.0406 8.20958 2.35916
53.4053 8.17963 2.39196
52.8694 8.013 2.34709
53.6752 8.30311 2.44949
52.6572 8.10374 2.41488
52.8475 8.33596 2.49757
52.5718 8.384 2.52079
50.6145 7.97153 2.44262
50.8956 8.33961 2.55797
51.1522 8.21867 2.54533
50.7877 8.4192 2.6258
50.0411 8.21351 2.59697
50.994 8.46803 2.65707
48.0981 8.07197 2.58852
48.2861 8.07633 2.60068
48.7717 8.26856 2.68058
48.0057 8.01079 2.60911
47.5712 8.21279 2.69093
47.9049 8.30544 2.73966
46.1747 8.20055 2.72529
46.8758 8.05149 2.70902
46.4866 8.38088 2.82958
45.2923 8.0173 2.72113
45.7044 8.13357 2.78545
45.3338 8.17691 2.84947
45.3962 8.2078 2.83837
45.2477 8.25283 2.88692
44.6005 8.37471 2.96263
43.9506 8.10129 2.88926
43.5144 8.15701 2.91114
44.8095 8.40745 3.01025
43.391 8.08075 2.92994
43.8324 8.47179 3.10267
43.3404 8.22145 2.99816
42.9111 8.27193 3.05039
41.8242 8.14002 3.0375
42.0123 8.32247 3.13838
41.7401 8.39644 3.17996
41.9916 8.46805 3.22401
41.6722 8.30321 3.16609
41.5966 8.43149 3.25055
40.8214 8.39295 3.26353
40.5235 8.24566 3.23973
40.3085 8.32038 3.25859
39.861 8.28741 3.28862
39.5347 8.32081 3.30098
39.3188 8.33976 3.34909
39.4425 8.30373 3.33391
38.4625 8.08108 3.30345
38.8107 8.50056 3.47351
38.1385 8.24811 3.38448
37.1548 8.06188 3.35082
37.8472 8.24451 3.41491
37.4772 8.26188 3.46883
37.4549 8.52986 3.62202
37.4199 8.4288 3.55724
36.5318 8.19343 3.51427
37.316 8.43003 3.61787
36.303 8.22056 3.55704
35.4835 8.18278 3.56298
35.6789 8.18963 3.59585
35.3235 8.20448 3.62925
35.3523 8.15958 3.59284
35.9415 8.40368 3.74204
34.9332 8.26938 3.73264
35.0142 8.29463 3.75935
35.1324 8.35598 3.79474
34.3867 8.25807 3.8144
33.7534 8.22657 3.78803
33.541 8.0832 3.75422
33.3081 8.24107 3.85609
34.036 8.36203 3.90074
33.3089 8.32869 3.91341
33.7905 8.394 3.95791
33.2009 8.17726 3.90922
32.5756 8.24968 3.97183
32.9704 8.23678 3.97619
33.1107 8.46988 4.12124
32.2398 8.26119 4.02764
32.5286 8.2978 4.08821
32.5484 8.55877 4.21619
31.9825 8.34681 4.18733
32.4017 8.29837 4.15405
31.8158 8.31735 4.19229
31.3215 8.23502 4.17378
31.0292 8.30837 4.22644
31.5378 8.49362 4.33996
30.1375 8.33884 4.29575
30.518 8.36118 4.31942
30.3822 8.46605 4.38315
30.399 8.40223 4.41188
30.462 8.37076 4.42905
30.0032 8.31711 4.43164
29.5876 8.27305 4.38084
29.7929 8.32148 4.42608
29.3437 8.27538 4.46077
29.612 8.42815 4.56077
29.4065 8.49603 4.60925
29.4205 8.29029 4.53153
28.7269 8.23868 4.54941
28.7197 8.38275 4.61343
28.9718 8.36029 4.64597
28.1916 8.44512 4.7589
28.409 8.42435 4.71218
28.371 8.35731 4.69353
28.4791 8.62592 4.90249
27.5839 8.36424 4.80608
27.6714 8.42659 4.85399
27.4941 8.45613 4.89141
27.3016 8.26075 4.78744
27.5434 8.43853 4.92267
27.0906 8.36404 4.91311
27.3009 8.46482 4.9815
26.6046 8.29699 4.91835
26.6767 8.35413 4.96635
26.9484 8.58495 5.14689
26.5093 8.39172 5.0601
26.6509 8.42662 5.09941
26.0796 8.48886 5.14802
25.6227 8.26771 5.07883
25.7316 8.24959 5.06667
25.7052 8.36958 5.16294
25.1914 8.35342 5.2084
25.4331 8.3509 5.23349
25.2506 8.34166 5.21962
25.1713 8.5309 5.4159
25.3693 8.42743 5.31797
25.316 8.48147 5.38412
24.5838 8.41789 5.37577
24.7332 8.3248 5.32367
24.6928 8.46512 5.52618
25.0656 8.50383 5.55229
24.3483 8.23893 5.36402
24.5674 8.38359 5.51735
24.019 8.38133 5.49578
23.4955 8.33885 5.55061
24.0839 8.53931 5.67503
23.7781 8.37201 5.60159
23.9182 8.56598 5.7288
23.7866 8.51482 5.74991
23.5508 8.52696 5.80294
23.5828 8.60539 5.88105
23.0039 8.34501 5.73417
23.0567 8.3478 5.72442
22.7238 8.3204 5.76278
22.464 8.3415 5.83393
22.505 8.36295 5.82967
22.8191 8.42625 5.89604
23.0861 8.49066 5.97428
22.6399 8.30906 5.88547
22.1801 8.36633 5.97495
22.1114 8.31863 5.95806
21.8955 8.46322 6.08334
22.0429 8.48816 6.11896
21.7644 8.30223 6.02079
21.8128 8.45466 6.16634
22.3075 8.86034 6.49103
21.7759 8.31565 6.09494
21.4809 8.48824 6.30136
21.0231 8.19936 6.11571
21.3581 8.40515 6.25237
21.1754 8.44926 6.39018
21.8755 8.70639 6.53196
21.5202 8.69082 6.52128
21.1109 8.39283 6.38375
20.9206 8.46237 6.44749
21.0113 8.5067 6.4982
20.917 8.60976 6.72035
20.9294 8.52662 6.59199
20.5527 8.50157 6.58993
20.2291 8.31239 6.53966
20.7679 8.40489 6.55288
20.5064 8.55679 6.71979
20.3252 8.53714 6.70967
20.2611 8.32938 6.63838
20.0857 8.53591 6.79627
20.3867 8.62 6.91159
19.8371 8.45522 6.843
19.8912 8.72385 7.0792
19.7463 8.32272 6.71869
19.515 8.3826 6.81916
19.5699 8.51868 6.91921
19.7719 8.64594 7.05193
19.4559 8.45959 6.99157
19.2582 8.53736 7.15109
19.3639 8.6539 7.22708
19.3404 8.6926 7.3
19.5293 8.61046 7.23004
19.0467 8.45399 7.15128
19.335 8.66677 7.30071
18.8481 8.42981 7.23567
19.0382 8.73961 7.42746
18.7086 8.47947 7.24965
18.9108 8.69283 7.41842
18.465 8.5484 7.45562
18.2691 8.63532 7.48383
18.4363 8.54808 7.51177
18.5695 8.65294 7.56314
18.6106 8.5426 7.46166
18.3366 8.68681 7.64451
18.0851 8.63688 7.64725
18.2267 8.83666 7.81907
17.9619 8.49866 7.62763
18.0848 8.65817 7.78666
17.9236 8.62919 7.71605
17.6161 8.40544 7.64739
17.6289 8.36153 7.58493
17.7243 8.52064 7.74339
17.7132 8.65456 7.84378
17.3413 8.66908 8.05152
17.4205 8.76179 8.04698
17.3519 8.59216 7.98497
16.8926 8.49266 7.97413
17.3822 8.61669 8.0317
17.236 8.59366 8.03313
17.2322 8.53229 8.1438
17.4153 8.69966 8.16534
17.0374 8.72341 8.26415
16.9859 8.60601 8.18165
16.4927 8.59729 8.21507
17.1257 8.67331 8.30648
16.9212 8.69675 8.36279
16.7701 8.57244 8.27364
16.491 8.70312 8.5172
16.8172 8.48952 8.25579
16.705 8.63697 8.39529
16.2873 8.49809 8.4115
16.1955 8.6579 8.56324
16.3118 8.73399 8.59318
16.5631 8.77308 8.6989
16.2287 8.74981 8.76315
16.2068 8.66699 8.63733
15.7827 8.48502 8.61483
16.1777 8.67299 8.67762
16.0646 8.56223 8.64188
15.8411 8.68871 8.83797
15.8283 8.71496 8.8749
15.5271 8.54144 8.82286
15.847 8.88357 9.10715
15.7528 8.52573 8.77537
15.7976 8.77694 9.01995
15.676 8.7723 9.11777
15.4673 8.67644 9.07977
15.5738 8.8329 9.25495
15.5202 8.76771 9.1625
15.3867 8.57758 9.04501
15.2603 8.75442 9.31831
15.2629 8.82419 9.43759
15.4472 8.74397 9.24995
14.9013 8.5633 9.20341
14.8957 8.63267 9.25498
15.29 8.9139 9.59502
15.0326 8.59955 9.29035
14.9482 8.65114 9.37578
14.9671 8.84738 9.6183
14.8845 8.71874 9.52151
14.815 8.70777 9.52648
14.6491 8.63326 9.51335
14.8048 8.74731 9.5941
14.6738 8.82118 9.81567
14.577 8.83851 9.85338
14.4558 8.76692 9.67865
14.2413 8.67389 9.80943
14.4915 8.68088 9.90778
14.4438 8.82555 9.87827
14.4611 8.76696 9.91311
14.3027 8.72275 9.94468
14.1447 8.78572 10.0946
14.4139 9.01964 10.2493
14.2956 8.63619 9.89101
14.0601 8.69228 10.0468
14.2547 9.04744 10.4644
14.0754 8.67617 10.1111
14.1202 8.78577 10.0962
13.8996 8.75752 10.2972
14.1002 8.79695 10.2624
13.6926 8.72364 10.1575
13.645 8.93442 10.5737
13.5128 8.53659 10.1689
13.682 8.86699 10.553
13.7294 8.75979 10.4555
13.4956 8.67535 10.2817
13.4588 8.82938 10.6246
13.8702 9.02555 10.8237
13.4077 8.644 10.4419
13.3583 8.80092 10.7509
13.4156 8.87308 10.7016
13.29 8.66068 10.6377
13.2693 8.78385 10.6859
13.3197 8.95337 11.0481
13.2986 8.81966 10.8767
13.4242 9.0911 11.2659
13.3744 8.9139 10.9706
13.0637 8.72059 10.8058
12.9531 8.86803 11.0831
13.0806 9.01184 11.3094
13.0382 8.80586 11.0014
12.8511 8.80109 11.1886
13.1716 8.94054 11.3073
13.069 8.91238 11.1595
12.6889 8.92634 11.3261
12.8346 8.83356 11.3404
12.9936 9.07305 11.583
12.5152 8.85293 11.3864
12.7123 8.93915 11.6049
12.8491 9.05635 11.6811
12.8734 8.84071 11.4731
12.7357 8.80881 11.434
12.6085 9.02316 11.7846
12.8779 9.18911 11.9617
12.6327 9.06882 11.9202
12.6771 9.12512 11.916
12.3806 8.75294 11.6469
12.4431 8.92704 11.8282
12.3747 8.81996 11.7994
12.4076 8.99679 12.0863
12.3913 8.9909 11.9669
12.1663 8.93631 12.0675
12.4038 9.18389 12.2503
12.228 9.08508 12.2387
12.2705 8.97139 12.1328
12.3571 9.11313 12.3679
12.3147 9.01223 12.3185
12.4173 9.20337 12.5746
12.1097 9.00137 12.3001
12.2135 9.34115 12.9108
12.1802 9.3829 12.7818
11.9663 9.0664 12.7122
11.7952 9.03319 12.4637
11.9434 8.97445 12.5403
11.9931 9.2264 12.9208
11.8995 9.11585 12.7563
11.9426 9.068 12.7388
11.7669 9.12983 12.7626
11.6731 8.89769 12.7647
11.7303 8.90737 12.5592
11.7505 9.14396 12.931
11.5937 8.94719 12.6914
11.4904 9.11472 12.9541
11.6257 9.03577 12.9233
11.6146 9.09808 13.1383
11.7393 9.24363 13.2951
11.5008 9.0543 13.0001
11.5337 9.0833 13.1085
11.4115 9.04851 13.1254
11.0617 8.91956 13.1847
11.3536 8.94288 13.0359
11.4284 9.08395 13.2614
11.0233 8.74496 12.953
11.2145 8.9636 13.1488
11.0786 8.99439 13.4335
11.3137 8.98105 13.3328
11.2478 9.18905 13.6811
10.9766 8.83796 13.227
11.2811 9.11717 13.4732
10.9404 8.95792 13.5526
11.4056 9.13227 13.6885
11.0182 9.1665 13.8673
10.8299 8.94412 13.5112
10.8782 9.12692 13.8973
11.0327 9.1935 14.0189
10.9318 8.98881 13.5594
10.8362 8.84088 13.4762
10.7337 9.04693 13.9922
10.8916 8.89308 13.7053
10.7857 9.17083 14.2828
10.8721 9.21366 14.1227
10.6988 9.07565 14.2616
10.8277 9.20759 14.1787
10.5253 9.03525 14.1475
10.7605 9.01868 14.0311
10.7486 9.15352 14.257
10.577 9.02901 14.1032
10.5526 9.04268 14.3234
10.5467 9.04598 14.3313
10.7283 9.13221 14.4344
10.533 9.16224 14.3724
10.3507 9.07883 14.5125
10.3418 9.18304 14.7355
10.3197 9.08196 14.5452
10.4244 9.03278 14.6026
10.4489 9.18278 14.7553
10.2579 9.20426 15.0087
10.2532 9.13542 14.7966
10.2451 9.0878 14.8392
10.2896 9.27529 15.169
10.1114 9.08314 14.7421
10.148 9.05815 14.604
10.0744 8.95556 14.6765
10.2143 9.07059 14.9482
10.057 9.05278 15.1186
10.1117 9.00864 14.797
10.0521 9.02993 14.858
10.0835 9.07532 15.2033
9.87013 8.94409 15.1092
9.85475 9.03841 15.1462
9.92226 9.1953 15.3028
10.1394 9.17694 15.2857
9.8809 9.33161 15.6105
9.84641 9.25482 15.5621
9.7247 9.02372 15.3305
9.72363 8.96641 15.2629
9.76817 9.17832 15.4777
9.77384 9.13196 15.5312
9.69764 9.12374 15.7261
9.88856 9.32965 15.7651
9.55192 9.0032 15.5275
9.45128 9.01739 15.5463
9.4705 8.96206 15.5543
9.62187 9.12912 15.6765
9.494 8.9492 15.7526
9.7677 9.28928 16.0708
9.63556 9.18636 15.983
9.70382 9.41918 16.5627
9.73863 9.40316 16.4182
9.58745 9.24485 16.2419
9.45995 9.23752 16.4032
9.67196 9.352 16.43
9.3768 9.3411 16.4039
9.3229 9.04879 16.097
9.39793 9.11514 16.2243
9.3278 9.09141 16.0803
9.30684 9.16777 16.6127
9.42202 9.22278 16.4467
9.33578 9.13043 16.4488
9.41256 9.20928 16.4506
9.2268 9.08835 16.5215
9.19004 9.14408 16.4461
9.28394 9.14265 16.687
9.22694 9.14656 16.5645
9.24739 9.44322 16.8685
9.06308 9.185 16.9884
9.2867 9.18642 17.0365
9.1762 9.21614 16.8219
9.07261 9.48189 17.623
9.23004 9.61571 17.4799
9.05703 9.2634 17.0713
8.99254 9.28287 17.2067
9.1924 9.29904 17.3076
9.05685 9.14693 16.9915
8.87871 9.12706 17.0638
8.96876 9.16522 17.0639
8.86049 9.2436 17.6018
8.85443 9.2882 17.4197
8.85528 9.11758 17.3955
8.70446 9.0689 17.126
8.8655 9.16094 17.1527
8.81007 9.41318 17.7873
8.81635 9.13554 17.6541
8.8789 9.41831 17.7124
8.91248 9.36235 17.8076
8.58714 9.05129 17.674
8.6953 9.14275 17.5145
8.72083 9.37055 17.9106
8.72776 9.39432 18.1745
8.76736 9.47164 18.1853
8.78457 9.48955 18.118
8.60093 9.1723 17.7765
8.40201 9.17094 18.1184
8.77278 9.58737 18.5737
8.49532 9.26253 18.2767
8.55655 9.28167 17.9743
8.66564 9.47804 18.7682
8.59618 9.37748 18.3514
8.62283 9.53794 18.7641
8.43706 9.2108 18.4242
8.59882 9.51228 18.7429
8.51519 9.2953 18.434
8.56602 9.49827 18.739
8.51763 9.45893 18.8256
8.5529 9.42584 18.617
8.37787 9.39631 18.7407
8.33119 9.38905 18.8678
8.42104 9.28576 18.6421
8.39766 9.37859 19.0428
8.34143 9.39692 18.928
8.29702 9.24717 18.9382
8.51591 9.73311 19.6551
8.39922 9.49737 19.5335
8.46643 9.50759 19.0508
8.27894 9.47355 19.3227
8.33136 9.6262 19.5636
8.36273 9.62974 19.8489
8.34182 9.64592 19.4629
8.15648 9.34342 19.2078
7.9974 9.34653 19.503
8.1525 9.35526 19.2556
8.27534 9.40412 19.4003
8.19563 9.58202 20.1534
8.31855 9.55608 19.411
8.00293 9.27062 19.5986
8.09835 9.50717 19.8099
8.14642 9.80657 20.2757
8.02433 9.31258 19.5309
7.95985 9.39382 19.9553
8.14839 9.64253 20.2565
7.96725 9.4431 19.8156
7.99268 9.38622 19.8204
8.08946 9.59125 20.4276
8.10043 9.46618 19.9743
7.95052 9.39277 19.9993
7.83713 9.33861 19.9716
7.90431 9.41826 20.2028
7.83367 9.45336 20.3539
7.83917 9.32335 19.9728
7.95929 9.67378 20.4318
7.69434 9.32409 20.2857
7.90905 9.66288 20.7899
7.72564 9.37392 20.3682
7.85233 9.67602 21.1017
7.83273 9.4882 20.6243
7.78227 9.48109 20.7487
7.87904 9.44113 20.5872
7.80062 9.43848 20.6617
7.69386 9.28968 20.1124
7.71477 9.5004 21.0151
7.69274 9.47953 20.9995
7.95148 9.62183 20.9224
7.73675 9.4736 20.8464
7.68632 9.50204 21.0612
7.71474 9.56485 20.9016
7.72428 9.68226 21.5383
7.74467 9.53491 21.2516
7.65809 9.51195 21.1166
7.54616 9.35903 21.0775
7.5169 9.44397 21.0787
7.424 9.46699 21.2197
7.62628 9.46855 21.3368
7.49834 9.50867 21.467
7.64554 9.60808 21.4237
7.38831 9.33847 20.9913
7.5499 9.66393 22.0443
7.48354 9.39106 21.5457
7.53814 9.56569 21.8859
7.65858 9.85341 21.9542
7.53192 9.78963 22.245
7.52408 9.70236 22.4262
7.48755 9.62651 22.0666
7.52936 9.58413 21.9312
7.44711 9.56256 21.4238
7.39145 9.71898 22.2361
7.50243 9.62395 22.328
7.41976 9.5228 21.9475
7.36901 9.70617 22.2783
7.38135 9.48994 21.8028
7.19477 9.33585 22.1003
7.41509 9.65539 22.2974
7.31202 9.6167 22.5143
7.22635 9.7723 22.8779
7.31459 9.63201 22.4635
7.25696 9.68773 22.7346
7.22283 9.33287 21.8013
7.04788 9.53115 22.4827
7.10186 9.50033 22.8045
7.33615 9.6361 22.7805
7.29397 9.73673 22.7376
7.28561 9.56198 22.5292
7.11676 9.45851 22.5832
7.05665 9.49626 22.7156
7.1608 9.77206 23.4183
7.14231 9.76359 23.1728
7.06405 9.53005 23.0571
7.21736 9.5784 22.7943
7.21797 9.90587 23.7064
7.20195 9.68211 23.1428
7.26793 9.93464 23.9612
7.12575 9.73847 23.6444
7.20124 9.59193 23.102
7.03483 10.0393 23.9936
7.16944 9.78274 23.9137
7.13948 9.67913 23.4001
6.9625 9.6146 23.4283
7.05209 9.81609 23.9579
7.12605 9.74094 23.8068
6.92179 9.75361 24.0983
7.04823 9.62663 23.3713
6.97074 9.66613 23.8841
7.06874 9.89975 24.2581
