# pn-170911/RbIIR-57-RbIIA-1280-1959.psd
# Power spectrum* (dif=0,1,2) (really just |FT|^2)
# NOTE: only the first half! (symmetric)
# weeks: 1280-1959
# 2916 clock-days, 47 excluded
# PSD: 1441
6226.44 0.22305 0.0359782
609826 13.3709 0.0343001
1.57482e+06 28.4085 0.0338931
384515 12.2528 0.0325239
244892 14.3085 0.036349
116797 8.40163 0.0354567
78645.4 8.74943 0.0350778
52729.9 7.7257 0.0355182
43252.8 8.09331 0.0335031
30644.1 7.20803 0.0349525
25942.1 7.3037 0.036191
20919.1 6.91498 0.0363077
17469.2 7.11109 0.0363294
14614.6 6.88943 0.0392421
12966.6 7.10923 0.0388029
10919.8 6.82125 0.0396075
9887.99 6.97174 0.0413536
8503.04 6.83671 0.041535
7690.75 6.76425 0.0417648
6562.3 6.45052 0.0423097
6378.39 6.9964 0.044577
5597.04 6.79745 0.0474336
5094.8 6.8853 0.0520953
4583.12 6.64882 0.0501001
4375.66 6.88658 0.0518384
3957.07 6.80708 0.0513669
3568.28 6.3605 0.053794
3335.09 6.78289 0.0561684
3191.15 6.90648 0.0611879
2970.38 7.09841 0.0626036
2857.36 6.98321 0.0625926
2620.48 6.92142 0.0674536
2457.23 6.96221 0.0663252
2356.25 7.31338 0.0701031
2173.79 6.89519 0.0732923
2082.34 7.03346 0.0747667
1947.25 7.2203 0.0789941
1899.37 7.41825 0.0813602
1778.79 7.37123 0.0828373
1690.32 7.3727 0.0863324
1619.6 7.37271 0.0905496
1539.72 7.34456 0.0929992
1486.52 7.43435 0.0931153
1468.76 7.68993 0.0998027
1362.57 7.40582 0.098974
1323.12 7.73378 0.106474
1276.91 7.7931 0.114406
1216.51 7.80434 0.116871
1196.99 7.94694 0.121428
1147.8 8.198 0.126688
1074.48 7.89826 0.12985
1034.25 7.87386 0.128844
1023.2 8.03286 0.138538
995.265 8.25776 0.14288
969.256 8.368 0.150803
945.658 8.74872 0.159926
910.859 8.64696 0.164222
889.647 8.70039 0.167544
847.564 8.72958 0.174068
817.628 8.74637 0.180013
834.905 9.12652 0.191946
808.676 9.02166 0.195774
783.814 9.40723 0.207594
732.133 8.64696 0.198343
722.503 9.04487 0.209859
720.859 9.58851 0.2298
696.968 9.27509 0.227636
675.62 9.67867 0.240332
650.49 9.57698 0.245126
668.409 10.2657 0.270749
643.284 9.69401 0.260334
629.583 10.0113 0.273141
583.632 9.63217 0.27564
563.584 9.48695 0.273809
601.835 10.3686 0.30084
567.4 10.2236 0.307179
559.843 10.3057 0.319068
529.179 10.1733 0.318304
519.919 10.3197 0.327124
525.736 10.4382 0.346163
522.875 10.8718 0.359509
504.915 10.5962 0.364891
514.019 11.1148 0.394243
481.434 11.0475 0.398532
466.286 10.8092 0.398298
471.98 11.2511 0.418881
457.767 11.3514 0.432782
451.629 11.3608 0.439379
435.91 11.1326 0.449369
436.216 11.4157 0.464714
426.999 11.4324 0.472737
427.712 11.7669 0.492707
406.392 11.5201 0.500223
403.64 11.5087 0.511164
395.39 11.4629 0.517579
402.494 12.3244 0.558503
444.262 14.2936 0.656416
385.939 12.3315 0.581793
371.979 11.9811 0.579537
361.86 11.9992 0.592372
351.452 12.0211 0.599974
377.735 13.1148 0.666452
357.86 12.8792 0.673432
368.76 13.3544 0.710814
346.018 12.8311 0.693813
357.099 13.6216 0.745477
333.104 12.8896 0.715674
319.928 12.6618 0.714166
327.731 13.3223 0.765826
330.458 13.6498 0.805736
319.612 13.4971 0.811134
313.815 13.4304 0.820444
307.724 13.5293 0.828712
321.946 14.1505 0.883718
323.547 14.9644 0.95853
306.719 14.2734 0.935709
293.6 13.938 0.919139
287.016 13.6805 0.918142
291.024 14.2056 0.96821
289.464 14.2676 0.990192
284.116 14.4582 1.0161
285.373 14.6452 1.03873
276.391 14.3066 1.03382
273.895 15.0242 1.11986
269.723 14.7538 1.10698
263.331 14.6375 1.12331
272.623 15.189 1.16708
266.985 15.175 1.1855
254.651 14.5992 1.15669
259.542 15.2075 1.22143
252.388 15.4564 1.27396
253.346 15.7091 1.30853
256.95 16.2069 1.37127
248.923 15.5957 1.32917
245.665 15.614 1.35793
241.08 15.8823 1.41225
243.344 15.8226 1.41573
231.068 15.6602 1.41991
237.504 16.2225 1.48733
225.824 15.6735 1.4533
237.313 16.974 1.60282
227.925 16.4627 1.5811
217.544 16.2748 1.5745
225.304 16.9263 1.67137
224.355 16.9315 1.67517
223.546 17.211 1.73862
212.298 16.2519 1.66385
216.14 17.1152 1.79063
219.016 17.4434 1.82697
209.768 16.9888 1.81635
217.801 17.9098 1.92474
211.08 17.4196 1.90869
213.991 17.975 1.99793
210.855 18.1931 2.04248
197.236 17.3814 1.98964
200.977 17.8082 2.05394
199.427 17.9117 2.08514
196.443 17.899 2.11028
202.523 18.7226 2.23188
195.517 18.3988 2.23399
190.913 18.1017 2.2083
196.197 18.7553 2.32358
192.921 18.6466 2.32137
190.019 18.6936 2.37651
190.265 19.0655 2.46269
186.698 18.6082 2.40549
179.864 18.3447 2.41408
179.065 18.676 2.46261
181.551 18.9027 2.54695
178.847 18.9669 2.57106
175.875 19.0998 2.62446
179.497 20.1499 2.78969
178.674 19.7983 2.79382
169.032 18.9586 2.69757
177.529 20.1508 2.8981
179.91 20.4582 2.96439
170.308 19.7045 2.89307
165.004 19.3425 2.88088
164.9 19.5561 2.9656
162.199 19.4484 2.93137
163.124 19.9919 3.09519
166.942 20.2147 3.14222
165.857 20.1809 3.18021
166.079 20.9435 3.33009
160.413 20.2222 3.21
159.053 20.8963 3.39743
161.242 21.0753 3.43388
156.669 20.556 3.39295
157.065 20.8135 3.49929
153.143 20.5718 3.4893
154.221 20.6293 3.52203
153.226 21.1835 3.67814
169.472 24.347 4.19774
146.352 20.2777 3.53145
143.887 20.6289 3.65454
149.749 21.9105 3.94179
143.022 20.9653 3.79813
142.842 21.1251 3.85864
139.489 21.0934 3.90377
142.737 21.0352 3.93481
139.847 21.1893 3.98891
142.513 22.0109 4.19786
145.752 22.366 4.28583
140.356 22.0825 4.29639
143.903 23.1386 4.53526
137.211 22.107 4.41318
141.387 23.1215 4.60015
134.983 21.7953 4.39734
140.448 22.5854 4.57528
134.966 22.6724 4.65284
134.393 22.8832 4.75347
130.616 22.5594 4.7577
132.488 22.4305 4.76432
131.632 22.8971 4.86146
133.197 23.2382 5.03317
131.141 23.2479 5.01405
128.074 23.2185 5.11142
129.089 23.3495 5.13911
124.239 22.7467 5.09391
131.515 24.1714 5.39527
127.137 23.5606 5.35943
123.834 23.1267 5.31083
122.879 23.2325 5.38511
121.54 23.2383 5.39727
120.545 22.986 5.39948
124.927 24.1936 5.71874
120.07 23.7747 5.66772
124.736 25.1491 6.07438
122.985 24.6514 5.97445
117.897 24.0289 5.90028
117.932 23.8545 5.87912
115.428 23.7754 5.91767
114.376 23.6501 5.98583
117.793 25.2747 6.38305
117.908 25.0374 6.41129
115.473 24.3587 6.31783
112.433 24.782 6.42049
112.857 24.5429 6.39737
112.264 24.3474 6.47076
109.128 24.5299 6.57941
112.384 25.1541 6.72918
109.821 24.6508 6.68474
106.397 23.8666 6.57626
110.436 24.7345 6.75809
108.735 25.4878 7.14927
111.02 25.7462 7.17195
108.494 25.2464 7.12593
109.25 25.6463 7.2816
109.115 25.7591 7.31035
104.486 25.0381 7.2281
105.903 25.4784 7.41154
102.734 24.8407 7.31599
102.062 25.4501 7.56012
101.978 25.0804 7.55648
105.244 25.8191 7.63649
102.681 25.8495 7.83423
104.43 26.0208 7.89939
101.636 26.7774 8.2457
97.6464 25.2799 7.86333
98.0341 25.5381 7.97397
99.5513 26.0223 8.1637
98.2199 25.9756 8.19754
96.1455 26.1234 8.42713
99.8692 26.6555 8.54676
97.0792 26.8051 8.72886
96.5457 26.3345 8.50529
95.2024 26.0037 8.51825
96.8353 26.9732 8.98592
92.8559 26.1093 8.70352
92.9041 25.9141 8.65938
94.2445 27.1041 9.15362
95.1112 27.2705 9.24065
90.802 25.965 8.88578
92.39 26.895 9.33449
91.0371 26.4836 9.21118
90.0948 26.2776 9.22736
96.5096 28.6225 10.107
92.234 27.6149 9.74257
91.8262 27.5231 9.83635
88.5505 26.5669 9.60531
88.8978 27.45 9.87498
87.9934 27.3311 10.1162
90.5792 27.9231 10.1835
86.6189 27.0295 10.0168
84.9625 26.5985 9.96547
87.1509 27.3906 10.2786
86.6881 27.2336 10.3113
88.0637 28.1942 10.7486
97.4476 32.1746 12.0227
84.8475 27.8767 10.7305
83.0685 27.7592 10.9327
83.8971 27.4116 10.7153
82.781 27.1586 10.6753
83.204 27.5608 10.7877
80.3552 27.8556 11.1509
83.3195 27.7818 11.0839
80.7238 27.9725 11.2799
80.5281 28.3365 11.6501
82.8156 28.4839 11.6366
78.4838 27.6092 11.4352
80.0744 27.7214 11.4882
77.8968 27.3854 11.4077
76.9591 27.4813 11.4798
79.2996 28.4101 11.9705
78.0983 27.8147 11.7752
77.2735 28.14 12.1474
77.5368 28.7934 12.4731
76.5468 27.9643 12.0842
76.4565 28.4328 12.3544
74.9093 27.6019 12.1243
73.8714 27.5128 12.1628
74.0046 28.1373 12.5806
77.7977 29.0665 12.8281
73.3959 28.4463 12.8069
72.7077 27.8905 12.6051
73.2474 28.7173 13.012
72.5488 27.9968 12.7917
74.7228 29.0473 13.3403
70.6037 27.8986 12.9834
71.9294 28.8277 13.4771
74.3294 28.8139 13.5697
72.4457 28.6831 13.3836
73.7491 29.4303 13.8995
70.5183 28.8926 13.7206
70.3913 28.9432 14.0044
68.9881 28.1529 13.572
69.594 28.8633 14.0181
69.4775 28.8691 14.1826
70.9591 29.6566 14.6395
69.4697 29.4093 14.6702
70.5816 29.4299 14.6303
68.346 28.6817 14.4538
68.4883 29.3275 14.6623
67.8273 28.5942 14.3128
66.1885 28.6308 14.6475
67.1208 29.3659 15.034
66.2918 28.677 14.6457
67.009 29.4349 15.2232
66.3652 29.1875 15.1163
65.4168 29.1426 15.46
66.6533 29.6083 15.5574
68.7968 30.6536 16.0346
62.4459 28.5182 15.1171
66.5395 30.2713 15.9674
64.1074 29.0692 15.576
62.9137 29.3777 16.0934
62.2617 28.5142 15.6867
63.4387 29.3399 15.9437
63.7918 29.7469 16.2986
61.6954 28.9865 15.8977
62.0926 29.7825 16.7468
62.3551 30.0429 16.8523
62.1071 29.6468 16.562
60.2459 29.5722 16.8537
63.6875 30.5978 17.3087
59.0381 28.4937 16.2702
59.8052 29.235 16.825
58.6209 28.8771 16.564
59.5322 29.7944 17.3386
59.4138 29.5933 17.2435
58.8087 29.5366 17.2227
60.0161 30.0356 17.6621
57.9835 29.2875 17.4695
58.6719 29.4189 17.3472
58.2239 29.7914 18.0913
58.2754 30.0206 18.058
57.0956 28.6199 17.3082
56.6139 29.8525 18.0025
56.9106 29.7641 18.163
56.65 29.1088 17.8683
54.9958 28.9742 17.9502
56.479 29.5515 18.5256
55.8767 29.6106 18.3373
56.1318 29.8917 18.8072
55.1939 29.6242 18.6755
54.3346 28.9069 18.33
54.8929 30.5445 19.381
54.1493 29.7131 19.0303
53.6295 29.4227 19.012
53.0486 30.0601 19.6112
54.4954 29.9635 19.4006
54.9788 30.2409 19.6374
52.5673 29.4425 19.31
52.6006 30.1089 20.3026
59.9383 34.4952 22.3292
52.8174 30.3638 20.4988
52.5919 29.7055 19.7806
52.1995 29.7888 20.1572
52.1912 29.9859 20.0151
51.1273 29.8454 20.2821
50.9593 29.5335 20.2658
52.7142 30.6692 20.7207
50.7989 30.3653 20.9858
50.2619 29.7857 20.6287
50.0607 29.94 20.9655
51.2465 30.205 20.9772
50.2153 29.7898 20.7625
48.5009 29.4439 21.0256
48.4482 28.8258 20.4314
49.5875 29.8229 21.36
50.9257 31.0014 22.0498
47.7187 29.0211 20.7552
49.0558 29.5099 21.3212
48.67 29.7688 21.5121
49.6008 30.6584 22.433
47.6239 30.0858 22.2703
49.2266 30.3471 22.1328
47.0456 29.6397 22.0421
47.1384 29.8512 22.0167
46.3978 29.8791 22.2028
47.3711 30.9777 23.2721
48.6702 31.2713 23.3763
46.119 29.8667 22.6855
46.4265 29.9762 23.0136
47.1875 30.5996 23.1332
45.5628 30.0655 23.0321
46.7332 30.3078 23.1589
47.3063 31.6105 24.4249
46.9817 31.543 24.5541
45.3537 30.4004 23.8287
46.4058 31.1878 24.4247
46.1891 31.2062 24.7614
46.4594 31.4623 24.6813
45.7956 30.7093 24.476
44.9859 30.3634 23.9284
45.2912 30.5543 24.3308
45.5153 31.0761 24.7659
44.711 31.2201 25.2874
45.1143 30.8585 25.1211
45.1986 31.5301 25.4394
42.642 30.444 25.209
44.045 31.1102 25.6169
45.0502 31.7357 26.0988
42.7412 29.6259 24.5928
42.9346 30.5201 25.4044
42.9852 30.4912 25.4467
42.6391 30.2276 24.9784
39.8244 28.7732 24.3299
42.8447 30.7744 26.0049
41.9055 30.7344 26.4162
42.1454 29.5795 25.248
41.5384 30.7261 26.3525
42.596 30.7942 26.048
39.7478 30.0013 26.3177
41.7105 30.4771 26.0982
40.8808 30.9458 27.0835
40.4492 30.1467 26.2624
41.3891 31.0927 27.1901
40.3574 30.2919 26.81
40.4928 31.3137 27.7617
40.5905 30.6024 26.9576
37.8887 29.1462 26.1863
40.3194 30.6706 27.942
40.8139 30.6024 27.03
39.0181 30.1166 27.455
39.9895 30.8264 28.2037
39.8614 31.5143 28.8441
40.0591 31.3012 28.6085
39.23 31.1972 28.9808
38.1519 30.4969 28.2439
39.1536 31.2746 28.6821
39.0748 31.2696 29.2874
38.3168 30.6581 28.5514
38.2124 30.5362 28.5582
39.0695 31.0836 29.3409
38.594 30.9829 29.494
37.8679 30.6676 28.9583
37.2366 30.0763 28.8763
37.6828 31.3446 29.6664
38.2586 30.8475 29.2113
36.392 30.6998 29.6112
37.9136 31.3448 30.1511
37.6184 31.4109 30.3571
36.8968 30.5098 30.1602
37.293 31.2642 30.3942
35.7132 29.5404 29.3335
37.3532 31.442 30.6814
35.522 30.0392 29.9719
35.7688 29.9922 29.9441
36.2272 31.0661 31.8415
42.3994 36.396 34.8372
35.8542 31.0433 31.4137
35.8834 31.1384 31.4068
35.4011 30.4285 30.4341
34.7902 30.8561 31.4768
34.7381 29.5289 29.9263
34.4776 30.2404 31.0582
35.1939 30.7583 31.931
35.5372 30.9307 31.611
34.6404 30.4706 31.5492
34.2102 30.3779 31.6822
34.6705 30.672 31.6021
33.3284 30.1357 31.6915
34.7052 31.2994 32.8254
33.9484 30.9075 32.9818
34.7629 31.1868 32.8948
33.736 30.663 32.487
33.9516 30.6204 32.5809
33.5859 30.312 32.3687
32.0795 29.4916 31.8177
32.4688 29.8422 31.8138
31.4393 29.0707 31.5999
32.6113 29.8701 32.2826
33.0236 31.222 34.0315
32.2653 29.8891 32.549
31.5581 29.8328 32.8452
31.0641 29.5664 32.5513
31.2791 29.322 32.7691
31.8645 29.9355 33.1458
31.2993 29.1063 32.624
30.7296 29.1693 32.7732
32.0194 30.4917 34.2513
31.5728 30.0798 33.7129
31.9596 30.3063 33.7077
30.5912 29.8308 33.4457
30.5403 28.6588 32.5445
30.4334 29.7533 34.0903
30.8875 30.0854 34.245
29.9691 29.5669 34.2166
30.4245 30.2415 34.5196
30.6927 30.6342 35.6695
31.1145 30.6157 35.2839
29.7722 29.5553 34.3931
30.8421 31.237 36.1352
29.7013 29.2332 34.4511
29.8086 30.0009 35.2767
30.2066 30.1695 35.8955
29.4443 29.7026 35.0913
29.1892 29.8411 35.1831
28.7392 29.1216 35.1082
29.2258 29.3117 34.4732
29.32 29.9866 36.0999
29.4649 29.9518 36.073
28.4823 29.0646 35.4236
28.7067 29.7484 36.2927
28.9333 29.5091 35.8745
28.7046 30.169 36.6806
28.6333 29.7637 36.4953
29.2385 30.4818 37.4401
29.1578 30.2212 37.1277
29.361 30.6578 37.549
28.5668 29.9769 36.843
27.1684 28.9824 36.179
28.0376 29.5394 36.998
27.8871 29.5681 37.1918
27.8759 29.144 36.4384
27.6954 29.3485 36.7361
27.4577 28.9555 36.39
27.4954 29.8326 37.8573
27.9156 30.4123 38.7222
28.0646 30.1483 37.8523
26.6705 29.5394 38.3059
27.0236 29.8057 38.5131
27.5915 30.3104 39.3216
27.1508 29.5957 38.2444
25.9238 27.4948 35.7567
26.7773 29.2269 38.3194
27.0475 29.8053 39.3287
27.3473 30.0267 38.8823
27.0926 30.2563 39.2532
26.5035 28.9996 37.5923
26.6245 30.6066 40.7101
26.9939 30.2948 40.3729
26.7516 29.6659 39.5101
26.1801 29.3264 38.9508
25.4009 28.9169 38.7085
26.2286 30.0071 40.2643
25.8223 29.4396 39.444
25.2299 28.8448 38.514
24.9421 29.3614 40.4016
25.8446 30.1354 41.0451
26.2488 30.2576 40.7533
25.7402 29.6991 40.801
25.3328 29.0579 40.1218
25.2133 29.4801 40.7197
26.0964 30.475 43.0368
28.5607 33.9669 45.0258
25.4747 30.3082 41.5207
24.9113 30.0251 42.6444
25.4165 29.7996 41.2657
24.3865 29.0643 40.6459
24.4746 29.3533 41.7329
25.0453 29.887 41.8793
24.5056 29.2392 41.211
24.0681 28.9062 41.3217
24.4948 30.0429 42.6891
24.8911 29.3551 41.256
23.8534 28.896 41.5688
24.4529 29.8676 42.4464
24.172 29.0021 41.3822
23.6611 29.2061 42.1855
23.4385 29.2599 42.6005
23.716 28.7815 41.7856
23.5506 29.3372 42.6006
23.2748 29.1779 43.2618
23.7346 29.8266 43.9979
24.2739 30.152 43.9009
23.6183 29.3872 42.9395
24.0781 30.7843 45.465
23.8834 30.0446 44.9665
23.8869 29.6908 43.7395
23.1746 28.7107 42.8109
23.4737 29.4759 43.7911
23.2415 28.8751 42.672
22.7128 29.2246 44.5511
23.9261 29.8974 44.0157
22.8104 29.1033 43.956
22.953 29.448 43.804
22.0917 28.0311 42.6725
22.4802 29.596 45.5414
22.0917 28.2458 43.342
22.5583 28.9827 43.8139
22.2576 28.2273 43.2862
22.5289 28.8981 44.4749
22.4076 28.5742 43.086
21.8531 29.1462 45.0929
22.1679 29.4109 45.9
22.2081 29.298 45.3057
21.9698 29.36 46.8063
22.6169 28.97 44.6276
21.8851 28.799 45.1257
21.1007 27.6329 43.7592
21.5819 28.1171 43.9365
20.689 27.6795 44.2124
21.9504 29.171 45.5512
21.0208 28.9207 45.8484
20.9564 28.1323 45.1294
21.8655 29.38 46.5676
20.7575 28.5689 46.2068
21.1923 28.6604 46.1072
21.4508 28.8723 46.4123
20.809 28.5835 46.1143
20.8389 28.0493 44.9533
20.8323 28.4759 46.2382
20.69 28.1651 45.0026
20.1064 27.8193 45.2702
20.5997 28.62 46.8012
20.0569 27.9963 45.8363
20.4382 28.2012 47.1358
20.5765 28.2031 46.7657
20.385 28.0662 46.5916
20.417 28.0405 46.6014
20.7174 29.0497 47.773
19.6613 27.3606 45.5028
19.9198 28.3308 47.1999
19.6588 28.2935 47.2972
19.5697 27.6176 46.9867
19.9881 28.17 47.3048
19.4767 28.3019 48.0052
19.3526 27.2665 46.5518
19.0836 27.0342 45.8562
19.0608 27.0459 45.8623
19.6942 27.8992 47.2054
19.0497 26.9755 45.3209
18.4597 27.5677 48.7088
19.591 27.6054 47.6227
18.9232 27.0696 45.7556
19.0414 26.8655 46.5097
19.3425 28.7755 48.4954
18.1947 26.2483 46.1799
18.727 27.3821 47.7147
18.5888 27.2363 47.784
19.1916 27.7007 47.812
18.3997 27.4864 48.6467
18.9688 28.3386 49.3351
18.3655 27.0785 47.5454
18.3689 27.1313 47.6496
18.3604 27.7418 49.4288
18.2391 27.3252 48.9303
18.4288 27.8953 49.9684
18.174 26.5524 47.2318
18.1034 28.1723 53.4179
21.4487 32.2322 53.5523
17.9013 27.0746 48.259
17.3984 25.7999 46.6634
17.8606 27.2528 49.5595
17.6304 26.3845 48.034
18.1116 27.1836 49.5364
17.5136 26.6008 48.2273
17.5074 26.8498 48.1058
17.4595 26.8935 49.5193
17.7189 26.7888 48.9201
17.187 26.5494 49.3143
17.8043 27.0662 49.6737
17.5753 27.2348 49.3459
17.0307 26.1024 48.6031
17.457 27.2948 50.6044
17.1168 26.2674 48.747
17.0562 26.6032 48.7405
16.9552 26.7804 50.3694
17.0578 27.1241 50.2409
17.1875 27.0489 50.9231
17.2897 27.241 51.3081
17.5556 27.6284 51.684
16.5492 26.0796 49.7209
16.909 26.6496 50.7977
17.2386 27.4805 51.9651
17.0543 26.0756 49.0684
16.5389 26.9866 51.5069
16.9044 26.5007 51.4291
17.5494 27.1926 51.6023
16.9589 26.9696 50.8571
16.9843 27.2248 51.6913
16.3249 26.2272 50.9019
16.3253 26.2521 50.2613
16.1507 26.8174 52.3504
16.1338 26.1196 51.4833
16.2672 26.5794 52.3481
16.9166 27.6216 53.5485
16.6515 26.6401 51.7746
16.2562 26.5373 52.9436
16.7112 26.5508 51.7131
16.5154 26.4185 51.6801
16.1251 26.6072 52.1996
16.1162 26.5485 51.8914
16.1571 26.7062 51.7884
15.8637 26.7878 53.8532
16.0636 26.0744 50.4436
15.1978 24.7887 50.5355
15.898 27.0767 55.4881
16.2159 26.979 52.2111
15.588 26.3144 53.1304
15.4047 25.878 52.7755
15.8613 26.2355 52.629
15.608 25.4992 50.7577
15.2818 26.2042 54.192
15.9513 26.7057 53.5278
15.6377 25.599 51.7576
15.2827 26.1238 52.9522
15.7656 26.8548 54.4804
15.6005 26.7182 54.9045
15.1954 25.855 52.6702
15.3782 25.734 51.6718
14.6502 24.8054 51.5426
14.4087 25.1776 52.8515
14.439 24.5688 51.1415
14.9063 25.6847 53.2513
15.3607 26.3924 53.9345
15.0603 26.131 53.7392
15.2129 25.6907 53.7864
15.2831 26.7904 56.0115
14.8974 26.2085 54.9905
14.8255 25.7867 54.9335
14.699 24.7533 51.8909
15.1095 26.746 55.5743
14.547 24.8986 52.0293
14.4474 24.9491 52.6782
14.4657 25.5798 54.5823
14.7197 25.3734 53.564
14.7782 26.2624 55.7335
14.5275 25.7141 54.5075
14.4747 26.3573 58.0025
14.5173 25.1364 54.0449
14.0884 24.8283 53.7591
14.7576 25.6249 52.9683
13.7442 24.8063 55.004
14.8056 26.0471 55.1189
14.1452 25.3825 54.5314
14.3419 26.1352 55.5206
14.0088 25.4506 55.1027
13.8632 25.2251 54.2799
13.5743 24.4629 53.4751
13.7726 25.2094 55.6905
13.8305 24.9708 55.1491
14.1997 25.4662 56.0702
13.9859 25.5185 55.4953
13.6414 24.7949 55.2174
13.7188 25.6936 60.0914
15.4601 28.1771 58.7099
14.0309 25.1267 55.6782
14.0134 25.0743 54.6005
13.5008 25.0624 55.2122
13.658 25.2003 57.2191
13.9995 26.1842 57.7979
13.2579 24.8062 55.6438
13.4707 24.7282 55.429
13.427 24.5465 54.7526
13.4741 25.3676 56.443
13.4313 24.9048 56.1696
13.0642 24.0705 55.2887
13.747 25.4351 56.4997
12.8523 24.4625 57.1428
13.4238 25.1997 57.0053
13.4333 24.4291 56.3326
13.4078 24.8294 56.0267
13.1024 24.192 54.8063
13.2207 24.7218 55.5781
12.9708 24.8837 56.6082
12.8074 24.5542 56.6178
13.0457 24.8773 58.0673
13.1867 24.1254 55.0758
12.746 24.0987 55.925
12.9167 24.335 56.1557
12.7444 23.691 55.1023
12.8708 24.4652 55.8901
12.9615 24.8867 56.7936
12.3248 23.8659 56.8838
12.8689 24.8683 57.4577
12.5292 23.8845 56.0024
12.6193 23.9685 56.0097
12.6941 24.4219 56.5409
12.2742 24.4795 59.1906
12.6368 24.3759 58.878
12.5096 23.9865 56.1381
12.4928 23.9601 55.9207
12.2946 23.755 56.9222
12.1996 23.1348 55.1169
11.987 23.6073 56.7582
12.4968 24.165 57.2763
12.1673 23.8228 56.3237
12.0943 23.8146 57.6971
12.5343 23.8273 57.3821
12.7592 25.3317 59.7826
11.9569 23.398 56.8561
12.299 24.0024 56.1271
11.8115 23.9115 58.7216
12.1902 23.6517 56.2272
11.7777 23.5949 56.6738
12.2165 23.721 57.5803
12.0689 23.8283 58.8716
11.9529 23.6274 57.5847
11.9928 23.748 58.1709
11.9516 23.4228 58.2325
11.9595 24.0877 58.1555
11.6698 22.8567 55.6417
11.7369 23.7209 57.0635
11.5225 23.5351 59.3027
12.219 23.7682 56.8061
11.7911 24.015 59.2641
