# pn-170911/RbIIA-40-RbIIR-1280-1959.psd
# Power spectrum* (dif=0,1,2) (really just |FT|^2)
# NOTE: only the first half! (symmetric)
# weeks: 1280-1959
# 147 clock-days, 40 excluded
# PSD: 1441
21703.3 0.515915 0.0346794
1.7585e+06 35.1623 0.0153545
3.50638e+06 55.2837 0.0162729
866448 27.1364 0.0158549
561634 31.9828 0.0174261
235161 16.931 0.0160517
202012 22.5122 0.0184635
99852.6 14.6279 0.0192356
95110.7 18.6502 0.01921
57623.6 12.2723 0.0180841
54341.9 11.6667 0.0193608
39221 12.2512 0.0212208
35209.8 12.4169 0.0221499
30522.8 12.5344 0.0228467
22454.4 10.8338 0.0270921
24023.6 12.7458 0.027411
17316.4 10.1765 0.0280203
15349.8 10.4514 0.0302064
14015.6 10.461 0.0323359
12141 8.2724 0.029143
12879.8 10.4498 0.0318498
10806.1 11.4772 0.0380951
9903.52 10.09 0.0400821
8726.4 9.3416 0.0411569
7817.32 9.88149 0.0430095
7360.82 9.55054 0.043724
6164.53 9.51175 0.0502648
5948.58 8.60077 0.0445012
6032.95 10.9194 0.055354
5571.48 9.79669 0.0494516
5160.37 10.5074 0.0588105
4949.42 11.3387 0.0682895
4604.35 10.5396 0.0650594
4545.82 11.0028 0.0676979
4222.08 10.6991 0.0719339
4066.72 9.00506 0.068298
3252.62 8.91199 0.0660637
3648.38 10.4483 0.0873863
3626.46 12.8185 0.0981981
3076.16 8.87265 0.0785382
2891.2 10.434 0.0978097
2830.07 11.1669 0.109285
2630.89 10.5649 0.100504
2700.66 10.4689 0.111246
2646.44 11.6321 0.113973
2154.03 9.01831 0.105774
2218.09 9.15077 0.112154
1875.6 9.15748 0.111393
2075.84 10.3002 0.126069
1952.35 10.7414 0.151624
1696.2 9.56433 0.126375
1720.02 10.3324 0.14261
1676.69 9.98356 0.136228
1827.5 10.6296 0.150487
1464.94 9.32069 0.142087
1406.11 9.13029 0.139128
1481.8 10.8785 0.176964
1440.51 11.0424 0.196771
1274.48 9.58501 0.182325
1293.22 11.363 0.19915
1227.28 11.0072 0.205765
1282.14 10.6326 0.202533
1147.82 9.79036 0.185188
1183.52 11.75 0.231154
1170.66 11.5758 0.2416
991.915 9.45854 0.20388
1122.57 11.637 0.255218
1221.41 12.4622 0.276299
1010.52 12.4912 0.291142
1102.74 10.7338 0.255054
1035.67 12.3386 0.313237
966.246 11.7962 0.300203
975.883 11.8294 0.305669
857.609 10.1444 0.278617
883.876 10.4615 0.281528
841.94 11.2974 0.31713
1007.08 13.9885 0.407234
892.464 13.5721 0.404247
804.126 10.4071 0.31743
707.185 9.54079 0.30003
805.971 11.821 0.376277
809.325 12.3965 0.410037
726.312 12.2927 0.392155
665.682 13.3781 0.460883
793.589 13.6612 0.462298
806.018 14.1915 0.489532
728.181 13.5631 0.500226
637.202 11.0199 0.416147
654.22 10.5481 0.383803
695.839 12.0431 0.445894
698.727 13.9932 0.548321
612.943 13.2668 0.533011
725.954 17.1063 0.714749
646.196 12.9657 0.538662
549.847 10.7616 0.464476
574.989 12.4675 0.547727
590.454 13.8371 0.60956
533.325 11.963 0.561459
545.993 12.7819 0.607417
604.474 15.4341 0.710293
476.184 12.86 0.598942
551.479 13.2313 0.635815
546.728 12.8168 0.640861
514.245 14.3584 0.711033
476.255 13.35 0.696288
482.537 12.6075 0.688899
514.76 15.7515 0.863251
521.267 14.8124 0.812108
459.122 13.592 0.766215
509.267 14.6923 0.85964
495.33 15.3524 0.888313
425.944 14.0559 0.839538
413.253 14.0639 0.847574
435.477 16.3958 1.04142
442.416 14.9599 0.948993
436.66 14.2638 0.927691
490.923 18.1098 1.15284
459.264 16.4941 1.06094
455.739 16.026 1.05572
420.511 16.3052 1.08123
378.164 14.888 1.01514
343.403 15.2016 1.08472
420.499 16.2439 1.20452
355.306 13.6564 0.987583
405.353 15.2948 1.12455
396.4 16.556 1.21638
392.398 16.9183 1.254
376.271 17.3404 1.30558
343.288 16.5447 1.28017
311.213 12.6228 1.00511
399.593 18.2478 1.48909
337.662 16.8135 1.42293
361.988 17.4014 1.44435
321.204 14.3725 1.20024
319.63 15.9946 1.36744
316.902 16.8859 1.46825
332.705 17.4649 1.54834
324.727 16.5901 1.46665
298.187 15.5825 1.45782
310.029 15.488 1.44122
276.028 15.0853 1.34249
306.379 18.5752 1.7707
307.512 17.8662 1.70113
238.586 13.488 1.30733
289.475 18.6619 1.81093
290.538 16.8837 1.74391
287.214 16.5493 1.65965
271.093 16.1233 1.7033
313.132 17.988 1.86751
269.487 16.351 1.68964
300.388 20.0534 2.16478
272.619 18.2946 2.02952
281.954 18.66 2.0733
259.385 18.45 2.08653
264.042 19.066 2.11794
212.008 16.8288 1.94997
238.814 15.318 1.75777
208.383 15.5201 1.84686
263.49 17.2753 2.05347
239.774 18.4551 2.19681
255.376 19.0663 2.32983
215.578 15.9259 1.94054
241.709 17.9147 2.21051
249.207 22.7186 2.88089
231.127 18.4615 2.32645
237.487 17.7791 2.33243
222.893 19.2755 2.52196
245.274 19.2627 2.63356
229.659 20.8244 2.70977
213.927 16.7764 2.28078
224.634 19.3026 2.61758
194.761 18.5225 2.58632
244.171 21.0543 2.96257
224.833 19.9796 2.78712
224.553 19.149 2.76727
221.933 20.1515 2.89389
216.536 20.6255 3.02209
198.078 18.0795 2.65765
226.6 20.3072 3.16616
252.197 22.488 3.36227
199.097 19.313 2.97284
199.067 21.4435 3.41209
240.484 21.1399 3.27956
219.26 21.1612 3.39952
213.379 20.4947 3.18423
227.551 21.1029 3.54168
170.283 16.3378 2.64548
190.118 19.777 3.21187
208.248 22.8561 3.81321
172.879 19.084 3.17358
164.94 17.8958 3.12011
194.55 22.3582 3.79174
200.662 22.8446 3.98046
198.128 24.5706 4.22606
171.578 20.0338 3.61052
188.667 22.0258 4.0248
189.7 23.7742 4.19867
184.21 21.3454 3.95927
189.995 20.5912 3.90929
207.506 23.4983 4.28813
192.296 25.8027 4.88017
161.992 21.5598 4.03557
184.409 22.9713 4.39506
163.455 20.5226 3.97306
164.866 19.6983 3.86174
196.715 23.0834 4.50381
168.497 21.5657 4.34017
167.61 24.198 4.96812
182.946 22.7697 4.5251
167.247 22.2221 4.60167
160.726 22.7515 4.6402
154.962 20.0096 4.07241
159.69 23.6009 5.07689
164.646 23.4771 5.00849
168.902 26.2749 5.58597
145.938 23.441 5.11395
141.874 21.1008 4.74543
134.435 19.2641 4.29956
145.156 22.0388 4.90992
144.963 20.5168 4.65517
151.985 23.3153 5.17348
161.123 24.8432 5.78766
169.062 25.6988 5.77073
128.706 18.3529 4.45549
141.767 22.331 5.267
127.249 20.0882 4.74836
160.044 27.0477 6.57614
156.086 22.6954 5.39623
147.064 22.8026 5.58375
142.478 24.5563 5.96923
157.177 22.9213 5.52849
128.611 22.2217 5.43112
138.002 24.7567 6.35764
141.294 23.8291 5.88865
149.949 25.1264 6.54365
135.504 22.7454 5.70992
142.853 26.2441 6.79993
153.547 24.9162 6.53462
136.656 23.6662 6.38389
130.744 22.7479 6.05893
118.982 23.5392 6.24714
135.053 25.4851 6.68606
114.556 23.2131 6.35886
126.255 21.4143 5.93892
123.554 23.4392 6.54236
142.257 25.3071 6.95122
130.309 27.1482 8.02223
138.51 23.7887 6.74004
111.523 23.5699 6.67874
114.837 24.6778 6.98692
111.678 21.4626 6.40983
123.357 25.285 7.32677
134.817 28.6502 8.41036
113.847 24.3722 7.16652
117.133 22.4597 6.78686
119.896 27.0856 8.34229
126.481 25.8378 7.9239
115.789 23.9045 7.62782
114.565 22.9171 7.00944
134.395 25.6545 7.96226
119.494 25.7481 8.05862
117.444 23.0518 7.47218
103.787 24.0562 7.60813
126.18 26.3395 8.03111
114.839 23.3686 7.86888
114.436 23.9858 7.69499
119.519 27.406 8.924
105.788 24.0195 8.11951
115.613 26.9508 9.0835
105.084 23.3985 7.95178
113.387 26.1678 8.83121
113.405 26.6642 8.90327
118.033 28.6445 9.88601
106.908 24.3857 8.3181
112.459 27.7616 9.99449
107.972 24.5853 8.16826
94.9206 21.4608 7.91673
112.351 26.7832 9.23642
100.844 25.8877 9.29098
100.511 23.847 8.56353
99.9798 27.8311 9.92814
110.111 30.6689 11.2499
108.192 26.3853 9.92873
113.575 28.0509 10.1789
109.96 28.0686 10.6738
100.049 24.7987 9.21531
101.508 26.0432 9.88148
95.6783 24.324 9.29925
91.3092 24.1643 9.1384
94.1069 27.2932 10.4925
79.649 20.753 8.4294
98.4476 25.1846 9.73217
94.5794 27.8489 10.9751
96.7614 26.1576 10.1613
86.9903 24.1153 9.84776
81.0506 23.0437 9.37233
102.179 30.4665 11.7981
98.6407 26.2756 10.3469
81.6311 21.8704 9.00772
88.4925 24.9821 10.6586
83.1616 24.7465 10.1804
115.678 30.9664 12.6777
88.4236 25.7732 10.873
85.4719 25.8265 11.1285
76.2865 24.8727 10.7204
96.0411 25.2479 10.6216
81.5213 23.6161 10.268
93.6595 26.8556 11.5171
89.0866 24.5406 10.8461
88.2518 27.6923 11.7263
91.8416 27.8621 12.2498
78.5868 24.415 10.678
96.8903 29.9139 13.6247
89.6949 25.5172 11.2241
83.9385 26.7792 12.0792
82.3016 27.5869 12.4268
72.3603 23.2193 11.3654
77.5752 25.9824 11.4631
87.2446 26.0317 12.3719
91.6578 32.5174 14.8142
82.8812 26.0357 12.1455
69.1476 27.365 13.2029
79.2031 24.7609 11.7123
87.8129 26.1419 12.566
75.2655 24.8806 12.1748
78.9819 27.6769 13.3637
91.8845 29.842 14.2066
78.4406 24.179 12.094
75.9678 27.4965 13.3912
77.0361 24.9348 12.7223
75.7063 27.9629 13.8168
74.3992 23.5901 11.4342
68.2249 26.9075 13.7028
75.9551 25.8163 12.5637
70.4795 24.6653 12.6416
82.979 28.2896 14.5043
73.5516 30.2248 15.6004
79.6042 27.6239 14.6528
83.9705 29.6392 15.052
73.1519 24.5053 12.2818
78.4677 29.6005 16.0917
81.8881 32.1278 16.953
71.5529 25.7847 13.9231
79.5449 28.4149 15.0197
63.0094 24.16 13.5367
75.2979 30.0273 15.5492
65.0503 26.071 14.2784
80.6082 30.1417 16.3839
66.2159 24.0877 12.9368
84.8791 32.4438 18.2625
74.9023 27.9038 15.8583
54.6383 22.4901 12.6067
70.5126 28.1385 16.191
67.4079 26.7736 14.6323
75.3486 29.2234 16.8204
68.7134 28.0659 15.8666
66.4716 29.5531 17.0111
66.1304 26.1182 14.8871
62.4349 27.7671 16.682
71.6628 31.1257 17.5541
66.6454 25.5927 15.4807
68.2189 28.1274 16.4682
76.4322 31.5492 17.8951
58.7017 23.5438 14.5212
64.8514 29.7798 18.2156
67.5772 28.321 17.258
63.8592 25.2956 15.5241
57.9234 26.4124 15.7988
67.1023 25.6996 15.8884
67.6875 28.8829 17.9976
63.4964 26.7218 16.0574
61.4979 27.5336 17.2005
59.3429 25.9061 16.3116
59.7048 29.8716 19.1234
55.0281 25.2198 16.2685
60.0392 27.5715 17.326
61.6997 27.8916 16.9757
57.8619 31.0882 20.4216
63.5014 27.7962 17.4291
58.7028 27.239 18.4946
53.6425 24.781 15.8557
58.4971 27.3345 17.3449
58.9545 25.0762 16.2197
50.2734 22.8974 15.3389
55.7467 27.3338 17.6491
52.066 23.2221 16.1458
64.8627 28.1248 18.1052
52.2697 25.6189 17.0028
59.0539 31.4208 22.5441
56.6272 24.4788 17.1298
55.3223 26.9417 18.9194
64.7459 33.9685 23.0567
59.6435 28.1688 18.7268
54.3113 25.6787 17.2987
55.0389 26.2154 19.5558
58.3733 27.6119 18.017
55.4116 27.1233 18.9534
57.0645 26.3207 18.2264
50.9964 24.1132 17.8503
64.5326 32.3896 23.2268
60.7612 29.7362 20.9477
46.6798 24.9725 18.4551
58.0361 30.2429 20.8242
51.1476 25.7962 18.0028
47.1345 25.1648 18.9023
54.2893 26.6735 19.1047
53.0696 27.2554 19.9866
52.7292 27.2722 21.2335
50.5288 23.2908 18.0727
56.4417 30.1941 21.6649
50.8943 30.8213 23.8096
55.113 28.5924 21.6008
50.7801 22.6564 16.8881
54.3454 28.9882 22.48
55.0402 28.8694 20.3176
50.5555 26.1008 20.1282
53.7619 27.6068 19.8402
57.8143 29.6895 22.7286
50.6743 25.2948 19.5043
42.6987 24.5669 19.9252
50.0848 26.8524 21.1185
45.8969 21.3246 16.3062
48.1626 29.5243 22.7246
46.3824 25.8047 21.2715
46.3337 26.9823 21.1884
45.4445 22.6929 18.4171
43.7929 25.5549 20.7574
46.6432 25.9949 21.3965
50.3382 26.462 20.7363
50.0452 32.0117 25.6696
50.7454 26.8074 21.1695
44.9276 27.2937 23.1915
43.089 23.9636 20.6848
46.2001 28.7043 23.226
46.1727 26.3314 21.2467
47.7949 28.1643 23.9205
46.234 22.5223 18.4345
52.9172 26.6779 23.3588
45.5892 27.9948 22.8601
46.6363 25.8346 22.8445
46.7105 26.9554 23.0589
38.038 23.5132 20.9849
48.3515 26.0372 20.8899
43.8188 25.6946 22.3744
42.1766 29.5201 26.4026
48.7104 27.1038 22.88
47.8626 30.728 27.1196
40.9872 24.7967 21.1693
44.046 30.2313 27.1421
44.9375 26.1352 23.4687
53.2902 30.6611 26.94
39.8463 26.4343 23.9619
34.8769 20.3056 18.3001
39.7904 26.5631 24.1227
44.2494 29.3359 26.3729
46.2389 30.5963 27.5646
40.6154 25.1568 23.3309
45.2497 29.2152 26.2639
40.0341 26.2951 24.3544
45.3111 31.0831 28.2643
45.8547 28.5571 25.807
37.9869 22.8678 22.1947
43.6986 27.1286 26.4496
46.9024 27.4361 23.5527
40.5259 24.0921 24.0032
39.5924 28.1896 26.6244
36.6376 26.147 26.0005
46.0769 29.9793 26.8252
39.6837 28.9834 29.4294
43.3531 24.8208 22.5324
38.4827 28.0305 26.8521
33.8726 23.6586 23.2784
37.3109 29.6543 28.4658
39.8749 25.436 24.7602
42.1205 28.7705 27.494
36.3981 25.8709 25.275
38.1105 26.7092 25.4153
39.0794 26.0616 25.8965
41.3439 28.1322 26.9377
37.9881 27.8501 29.255
39.8215 28.648 28.5482
41.9623 29.1084 30.2581
40.2634 29.1224 28.1463
42.4392 26.2942 26.3039
39.2195 28.0474 28.5689
37.8871 27.1742 27.5395
33.2036 23.745 26.3282
43.4873 30.9203 30.4773
38.018 27.9397 28.8902
36.2565 27.4401 28.8615
39.8552 31.1941 31.5828
35.7452 26.3785 28.0626
33.8292 27.161 29.4798
40.9874 29.5012 29.509
38.738 29.5869 31.6557
36.2546 23.8284 26.1632
36.7748 28.3388 30.6483
34.6827 23.244 25.037
32.7033 22.4389 24.8892
35.0076 27.552 27.4102
33.4565 26.4114 27.154
34.8891 26.2357 29.2878
26.9703 22.1515 24.4234
32.0184 23.5049 27.0905
32.944 24.2063 25.6913
37.458 26.5348 26.9607
36.8439 27.3261 29.1468
35.5578 26.1511 29.589
34.7147 27.8586 31.1256
34.3819 25.8743 28.7927
33.6531 25.2758 28.1133
31.2196 25.7623 28.8705
36.0223 27.0847 31.3197
32.2813 25.4838 27.4342
32.5553 26.4089 29.3999
28.413 23.9942 28.7693
33.1002 29.6022 35.7308
36.3507 27.8541 30.735
35.9495 28.2769 32.0833
30.8845 25.7506 29.4107
36.4998 28.217 32.3447
35.1135 27.6044 31.8148
33.5875 28.9096 32.0891
28.7468 25.5716 32.0065
30.6939 24.8901 27.0395
27.9593 22.3175 28.281
33.2168 29.2584 34.0517
30.0196 24.6132 29.3165
32.8331 28.4343 34.8987
34.1815 28.1998 32.9842
31.2575 25.2666 29.807
33.4082 30.5163 37.3972
33.2445 27.3626 32.4834
32.1796 24.7517 29.59
29.9654 24.6987 29.0266
28.9883 29.1498 38.2702
29.6749 28.7995 35.2631
31.8401 26.8511 31.117
29.0654 25.4327 33.9489
37.1718 30.0346 35.4773
30.5097 27.6139 32.7233
32.3131 29.7943 36.69
29.8919 24.9054 31.793
28.0974 22.6281 27.0714
28.0971 27.8176 35.5397
29.2409 26.9154 32.612
27.3194 25.153 32.802
29.2112 24.6273 30.178
28.2008 26.0542 34.2127
28.942 26.1128 31.3317
29.3905 27.4625 35.0416
28.3536 26.609 32.7491
27.5934 23.0913 29.3415
25.1284 24.9911 33.1039
30.1711 29.8854 38.1107
30.281 25.5584 33.1696
32.3822 28.1304 36.9157
29.141 24.8859 33.2225
29.4183 27.0785 35.9524
27.6454 24.8393 33.5536
27.9496 27.2435 35.3188
28.9412 24.6554 32.5222
27.4347 26.3826 32.803
24.818 23.2507 29.1087
23.7735 25.1919 35.55
25.7356 21.6787 29.3731
29.872 27.8424 37.5951
25.5726 27.3102 37.7276
29.1896 27.7543 37.3051
26.2423 22.355 31.7412
30.2838 26.4751 33.6797
25.0507 22.5018 31.8543
30.4059 28.9819 37.1111
24.0024 22.422 34.2232
29.2705 23.962 30.2852
28.944 27.2577 37.1257
24.1559 26.2019 36.6703
27.148 29.9275 41.0094
23.5131 24.1578 33.2021
26.7732 30.1995 41.7107
24.7321 24.606 35.338
28.1734 26.2223 36.0866
26.095 26.9539 41.1239
29.0955 29.717 41.0716
28.1261 26.2946 36.4062
26.6337 27.968 38.8991
26.1554 26.1777 37.3613
24.2492 26.7768 38.5568
26.9129 24.9123 34.9781
25.8153 26.9497 40.0801
28.5436 25.4984 34.6384
24.9008 25.3701 38.7717
26.1642 26.6103 39.5841
27.3364 26.1438 38.2646
24.8913 23.3144 32.6309
25.6593 26.2013 38.635
21.5137 24.9742 37.9711
23.9919 19.9542 29.6569
22.9757 20.8249 30.7189
24.6596 26.0625 42.1378
28.2357 27.1779 39.1552
26.5152 23.7419 35.605
23.5076 26.03 40.2333
29.8859 25.3916 35.9832
26.7557 26.5447 37.732
24.4091 24.7652 35.9726
23.6243 26.1574 41.7472
25.6589 26.2898 37.0479
24.0024 27.0862 42.7182
26.2649 25.5079 41.1369
27.501 27.2958 39.804
23.9648 23.2562 34.0886
25.4822 27.7583 41.7047
23.0418 24.4168 35.5647
24.5634 27.5875 43.6181
24.4041 25.9567 40.2632
23.9482 25.0129 40.0881
23.0672 27.4341 44.0159
23.3281 23.9963 37.8142
23.6084 24.1598 36.2939
23.5338 24.1003 38.8917
25.5961 24.6376 37.0801
24.8252 25.1024 40.8785
27.1799 30.248 46.9457
23.4425 21.873 34.8846
22.8933 24.7157 37.579
20.6387 24.007 39.5656
22.5549 25.894 41.329
23.9677 27.5905 43.2751
24.1395 26.6651 42.7343
21.1005 23.3175 38.6457
24.5847 26.5893 42.722
22.1391 24.4016 40.4477
22.2929 22.9855 38.0337
24.3565 26.0357 42.0283
21.1509 25.6757 39.3313
19.6208 23.6375 40.8616
21.2769 23.9157 39.784
21.3401 25.3982 39.9248
19.4955 21.8248 36.8734
22.0729 25.1234 40.0068
19.4044 21.9567 41.0085
23.5631 26.3757 40.1592
19.9349 23.1338 38.0381
18.5612 22.2773 40.8349
22.3802 24.3748 38.3804
23.4634 26.2895 42.8997
23.5038 26.3217 42.6894
20.7262 22.3583 36.9302
20.2504 20.3262 34.7273
20.7947 26.6723 41.1872
17.916 21.026 36.7843
20.3118 24.295 41.8039
22.1102 22.5617 39.2548
21.5222 23.535 37.951
19.246 25.9598 44.7938
20.5712 23.1243 40.7353
18.2019 24.9532 43.7849
22.1344 21.9047 37.9328
19.8909 26.8089 50.5646
21.7893 25.5141 47.9293
25.2301 26.3453 41.6987
21.7493 23.5603 42.2151
21.8164 23.8846 40.1469
22.2059 21.5346 37.0197
19.021 25.7697 44.7949
20.1557 19.4151 36.747
21.491 24.751 41.4048
20.306 23.1019 41.1039
20.226 19.7647 39.2176
23.267 26.0656 40.5062
17.9742 22.2323 39.6562
20.647 24.7911 42.784
17.6109 21.6368 42.5959
19.7794 25.5738 45.889
20.9277 22.2655 41.8787
20.6604 26.717 44.3315
18.1874 23.5277 47.0242
18.5599 22.24 40.1228
19.3092 27.4132 49.5457
18.2349 22.0819 44.8365
21.4179 22.2411 42.4944
19.5285 21.6408 37.4247
18.3283 25.7277 45.9603
17.6974 21.1932 39.4776
20.5057 24.9661 44.8781
19.2754 23.9278 45.2899
19.7886 23.2444 43.3446
19.3883 22.1243 39.6583
15.9789 20.6023 40.926
20.0005 25.8744 47.0932
18.4285 21.9969 42.186
18.3893 24.3756 43.4843
20.4054 23.6254 43.1258
18.4844 24.1061 46.6391
18.9391 24.6195 43.4175
16.5567 20.4183 39.5366
17.938 23.8952 48.4208
18.6668 24.9325 49.0712
18.6062 21.1449 40.747
17.9615 25.2879 45.062
17.5746 23.543 46.3782
17.6973 22.9721 46.0998
18.8791 24.2956 45.6087
15.3897 21.2136 41.6619
19.4627 26.7142 50.5062
17.2682 21.171 42.4572
18.6246 25.4176 48.2399
20.3272 26.1023 50.9732
16.4557 20.8972 43.2394
17.5373 24.5874 45.6419
17.6098 21.2445 41.3464
17.6272 25.8872 49.632
18.2007 25.634 52.1204
18.4882 27.9246 53.7196
18.6306 27.0953 50.2228
17.1086 23.6438 51.4977
19.7609 24.2049 45.2965
16.4417 23.4111 46.8656
19.1994 25.1052 55.8019
18.2831 27.4659 53.4889
16.5681 22.2778 43.2801
18.692 23.8118 46.9949
18.0232 23.4669 46.8801
16.1981 22.9357 46.1069
14.5775 19.4005 41.2341
17.7476 24.4663 47.05
16.6036 22.4721 47.6006
16.4847 21.4067 44.2819
16.9934 21.7562 45.3936
16.6831 23.0336 48.2449
17.3764 23.5322 48.0879
20.3063 27.7542 58.332
18.5356 23.7479 47.9747
14.6708 19.7309 42.5055
17.681 26.7455 49.6848
17.4736 22.6545 48.7686
15.7821 22.0639 45.4647
16.3854 21.4522 41.5559
14.6336 21.8595 47.2288
15.4704 19.2833 40.8125
16.4663 22.8224 49.242
17.1195 22.6732 45.6653
18.399 25.6481 51.7225
16.1228 22.4985 45.9282
16.8458 21.5201 43.99
14.5296 21.3059 47.9263
16.9143 21.7435 43.2072
15.1807 21.4906 48.0547
17.5521 20.6672 43.4083
16.2206 23.2621 49.0152
14.7876 23.0111 49.1548
18.2288 24.4897 51.6716
14.8925 20.3227 46.7264
15.6126 21.8111 45.3601
14.28 20.0537 46.761
16.2756 22.4965 45.786
13.3046 18.6649 44.0908
15.1166 21.2629 44.5858
15.058 20.7026 46.0046
14.9208 21.4129 50.5834
16.8495 23.7662 51.1637
16.1437 21.2181 41.8624
14.1171 18.5975 43.6296
14.4465 18.6363 40.4509
15.6176 24.6504 53.4351
16.833 21.8066 46.7091
15.0021 19.02 41.1858
14.9493 20.1019 44.7638
16.2528 22.0333 48.5884
15.6141 24.8865 53.5354
16.3408 21.8018 44.8952
13.4743 20.6898 49.2951
15.3045 20.3427 42.7155
15.49 23.1203 52.7358
13.9907 20.4799 46.6827
16.6631 23.7514 51.7814
13.2892 20.9752 47.8827
14.0363 19.9094 43.0811
14.0328 20.5909 49.4907
14.7098 23.0158 56.3391
16.4856 23.3442 52.0703
15.1079 22.3401 47.8133
13.7039 20.8996 50.2209
15.4696 25.182 57.2399
14.5788 22.2383 52.1823
13.9598 21.6953 47.8048
14.88 22.6344 49.5468
13.0948 21.398 48.7296
14.9022 21.371 48.8113
13.8305 20.941 53.2284
15.3933 22.9799 46.5155
14.0277 25.7251 63.9319
17.124 24.1782 50.8257
14.2541 21.9129 55.1706
14.3825 20.2883 41.8649
12.0623 23.6293 60.7598
11.9896 20.2311 49.2363
14.3087 22.6613 53.5198
13.5781 20.8174 48.3227
13.6506 20.2815 49.3843
12.9439 21.6345 48.2316
15.4874 21.0694 46.8621
13.918 22.6795 54.8351
13.3114 24.6237 57.9759
14.1462 19.4358 49.6567
14.2363 21.8071 51.4171
14.6332 22.0452 53.6913
13.9021 20.7562 52.0524
14.8178 22.8034 52.8364
12.9012 21.5238 53.6793
15.0148 22.8071 47.1175
12.1934 23.0798 55.9045
12.8997 20.7487 48.996
12.7458 22.4288 51.7499
13.3961 21.2277 51.7816
13.4429 19.7296 52.0947
14.1678 21.4105 50.4575
13.4955 22.7912 57.7763
13.4926 19.9676 47.231
13.415 20.766 48.5413
13.1142 21.5805 54.2606
15.2744 23.2863 53.41
11.6277 18.6816 54.059
14.8064 19.8603 44.8818
13.9516 20.4258 48.0277
12.6849 22.9441 54.9025
13.0351 21.3774 53.8363
14.2923 21.69 50.1681
13.9754 20.9499 47.4926
