# pn-170911/RbIIR-41-TWTF-1280-1959.psd
# Power spectrum* (dif=0,1,2) (really just |FT|^2)
# NOTE: only the first half! (symmetric)
# weeks: 1280-1959
# 10 clock-days, 0 excluded
# PSD: 1441
461.642 0.0306651 0.011152
7506.64 0.10461 0.00769578
61802.2 1.29094 0.00769457
11579.2 0.51204 0.00790726
19536.7 1.5498 0.00855159
5096.34 0.521001 0.00739321
2780.99 0.637696 0.00838575
2288.68 0.437499 0.00813436
1890.71 0.694168 0.00895482
1014.61 0.400667 0.00696246
992.402 0.342664 0.00741038
846.871 0.361705 0.00864708
1158.48 0.627049 0.00732183
975.628 0.670529 0.00901902
389.856 0.484236 0.00761395
1054.56 0.969931 0.00750708
697.936 0.786744 0.00925413
528.972 0.637036 0.00965109
743.997 1.07897 0.0134388
781.08 1.28454 0.00484639
491.246 0.98455 0.00891953
342.941 0.707691 0.0104322
524.109 1.23766 0.0126514
462.247 1.09164 0.0109703
357.986 0.866488 0.0105781
434.554 1.0746 0.00973927
639.708 2.13537 0.00814339
267.288 0.963444 0.00879169
461.785 1.82295 0.020206
249.625 1.09062 0.0127567
407.536 1.51898 0.0192548
219.677 0.802135 0.0106895
259.05 1.25955 0.0116973
268.236 1.39251 0.0152617
288.229 1.67973 0.0153746
223.092 1.25688 0.0110764
149.1 1.08713 0.0144031
382.41 2.51361 0.0326675
374.652 2.49374 0.0244413
295.854 2.09442 0.0230001
293.64 2.20201 0.0236803
386.938 2.8369 0.0311879
227.507 1.92088 0.0194891
211.482 1.85274 0.0267608
325.753 2.86556 0.0304701
156.751 1.56419 0.0306204
252.628 2.22965 0.0304789
202.011 1.83301 0.0286143
200.767 2.18396 0.0373255
238.025 2.96497 0.0396648
204.601 2.60656 0.0379972
144.421 1.72035 0.0301353
202.779 2.57253 0.049548
239.282 2.90709 0.0441978
162.749 2.19381 0.053842
96.9532 1.37479 0.0215611
303.664 4.72099 0.0697182
114.94 1.59611 0.0330134
267.052 4.17244 0.0737169
162.994 2.49095 0.0688976
158.014 2.74332 0.0721295
180.742 2.9916 0.0584333
117.528 2.25799 0.0280844
288.782 5.88743 0.102492
224.305 3.94402 0.0934016
240.302 4.77525 0.0930826
142.638 2.72323 0.0722064
151.421 3.48032 0.0804275
196.388 4.46036 0.110789
250.45 5.57765 0.107528
187.91 4.49441 0.116115
186.453 4.64971 0.112501
150.204 3.45462 0.0986086
215.601 6.0676 0.152418
141.959 3.22761 0.0954451
156.802 3.95386 0.11967
248.933 7.35169 0.193709
36.2618 1.26263 0.0389428
203.842 5.65694 0.194009
275.222 7.67864 0.258763
251.458 7.43812 0.233866
211.731 6.71089 0.193207
93.22 3.33964 0.104204
136.99 5.03554 0.155072
208.027 6.70757 0.230433
194.43 6.25489 0.191368
144.775 4.83278 0.176753
226.549 8.53344 0.314474
134.313 4.57463 0.142268
121.824 4.61316 0.162346
233.671 8.98496 0.368087
152.227 5.4707 0.21677
165.08 6.72234 0.296636
263.711 10.865 0.491009
183.498 7.6691 0.349786
112.096 4.59958 0.213083
256.217 10.5285 0.471357
226.491 10.274 0.441252
144.792 6.31495 0.296737
174.973 7.82712 0.403251
166.137 7.84243 0.398563
134.717 7.05058 0.359532
161.962 7.63243 0.409098
195.36 8.89857 0.405674
156.794 7.8236 0.440663
119.675 6.40095 0.301787
99.5048 5.38093 0.323529
81.5671 4.79853 0.282066
111.361 5.7513 0.305699
132.662 6.94303 0.40828
106.37 6.68016 0.35847
178.372 9.87474 0.602439
130.222 8.3538 0.445773
102.821 6.41022 0.418671
94.529 5.97645 0.372178
127.022 8.22323 0.598883
201.564 12.9876 0.837686
143.48 9.30801 0.637419
93.2881 5.38097 0.303394
142.553 9.4787 0.670149
93.6034 6.56741 0.484677
183.958 12.4436 0.819627
103.168 7.25626 0.561638
231.064 17.1937 1.2776
93.6342 6.94652 0.573735
100.183 7.9497 0.585729
90.5517 6.6988 0.497258
199.117 15.0639 1.18737
145.11 13.0587 1.08789
128.624 10.1849 0.801581
116.123 8.18327 0.631059
89.4202 7.46898 0.605061
132.05 11.1699 0.903759
105.895 8.86299 0.729559
72.7711 6.30326 0.497692
75.7633 6.5496 0.628291
117.762 10.477 0.917946
60.949 5.77356 0.618433
96.5352 8.13755 0.717618
110.872 10.4711 0.911553
76.9745 7.50017 0.676646
112.178 10.867 1.01854
139.244 12.4964 1.15431
113.531 10.6849 0.963484
151.41 14.5921 1.33358
63.1811 7.19711 0.774121
94.8324 8.95368 0.821772
112.932 12.1129 1.26164
152.11 15.3496 1.56263
110.073 12.4538 1.25817
125.778 13.5398 1.44045
179.955 19.8987 2.04764
62.1961 6.52501 0.730477
119.5 12.5729 1.33192
162.658 17.3194 1.95398
64.881 7.03067 0.852191
55.0217 6.47612 0.72686
89.6786 10.5564 1.23838
108.567 12.5369 1.52274
126.915 15.7938 2.03646
72.0048 8.27532 1.06321
64.7926 8.09729 0.956724
142.96 16.1032 1.90822
63.9998 7.86923 1.03922
47.0587 5.71046 0.717671
96.5653 11.962 1.54806
64.5952 8.92487 1.28787
159.612 19.6517 2.49031
68.41 9.07976 1.31713
119.633 15.7236 2.13115
49.0525 6.46464 0.917974
70.0528 8.5901 1.17596
111.026 15.1429 2.2115
82.1328 11.925 1.91066
80.4467 11.7174 1.80179
165.365 23.8017 3.4303
97.4275 15.5315 2.66897
92.4337 13.2743 1.8618
126.513 17.398 2.53951
72.8603 12.3662 1.99104
129.157 18.709 2.99426
86.3972 13.3797 2.09589
102.75 15.4102 2.53658
98.6343 14.8271 2.20637
96.6976 15.7962 2.37613
133.003 22.4019 3.61707
44.5561 7.25942 1.20026
86.1089 15.1864 2.75797
65.8375 9.8632 1.51771
65.6561 11.154 1.76806
63.1337 9.83933 1.4699
97.8354 17.2682 2.99444
155.342 27.2311 4.72114
79.9139 13.2659 2.27725
102.912 17.5103 3.07739
76.3645 14.3632 2.78145
119.897 19.6165 3.38592
134.223 24.4142 4.44045
107.442 19.9977 3.82575
84.4412 16.2537 3.08501
115.615 23.109 4.98064
84.8121 15.3152 2.9104
79.6794 15.4917 3.04376
54.3338 10.107 1.90501
33.3022 7.30492 1.41472
69.3496 12.803 2.41809
83.6962 16.4004 3.2117
55.4516 11.6703 2.57627
92.997 20.0421 4.48454
57.2096 11.1366 2.35662
86.4835 16.2056 2.97533
73.9278 15.9426 3.31941
27.3813 7.50861 1.95323
97.0022 19.2307 3.89586
107.866 21.6931 4.03661
71.1488 16.2371 3.73172
65.1081 13.4759 2.88389
89.0966 19.0085 3.92603
68.9096 15.6644 3.21181
68.0029 15.183 3.33937
62.7713 14.5059 3.34277
48.8647 10.3664 2.12816
73.3926 19.4588 5.00738
80.6029 18.9297 4.61426
66.5307 13.5138 2.67462
71.0808 16.8632 4.03527
94.1288 22.5134 5.15137
35.734 8.62 2.1111
39.8936 10.4687 2.46709
64.4643 17.3866 4.51476
49.4431 11.743 2.72022
55.48 14.6819 3.65508
68.4321 16.4176 3.87646
34.7602 9.10102 2.64882
52.0289 12.4013 2.84886
45.7199 12.6711 3.67197
63.0626 14.9315 3.36096
42.3039 11.3413 2.84853
64.5138 16.7331 4.17045
43.5174 12.2325 3.59229
113.184 28.3653 6.77496
20.9391 5.82659 1.66476
62.2154 18.4368 5.07656
44.6735 13.4479 4.26001
33.2931 8.88477 2.15028
55.0031 16.063 4.64032
33.0433 10.2062 3.07666
40.9975 11.1421 3.1349
67.8895 19.6972 5.63424
65.9723 19.8428 5.49617
42.9736 12.5775 3.97979
43.5031 11.8993 3.2257
53.5756 14.5068 3.97305
54.6775 15.6596 4.2094
58.1411 17.5545 4.86118
96.1835 33.2893 11.0612
51.1263 13.9578 4.23116
56.8366 18.4574 6.10475
50.9369 12.615 3.40897
48.0458 14.4524 4.28081
52.9929 17.7581 6.16774
37.2715 12.021 4.13211
38.7498 14.3728 5.34411
57.8019 18.2209 5.58282
63.7526 17.9144 4.94476
60.8291 22.2704 7.83352
55.0395 17.0147 6.09386
50.225 13.8242 3.62029
132.798 44.9975 13.942
34.0036 13.4966 5.06029
49.9072 15.2852 4.47461
70.8491 25.1219 8.38777
57.0844 21.3339 7.81915
70.4831 23.7628 7.58378
22.5226 7.81518 2.76578
26.801 10.6144 3.85012
49.3169 21.0755 8.56358
70.0712 24.6138 8.4465
67.3347 24.6222 9.05615
73.7752 26.5885 9.67692
65.9681 20.5758 6.45271
36.8652 13.8429 5.5605
67.3173 24.6009 8.31462
19.3569 9.59289 4.42808
44.9342 15.1872 5.06013
56.3913 22.6204 8.06305
26.6542 10.1707 3.89092
25.3864 10.031 3.93943
45.9201 18.6034 7.19539
42.8192 17.6554 6.7713
46.7027 18.3284 7.2589
40.5633 16.8166 6.67299
36.6472 17.1502 7.95221
64.9266 24.7329 9.48969
33.3472 13.3181 5.59836
20.8736 8.06253 3.65871
66.4394 28.0468 11.455
69.8771 27.7926 10.6417
34.9841 15.6234 7.23471
31.1328 10.1113 3.54487
38.5418 16.3755 6.8669
51.4207 22.787 10.2212
41.0757 17.6236 8.09273
35.7901 10.5787 3.43628
41.7357 17.1129 7.16526
39.066 16.1465 6.46034
48.657 18.5133 6.80282
47.2167 22.1668 9.82356
26.7139 12.447 6.01703
30.6066 13.8056 6.72175
40.961 17.5896 7.46668
37.7497 18.7553 8.74278
35.735 13.6084 5.65736
41.206 17.8022 7.12071
31.2494 17.4667 9.65218
34.9534 15.7987 7.98047
38.3978 14.7829 5.41878
38.703 18.6288 9.20978
51.3945 22.9484 10.7455
43.4492 20.0262 9.38391
40.0557 17.1264 7.15416
31.7848 14.6736 6.39259
25.1465 13.6498 7.32162
45.1093 20.2796 9.04532
27.4707 15.2214 8.39544
31.303 17.937 10.8205
52.489 24.5972 12.0505
32.5511 11.8446 4.91725
31.9967 14.4062 6.7713
33.727 15.8128 7.1528
39.0506 19.9827 10.2285
38.3252 17.6094 7.84448
32.0079 16.4451 8.31992
44.259 24.1265 12.2074
39.71 18.441 8.97063
39.318 21.3587 11.4058
39.7057 18.4476 8.80884
56.3684 26.9361 12.4931
32.7914 17.2409 8.45909
32.4276 18.6435 10.7398
11.9351 7.77884 5.38628
30.5575 15.5137 8.37714
21.1184 10.3094 6.01074
41.0782 20.6152 10.653
31.5838 15.3854 7.52096
24.3562 10.9426 4.85949
23.5371 13.9441 7.53979
27.2927 16.7631 10.6816
34.3535 18.8878 11.1564
39.3061 20.9784 11.6053
37.2091 18.9068 9.80811
41.4468 23.0634 12.1708
40.6839 22.1049 11.6348
22.981 15.6878 9.87519
43.7087 24.7773 13.4994
24.0821 16.8644 11.8028
36.7557 16.79 8.18186
17.4646 9.91751 6.17921
32.9393 21.3853 12.8625
26.8511 12.0066 5.49774
44.8568 27.3859 15.1435
28.0838 19.8328 13.2762
26.7555 16.5381 11.5075
52.9629 29.383 17.0894
38.7705 20.4748 10.3742
38.4926 23.2682 13.6551
42.5447 25.1558 13.8378
20.5109 14.1366 9.21821
32.8202 21.4164 13.0844
48.2792 33.0447 20.9775
19.8902 11.9146 8.90824
30.4225 18.5974 12.5009
33.6613 14.96 6.64445
27.4424 17.0809 10.7619
27.9581 19.6272 14.3605
56.9617 30.9276 15.15
19.6312 14.8515 10.8423
16.0417 9.0619 5.74649
16.0252 11.0744 7.56216
13.2858 10.7347 8.68034
39.4334 24.9043 14.926
27.7011 21.4408 16.2047
26.964 14.3146 8.47758
22.9826 15.3848 10.1066
30.856 23.492 17.757
29.6704 16.4972 9.3725
50.9297 33.6095 20.1456
14.3278 11.2492 8.51987
24.0706 17.3557 13.3269
23.6904 14.7063 9.65009
25.9336 16.7606 10.8317
22.6384 16.8833 11.856
28.3084 21.1355 15.1882
33.3107 26.0495 20.6759
33.6009 18.4877 10.8616
12.5288 6.72725 4.73692
42.163 26.903 15.9503
28.5572 21.713 15.2871
33.34 27.5511 21.7175
43.1084 29.0081 19.2246
17.6597 12.709 9.33782
21.0452 18.3155 16.0481
32.7773 22.0058 13.6747
14.6426 12.4657 10.8249
32.3193 23.6219 17.6275
27.0432 17.5565 11.5936
32.1249 27.4977 21.9005
38.1502 25.3526 17.3287
13.7001 9.64358 7.48272
28.6334 22.6615 17.4845
25.63 19.1387 15.2181
25.5127 18.5233 14.2664
27.5432 20.3218 14.2256
23.4732 18.6391 13.9917
18.707 13.5471 11.5164
19.9096 14.3073 9.7147
23.6833 18.1476 13.0196
25.7085 23.5153 21.314
26.1017 17.1857 12.4501
19.3306 13.8398 9.87307
31.3536 28.7664 23.1859
13.1946 8.14154 6.37454
12.2084 9.20835 8.56338
16.6793 11.5184 8.85174
39.0263 30.1929 21.0709
19.5567 18.8457 16.6853
26.5756 18.1406 13.0301
24.2973 21.6991 18.5334
21.9419 15.303 11.6163
19.1864 14.4459 10.7394
16.1583 14.2078 11.6882
17.903 11.9142 8.17209
18.4061 19.3112 18.4457
20.4031 15.7673 12.7599
10.7995 9.47223 9.42333
13.4302 11.0379 9.20035
14.5383 13.3983 13.871
18.4921 12.7019 9.86924
30.3498 22.2119 13.5575
17.1757 19.5717 18.4959
15.5919 11.847 10.606
21.4276 20.3579 17.8014
19.2369 16.69 14.4384
14.7623 12.8865 13.7983
23.7579 18.5151 14.6785
19.1999 18.679 18.381
23.0453 17.2348 12.8033
19.6274 17.5278 15.7571
33.5888 30.5698 26.9415
33.1579 28.7308 22.6045
15.3858 13.9081 13.7676
25.2217 26.7311 28.4545
29.4205 20.4941 16.1515
23.2602 19.1093 15.528
19.2739 18.9635 18.6613
30.3854 24.7558 20.1302
24.3213 21.142 17.731
10.0802 10.1288 11.2978
34.9523 34.9553 35.5236
30.4604 21.5612 14.9636
12.6852 14.1113 15.1011
23.931 18.29 14.483
19.2752 18.5059 16.4007
24.2522 21.9001 16.738
13.7884 14.4339 14.7824
22.9841 24.7901 25.2784
19.2039 15.1308 13.9573
29.626 26.3139 21.3728
20.4526 20.6024 20.8473
27.3469 23.3526 20.3058
27.7174 23.1079 16.0552
15.7346 16.7064 13.2512
14.2643 17.6627 19.0008
19.7212 19.7466 17.2743
19.1082 25.5603 27.7605
19.1936 17.2955 16.9325
15.9143 17.6965 18.6868
20.9617 23.4844 26.0862
19.481 16.5845 14.0777
12.8309 12.7057 12.2231
11.8319 14.3505 15.1393
9.14951 9.89295 12.2332
13.5769 11.6852 11.2334
12.4118 11.6383 11.0524
10.7647 13.7376 17.0573
22.3676 21.053 22.3532
29.9503 28.6913 23.3524
11.1567 14.2697 18.6743
21.6867 21.333 21.1725
20.0224 21.795 22.039
14.2072 15.3962 18.0031
15.5492 13.5291 11.6955
11.8678 11.3198 9.88679
5.8268 6.66548 8.52782
20.8428 20.3274 17.8433
19.6815 22.5954 20.9613
12.4086 19.7558 28.843
30.7296 30.3851 29.9387
12.6759 15.2311 19.9912
16.6832 18.3483 20.651
19.7972 20.3956 21.1447
16.4526 16.4496 15.8892
31.404 40.702 43.7584
16.942 18.4703 24.0467
16.3332 15.5746 18.2443
21.0978 17.7252 13.7946
7.53106 8.90182 9.42558
9.45471 11.891 14.9085
21.6157 27.8184 33.5672
27.5424 28.8338 28.6955
16.8809 18.1794 19.5052
11.1516 17.3036 24.7947
18.4575 16.8772 15.6051
7.63065 8.67159 12.6983
13.1242 12.2551 12.0757
16.8405 20.0019 22.0224
19.5032 25.2062 28.3254
19.9137 25.9928 33.014
14.7632 19.1572 30.2667
24.4744 21.8713 21.1952
17.6323 20.1817 23.4439
22.4918 23.6069 24.67
21.6293 25.1243 27.8848
12.7508 12.984 13.9887
10.8247 10.9239 10.6513
11.6918 15.0889 18.5588
15.7046 19.7516 23.5413
13.2331 17.3691 25.3553
20.2815 22.2165 27.4735
22.6309 22.8573 19.7762
7.49136 9.27756 10.9607
14.8419 20.063 24.4713
12.3933 17.53 24.2498
12.8625 12.9068 18.0256
34.2554 38.0121 35.5025
15.0988 24.288 33.9305
20.9151 24.6473 29.0116
15.2581 19.9165 24.2213
10.8658 13.7959 20.9147
22.3236 25.394 27.0769
17.1237 25.128 31.5343
8.71625 15.2293 26.5782
13.1595 14.5085 22.3891
18.5732 17.1629 19.13
18.7397 19.2784 15.665
11.2456 16.6333 19.9654
6.80927 11.3391 19.4156
14.261 17.1144 18.7381
8.11244 14.464 27.0831
20.2861 22.918 29.1167
20.4033 24.2338 30.8151
24.7776 32.0004 38.2417
20.052 23.7859 26.8642
12.6829 17.6051 25.3004
12.0588 15.3993 23.3177
23.0795 28.0837 28.1274
6.61126 11.2306 20.9376
18.0407 19.3001 18.9317
11.7536 20.9454 31.2792
11.4529 13.6328 18.1111
13.7493 18.4586 26.5839
7.57854 6.49805 8.47958
10.6119 14.3941 18.038
13.5604 19.4279 27.1012
15.5283 20.9903 28.2585
9.8231 10.1725 14.4956
14.717 18.333 18.7472
9.47156 14.047 16.7929
8.57998 14.812 23.4825
9.73676 13.4585 20.3874
10.4622 12.3788 19.1087
13.3768 17.9125 23.2504
11.6053 14.0611 18.0828
20.456 33.9637 46.8633
12.8745 16.3638 28.7952
21.5309 22.9144 23.3488
9.63151 13.056 19.148
8.82947 12.7111 21.3318
17.4897 20.4912 24.009
15.217 21.8731 25.2204
9.16208 13.8546 20.156
11.3957 19.8141 29.5191
12.1155 16.9405 21.7661
8.08202 13.7679 22.414
7.7771 9.00118 14.6037
13.7368 18.9085 24.66
8.58668 10.5674 16.0594
13.5798 20.1357 28.316
10.5194 17.2198 30.3359
20.3414 26.2662 32.2552
12.0087 16.922 23.7333
7.69896 11.9884 20.1473
12.5769 15.3494 18.2558
9.83757 15.4681 24.5804
15.9583 21.1533 24.436
5.56795 8.10459 11.079
6.03388 12.7416 22.8077
10.3088 14.1186 21.3445
11.0192 15.7248 20.3644
9.71858 13.6819 20.8976
10.4019 15.3888 20.7185
4.58305 9.83929 22.0605
19.9686 31.595 44.3796
14.3364 22.9312 37.9324
12.1112 13.9363 20.6154
16.3155 25.6436 34.955
9.46656 14.6486 26.7949
11.6113 16.0952 26.7043
14.2877 20.8753 28.5154
9.15405 14.777 25.0222
16.1725 24.0611 34.2368
11.4854 15.4146 21.4897
13.2093 20.0564 25.2655
5.55022 12.0127 24.4467
8.66896 14.2187 22.1996
6.1846 11.0993 25.4694
17.1685 23.6051 33.2782
13.9501 22.5577 37.037
8.85922 8.71087 11.921
10.6576 17.3053 27.6082
13.8544 20.6723 25.061
9.36032 18.9811 35.6126
14.3315 19.93 28.4845
10.3164 12.608 12.2658
9.54918 19.9628 31.0896
5.29251 8.52825 18.0902
10.0391 14.8318 17.6317
4.27662 10.2208 22.0013
9.36056 15.3259 28.8783
10.1299 14.4946 23.3947
11.8995 18.9191 32.287
17.7491 27.1232 36.592
8.74998 14.6319 20.9631
5.22748 9.76033 18.3419
5.70403 9.28459 19.3998
10.566 16.3375 25.6854
10.7709 20.7241 38.3095
14.7336 21.6906 32.8903
7.12186 8.92066 16.1802
12.0715 21.4782 33.3473
12.0667 20.4862 32.4273
9.45535 16.2054 27.678
13.9299 21.7106 29.5045
9.88506 19.5982 34.5263
9.51851 15.4645 28.1194
9.97511 17.4507 30.5935
8.39707 14.7036 30.5033
19.5318 35.7709 55.8244
7.84787 11.3849 25.8833
9.3905 13.8382 26.0469
10.6801 18.5173 34.9465
13.3242 19.7614 30.5344
9.28136 11.9179 21.3946
10.18 12.3637 14.7598
12.17 21.6564 29.3075
12.3308 27.4702 49.4067
9.00567 17.5899 39.2339
11.8863 13.2312 18.6661
10.1677 17.0747 20.1744
5.98931 13.6292 25.7646
5.0836 8.97865 18.1696
8.72959 16.4535 28.149
6.08314 13.3088 30.8159
9.67555 13.083 18.735
4.33031 8.78792 23.0683
12.124 18.4134 23.5424
7.82194 17.3864 34.2055
8.21404 15.6867 32.4542
6.94582 7.96318 12.1097
5.65404 12.0736 28.3699
7.68108 10.0847 17.3685
7.65127 15.9466 39.998
19.7651 29.3248 36.7976
5.64142 7.68841 14.0608
11.9739 22.5754 30.9987
4.85734 9.6746 20.5557
10.5045 19.9649 31.052
5.36521 14.0592 36.5127
11.4768 12.5037 14.4617
6.33121 11.3725 22.4454
11.7831 19.7442 25.8618
6.68856 17.2572 35.1529
7.34075 10.5781 22.3245
11.5155 18.473 22.1442
4.31303 12.2205 29.0285
7.68891 15.6499 34.9955
10.578 16.9147 23.815
5.23583 9.85828 18.2772
4.89122 12.2309 26.4548
4.98135 8.30377 21.4946
8.64541 12.1049 13.7787
5.79743 12.7452 26.8043
9.19189 16.4137 27.1494
7.37918 16.1722 33.3045
10.5967 16.8094 25.6925
7.98573 18.5926 40.1065
9.89921 17.9848 34.1101
8.52953 14.4375 27.9065
9.61779 16.8799 26.3102
8.79721 20.0081 34.1534
5.18327 10.3331 26.0351
11.3584 22.4934 36.2549
6.52817 16.3631 36.2959
5.14396 6.47267 15.8619
7.75009 10.6951 13.2032
6.97757 19.2413 38.7642
6.00231 12.461 31.0272
8.67758 13.4422 22.9252
6.74766 11.3869 20.6105
6.21027 11.2355 17.6705
6.15864 12.8812 19.523
7.2677 21.1289 49.6163
8.44329 11.6576 19.0906
7.73378 20.1603 42.201
7.03612 10.8931 19.5199
4.72514 7.72847 12.4778
6.48629 16.0919 30.6579
6.33949 19.8215 54.4797
11.3105 15.3734 23.4259
7.35294 17.9507 34.7354
10.4377 27.8236 65.0807
9.25325 11.0646 22.0063
6.78278 13.7084 30.8125
5.77163 7.58888 14.6238
7.35826 15.154 30.311
8.43382 13.9756 17.9907
5.69958 16.496 38.3298
9.90562 22.6113 44.9879
5.30264 5.53542 11.4911
4.24538 9.06148 24.6404
12.1278 29.6263 57.4913
8.79901 15.1465 33.2939
7.90942 13.1172 27.9209
7.61188 12.066 20.9551
8.33449 19.3032 41.3708
11.304 23.0999 37.3061
5.53581 12.0225 30.7885
8.48087 16.807 29.9814
5.19693 12.1138 32.0628
9.36474 18.8717 33.9738
5.16486 12.706 32.28
10.0741 21.1071 43.955
7.37975 11.7036 20.3855
7.28725 18.6622 38.1451
5.67721 8.7274 17.6845
6.00895 13.121 22.9252
6.68705 17.7757 37.0343
4.97876 11.7121 29.8975
7.75873 16.1599 29.3848
3.17133 7.82071 28.0226
9.05217 16.7103 29.9045
7.29773 15.1945 28.5295
5.29371 12.5661 29.3325
4.26324 5.68689 10.8706
4.63172 10.6724 20.3746
4.87855 12.3464 23.244
4.17439 10.1051 21.9847
4.28985 11.0517 31.7367
9.05293 21.2063 41.7623
7.1131 16.2339 40.798
9.42432 16.9524 29.9409
3.54769 6.98299 19.412
3.75023 6.59388 12.0402
4.54477 12.0917 23.6032
4.71836 13.238 30.6894
4.35366 10.9966 30.2309
4.99908 10.8338 27.9037
3.8946 8.72633 41.394
13.9386 20.8649 24.7634
3.47688 6.27332 16.0888
6.61692 14.3412 23.5509
3.90781 9.89013 28.3989
6.19486 11.7304 27.51
7.24319 13.4843 21.5814
5.60471 12.5757 22.8207
5.21326 12.383 22.696
4.63096 12.9105 29.1512
6.56408 16.9875 38.3518
3.49469 7.31642 22.6566
4.63259 11.5742 29.7749
5.72773 9.49796 19.6749
5.2241 12.0202 23.5342
4.98704 14.0801 32.3789
3.31453 5.07146 16.0754
4.75609 10.2745 22.3799
4.66194 10.1855 27.7022
6.57385 15.4939 37.0159
8.56588 17.1375 35.961
7.41254 15.6791 28.1706
4.45868 9.75952 19.6472
4.91032 13.5915 37.4187
8.79077 17.4212 23.8225
1.4684 4.39848 10.6355
2.00859 7.31383 24.1806
5.67068 12.5609 22.5709
3.33093 10.1275 25.1468
5.40626 14.7768 34.4405
3.33684 6.86204 21.3363
5.15497 13.2026 30.0506
5.51536 12.6084 29.3804
4.53652 12.4249 31.7907
5.72964 12.0083 28.8891
6.48275 15.2444 29.3202
4.6387 14.4653 38.645
5.20489 14.5301 39.91
5.3028 12.9459 42.9794
6.53993 11.9612 32.2556
5.74311 8.10207 16.7949
3.86453 8.35474 22.6736
5.32717 11.573 33.5761
7.56097 10.8867 8.95217
4.03623 13.0179 33.1517
9.79927 26.9059 50.6628
2.90831 6.06703 18.4237
3.51586 12.3222 37.1171
6.85239 17.2994 39.9077
4.42442 6.34742 13.158
3.77772 10.3618 30.1871
5.5914 14.1499 29.9162
3.08695 8.2248 22.7813
4.99183 16.154 47.544
5.73462 7.56154 22.7941
8.41858 19.2522 36.1755
5.49184 14.761 32.8244
6.53188 17.7824 40.3473
4.54443 8.99647 17.2222
