# pn-170911/RbIIA-36-KOKB-1280-1959.psd
# Power spectrum* (dif=0,1,2) (really just |FT|^2)
# NOTE: only the first half! (symmetric)
# weeks: 1280-1959
# 4 clock-days, 3 excluded
# PSD: 1441
3973.03 0.450507 0.0103699
428341 12.918 0.0027008
1.23501e+06 26.1683 0.00227828
715920 18.7568 0.00155326
395323 18.6392 0.00420929
155857 9.64577 0.00402069
119292 7.64861 0.00221292
98896.9 14.5435 0.00880371
58490.8 24.3451 0.0105864
65804.4 10.9324 0.00858726
24732.1 12.0788 0.0147698
44786.7 11.7609 0.0101089
39416.9 14.914 0.0144961
18028.3 7.68304 0.00685275
20987.3 13.8317 0.0186863
9346.73 10.4087 0.00919528
10399 3.50613 0.00670733
14829.9 9.27544 0.0203991
7848.41 2.91088 0.00747074
909.628 9.37369 0.0172609
10257.2 7.4406 0.0126956
3542.58 5.81768 0.0155735
7106.11 9.29026 0.0202106
3573.48 4.96456 0.0141355
3626.77 4.9774 0.0146308
5120.59 10.6132 0.0274063
4308.71 5.53947 0.0275078
4051.8 11.6255 0.0320146
1518.79 4.70638 0.0247618
1689.82 3.84677 0.0220685
6748.48 16.873 0.0703497
1614.88 5.72571 0.033426
1369.89 13.9913 0.0718997
2881.71 5.69233 0.0437988
1592.59 2.60327 0.00948757
2856.7 7.79888 0.0533284
642.524 2.42564 0.0140671
1523.77 4.5019 0.0228031
1930.14 11.0377 0.0833832
1205.92 4.45002 0.0494496
1097.87 3.81853 0.0243135
2006.48 8.51436 0.058375
616.611 4.00949 0.0373593
1618.44 4.88495 0.0395313
702.225 3.46587 0.0291392
181.775 4.64324 0.0488184
1382.5 5.04116 0.0590095
861.693 11.1245 0.131997
1201.1 9.08328 0.098399
1212.22 7.64911 0.0850752
666.429 4.33308 0.067969
1340.32 10.2203 0.124154
553.359 5.09176 0.06109
649.495 3.24739 0.0460675
1087.8 13.9739 0.20386
1038.27 4.5493 0.0695227
569.213 7.22408 0.102008
1280 13.4694 0.197478
986.179 4.66918 0.0644131
1072.67 9.11706 0.156307
500.77 3.32752 0.0614966
437.743 5.96956 0.118565
750.986 4.56083 0.102147
348.512 2.86728 0.0538091
320.206 1.344 0.0338581
404.287 4.37199 0.0811898
522.126 2.66333 0.0596125
461.86 1.25022 0.035191
275.027 7.67329 0.201365
348.759 8.42103 0.212229
580.44 13.2603 0.276978
493.009 3.85193 0.0935381
119.583 6.25104 0.144658
1014.06 10.4906 0.266891
501.176 12.974 0.353678
250.558 7.69094 0.238731
437.421 5.31204 0.131124
493.674 10.4939 0.311973
570.008 8.61959 0.224105
367.18 8.38409 0.214447
521.824 5.72023 0.191982
817.339 13.3322 0.440608
256.933 2.2033 0.0660476
217.011 4.23835 0.148405
308.583 6.83236 0.232201
450.219 9.30549 0.260946
557.478 11.1772 0.40554
161.31 5.96247 0.210322
331.762 4.24147 0.161005
222.86 5.11409 0.211628
152.889 3.1612 0.137482
242.001 6.02796 0.250414
220.279 9.84916 0.363283
422.959 7.21689 0.295804
217.564 5.41831 0.208498
592.328 14.4186 0.643148
369.145 6.60264 0.312929
265.082 3.22723 0.170511
168.122 5.82418 0.323222
171.253 6.10255 0.269757
536.482 10.1678 0.470923
247.063 10.0582 0.461086
204.261 7.50706 0.34124
271.203 8.53211 0.395377
108.762 4.68124 0.259001
136.986 6.11235 0.317963
266.396 9.67797 0.57228
209.679 12.2121 0.663352
341.056 6.73518 0.329948
154.431 5.16081 0.292274
388.648 10.6272 0.639837
80.9519 4.40865 0.240623
54.561 10.1259 0.609866
194.12 5.95751 0.406271
117.227 3.38805 0.228922
188.929 5.83348 0.336872
63.687 2.59048 0.176382
121.12 2.75962 0.196929
98.3607 2.52254 0.14329
239.726 10.0562 0.696649
147.098 4.20141 0.286467
178.342 6.73546 0.455989
272.497 8.9804 0.674698
96.8385 4.95741 0.341258
250.326 5.87616 0.463179
72.9397 9.70963 0.729908
159.731 4.2658 0.306977
120.43 4.72862 0.412189
172.876 4.05767 0.327128
240.729 6.55984 0.497491
142.576 5.94425 0.50242
72.3213 3.91446 0.301129
28.4424 2.12525 0.203402
222.8 5.29102 0.442875
61.2443 6.62683 0.558275
198.169 9.99336 0.82237
77.906 5.31104 0.50444
157.772 3.75411 0.331275
75.9612 7.80623 0.702469
85.934 3.29267 0.267619
130.981 4.31986 0.460871
72.2029 6.61667 0.616647
130.736 3.92406 0.406092
109.372 4.63963 0.408414
99.7575 2.99433 0.304259
67.9034 5.15351 0.537992
123.462 14.3471 1.45345
138.533 3.76674 0.314356
134.89 7.93625 0.959165
61.5621 7.949 0.77018
172.667 6.44361 0.639895
49.7878 3.0363 0.313693
120.083 7.51756 0.915975
120.413 13.1446 1.37495
68.1109 4.45127 0.572938
138.082 9.21159 0.998785
173.492 9.3363 1.02893
112.538 10.2549 1.22879
100.38 9.99888 1.16166
97.6442 6.18526 0.751207
168.69 10.2239 1.15427
97.8344 5.96181 0.785145
84.4036 3.14691 0.361051
57.0725 4.52359 0.600771
135.335 9.17003 1.15824
111.007 10.5932 1.33491
62.0124 6.78176 1.01792
60.0658 2.60767 0.404951
78.1935 2.00597 0.186589
83.3595 3.22484 0.391814
91.5002 6.32103 0.840711
60.3694 4.6082 0.635208
44.8899 5.96236 0.94517
148.308 9.21359 1.18807
62.0913 7.1093 1.02093
121.608 9.21068 1.32869
148.358 11.2473 1.70568
163.055 15.5634 2.35138
40.1994 14.2115 2.187
63.6161 2.61525 0.396638
98.0104 3.85792 0.782221
99.0666 13.3492 1.83096
50.9845 5.52434 0.789498
63.7639 8.3392 1.37036
167.372 10.7716 1.52424
49.0993 2.11884 0.41111
86.8034 8.73248 1.37877
83.2542 3.28239 0.623666
27.9974 4.01792 0.765583
148.664 13.7209 2.32631
63.8599 4.78325 0.70726
74.6644 6.2168 1.0911
68.1462 9.79642 1.68905
60.2252 7.06233 1.27377
119.795 12.1787 2.07716
26.1184 2.76261 0.53512
95.2332 8.30569 1.74745
35.3442 3.67834 0.481364
64.1142 4.04485 0.752784
40.8705 1.91921 0.354938
47.9744 3.68446 0.875535
79.576 4.21016 0.873996
29.8584 10.2482 1.90706
91.5511 7.86483 1.43286
47.075 4.27511 0.881996
80.5559 8.72259 1.57232
95.9266 10.7037 2.22767
31.2283 3.66201 0.887852
69.3139 5.32092 1.14875
19.5511 4.83231 0.886003
39.2126 3.22395 0.587165
38.6371 7.5181 1.66162
101.251 6.68117 1.36059
30.8276 5.07574 1.08918
95.1988 6.82478 1.3421
58.0882 5.83197 1.23246
84.3242 11.0564 2.39567
70.7988 12.0001 2.83258
79.2749 7.47736 1.50979
68.5253 9.04672 1.94945
74.2139 6.87591 1.68598
7.20786 2.10032 0.332656
26.8204 8.89209 2.08021
42.2802 4.23735 1.22343
84.5355 15.8315 3.33327
31.6167 6.20144 1.52489
25.711 3.16887 0.782959
74.9969 8.6193 2.00799
31.74 7.55007 1.99629
63.2855 7.19923 1.56121
32.6932 6.69171 1.65452
76.5805 9.92682 2.43241
17.3104 4.92752 1.2285
36.0005 2.33989 0.655082
75.8201 7.54647 2.0896
29.4859 4.90337 1.27567
31.5472 8.40936 2.01725
15.5872 4.27161 1.29327
46.8774 3.6138 0.962118
20.7116 2.90231 0.755616
42.1993 6.6882 1.70243
16.7093 2.50021 0.679282
34.0218 3.17116 1.08616
31.0764 2.90817 0.925813
35.6556 5.48643 1.57343
45.5659 5.90791 1.52799
89.0693 11.863 3.18767
60.4258 8.07981 2.11345
23.9309 1.29309 0.388592
27.3834 3.18369 1.03466
28.3648 3.40549 0.869365
32.275 5.51377 1.63293
15.1843 1.06575 0.361508
29.1604 3.29799 1.24727
22.8342 5.46699 1.34955
40.0432 3.05955 1.02658
19.4333 4.26227 1.44598
47.3419 6.28047 1.68233
16.4752 5.62066 2.05433
48.6619 7.06065 1.94865
39.4471 3.71347 1.49696
57.2131 13.8032 3.75649
29.0555 11.8414 3.98307
26.9528 6.14417 2.16906
61.8108 11.7252 3.98666
23.3354 3.19859 0.853778
39.6256 8.99664 2.94407
15.1038 8.09592 3.05348
77.2098 11.2458 3.70311
28.4782 4.30766 1.38664
61.4246 9.63501 3.43323
33.323 9.45283 2.7771
26.6123 2.80046 1.25326
45.8095 8.93364 3.01988
73.0601 9.55821 2.89357
26.9579 3.8455 1.88786
29.3073 4.85578 1.34536
18.2205 3.27681 1.60109
32.6536 4.49022 1.36443
56.2818 12.8881 4.73093
23.8106 1.7058 0.440182
27.4082 3.62209 1.26265
18.0163 3.56403 1.49258
8.87814 6.62138 2.41475
22.7882 3.04833 1.41074
24.3753 6.17612 2.41413
76.3332 11.0829 3.68424
43.232 10.2441 4.32688
35.1506 5.24032 1.71942
28.8364 2.89891 1.39634
6.05773 2.2131 0.96119
37.796 12.3847 4.20246
22.0094 1.4537 0.608952
40.5697 10.3258 4.23064
17.6484 2.78078 1.18827
44.3875 8.91839 3.82278
7.23859 1.90813 0.667989
24.8788 7.00207 3.1808
48.7173 9.19423 3.30381
25.184 1.88918 0.805266
24.4073 4.44996 1.76264
9.71699 9.14837 4.11043
63.0259 16.1685 7.27635
29.8504 10.3475 3.72561
50.4699 8.15536 3.81218
25.3012 9.00831 3.69007
16.6694 3.03224 1.34976
17.2701 4.40017 1.86392
19.477 7.47524 3.22641
25.9348 4.29465 1.84519
19.6425 3.39522 1.40689
28.4946 2.83569 1.221
42.2443 16.5122 7.57845
17.8958 3.59497 1.74412
25.6785 4.62519 2.18582
37.8648 10.4671 5.5741
27.1838 5.07568 1.51216
33.9449 8.27577 2.94511
28.2675 6.32674 3.39659
29.8825 5.06865 3.00398
15.4569 6.39199 2.15938
9.27035 6.26133 3.57417
44.7785 8.55042 3.5852
16.6685 1.65686 1.00678
29.3933 6.18548 2.47047
40.2362 14.491 6.94039
14.2485 1.84409 0.870279
18.1507 3.66904 2.29
32.475 10.6956 5.9305
23.9697 2.95691 0.94984
13.118 2.80443 1.56625
12.6537 5.05419 2.87481
15.4644 8.80181 3.87227
16.0705 6.01212 3.36805
17.3707 5.8513 2.56819
21.0215 8.17009 4.78904
26.9279 5.87786 2.35499
8.47475 2.37586 1.81013
18.2554 2.4573 1.13282
23.9934 11.5428 5.67235
24.8504 7.24993 4.43479
34.4921 11.4409 5.71423
23.2009 4.45623 2.00721
30.5578 6.72854 3.94498
9.35822 3.03412 1.56103
37.6693 11.2423 6.0219
18.3107 3.56246 1.58222
14.9024 4.11775 2.98153
15.7696 6.89925 3.73905
8.53178 5.45421 3.46404
16.7431 7.89698 5.14646
46.2307 9.73955 4.03921
17.6495 4.14153 2.20125
26.0226 5.85772 4.17444
11.4767 6.71194 4.03202
24.3427 7.65299 3.20099
21.9389 9.69836 6.47793
28.4904 4.16881 1.90008
31.5348 10.1067 6.35903
16.4256 5.15337 2.73691
32.1104 16.1703 9.98743
48.7938 13.7187 7.66861
20.1934 7.62646 3.4514
11.3222 7.73971 5.51133
24.7863 8.07131 6.35127
43.4255 11.3428 6.6622
11.6668 4.42535 2.1669
13.7705 6.33817 4.80495
23.4311 8.15663 5.65134
32.1637 9.58439 4.9359
17.2619 4.99633 3.17266
6.39526 3.79989 1.75413
10.9028 11.1655 6.67508
25.9546 3.87519 2.1471
12.5735 6.41358 4.57851
35.344 9.31418 5.41168
7.06981 11.0543 7.63018
24.8092 5.53081 3.3893
34.1796 8.69832 4.69442
11.9817 2.89714 3.41248
17.9208 7.20283 2.82681
8.21973 8.88785 6.1015
20.042 8.07166 5.74244
29.3491 6.44433 2.86033
24.8519 12.3616 10.2745
34.7961 10.0752 7.02147
24.3953 14.2532 8.31105
15.531 4.57256 2.6302
12.3966 4.9135 4.64433
13.4802 8.21749 4.8187
20.4495 11.4817 8.21254
18.4189 5.00712 3.0452
24.7123 5.84381 4.53082
10.895 2.87763 3.75923
16.6387 8.05342 4.0262
6.12069 3.60697 4.4754
29.8586 11.4488 7.28605
15.772 17.0717 10.5523
26.0874 6.99312 3.74151
17.3061 5.56615 5.31905
21.9387 13.0569 7.70709
15.3774 9.60918 7.39938
12.808 3.79298 1.83185
17.4615 7.88943 6.57402
6.5343 7.91182 5.75083
21.002 3.01611 1.54067
15.7638 6.77289 6.42079
32.6677 11.9574 7.50576
19.7985 7.68586 5.12895
11.5768 7.3432 5.21894
15.5076 6.11689 5.05887
11.6198 6.7218 4.92854
7.18707 3.65279 4.2223
34.9685 15.53 9.73029
18.1632 10.2935 10.228
13.6616 6.06005 3.24143
13.9648 9.83121 7.61874
11.5057 6.49885 5.30044
7.60163 1.67906 1.15269
9.56928 4.14086 3.04841
12.5338 13.8994 11.1346
16.7111 9.3508 7.75167
14.7484 1.6798 1.48175
28.6212 12.7813 10.4309
16.7861 7.9404 6.2293
22.9365 15.1032 10.1931
8.16923 6.10707 8.78243
35.2103 16.8308 9.41405
4.24397 6.38812 6.82106
15.5421 5.25946 5.37394
29.6336 12.1532 7.57393
37.8783 26.0301 23.3869
19.2883 8.92412 4.68699
8.59038 2.78201 2.13233
15.698 8.46908 9.15839
21.3354 8.75521 5.72511
7.01735 6.48001 6.85107
14.493 11.2976 11.4666
24.2114 13.392 8.56892
13.177 9.16307 8.08081
15.7283 6.04204 6.82991
9.56194 5.94625 5.60325
16.2934 11.1269 8.02157
12.2363 8.17696 6.78522
13.8113 4.00353 3.74298
14.8852 6.96664 9.12924
15.1599 8.20674 6.17528
18.0807 11.8697 8.74692
6.22676 8.52853 9.38135
19.5079 4.4928 3.39607
15.4926 5.4093 4.6947
9.12764 7.56747 7.94423
14.715 5.90443 4.62144
11.6112 6.21195 4.07287
10.205 4.60758 4.35864
3.80532 4.25149 3.65137
13.4084 3.34243 3.3156
6.13437 6.54822 6.47739
13.9022 4.94674 5.69624
23.0368 7.15526 6.3477
12.2137 2.81295 1.52519
9.98192 5.01638 5.20462
14.0468 6.47439 5.07522
5.19241 4.91538 5.32331
27.0509 10.2254 7.88272
12.0914 6.20855 7.95694
12.7229 11.5246 10.186
13.8261 4.97057 5.59807
11.1503 2.1158 1.41747
9.29044 5.46239 6.22227
11.5406 5.78622 6.87576
19.4931 6.01005 3.60307
13.7037 5.90946 6.78609
14.2306 6.3359 6.59171
5.69884 3.02221 2.09741
6.29979 1.67764 1.74444
5.97772 7.34779 9.71345
15.0301 11.0443 13.3726
12.0687 7.11721 3.73223
10.8851 3.15984 2.68515
14.8467 9.2802 8.18836
16.4463 10.0677 7.27155
5.74071 4.09 5.11241
4.29774 8.56728 7.49946
9.43997 2.54632 4.41112
7.65247 3.53097 2.32315
14.4678 9.2758 9.65604
11.6951 10.6805 11.51
22.0255 13.7202 12.0299
6.24572 3.88394 4.9661
17.6331 17.5628 19.2801
14.3647 5.62922 4.92816
20.4104 7.8145 9.10192
15.5673 8.12957 7.15888
12.0992 6.15552 6.73292
5.44564 8.57779 11.4023
22.8061 12.7015 10.8418
3.62986 7.28637 9.21685
13.1851 14.6466 16.2128
18.663 8.33597 6.47336
10.2607 5.34758 5.79846
8.40233 4.51972 4.97413
7.86092 5.53722 6.95976
13.2311 8.64375 8.61687
9.25963 3.90087 4.71679
11.1724 5.70384 7.65352
5.1294 9.83292 10.2135
7.01932 5.76552 5.18885
11.476 11.7755 10.9417
7.13274 4.94435 5.71709
6.98183 5.92204 6.74497
3.9544 3.31188 7.76911
14.2706 6.48745 7.84757
13.2717 6.72949 6.73706
9.64024 4.09505 4.85996
11.4624 2.70975 1.74242
10.0825 3.36092 4.98482
7.87271 4.81849 4.71328
8.51358 5.32098 5.84605
12.0451 5.8114 5.95485
19.0934 10.2427 13.8478
8.85499 17.2337 19.3233
16.7228 8.24986 6.6857
5.97605 9.77967 14.3974
13.2732 6.526 7.81192
11.8963 12.2854 14.5881
9.22884 4.24888 3.61694
6.78153 9.3696 16.7872
18.292 12.3028 11.1336
9.75539 10.2859 15.0164
19.0935 13.9486 15.4394
14.3815 6.10548 6.0675
12.157 7.52804 6.2476
7.4497 8.90332 14.1754
14.0951 5.91547 5.58437
10.217 7.77982 8.41293
3.65356 3.90111 7.79267
11.1678 3.85698 4.39623
15.1329 3.91783 3.25079
16.7667 12.8645 13.9642
14.6217 12.1708 18.3058
2.66789 7.09794 9.62418
11.3977 6.80618 7.98974
14.5769 14.8529 17.3519
15.9958 4.04728 3.40561
5.04145 2.57845 3.13698
8.1294 2.06039 3.01805
11.6738 7.86492 14.664
10.7851 8.40482 4.87958
5.62058 7.39466 9.50365
4.67349 2.06835 2.50773
6.16437 2.93096 4.96581
10.6914 5.65899 7.47365
5.27662 6.77228 8.6803
12.7524 9.86532 14.5902
18.3344 9.97284 9.89146
7.06787 8.21393 9.18683
10.5979 11.6023 18.7897
13.9763 4.08457 4.26946
11.0186 4.73082 5.68192
5.13479 2.50913 7.00379
18.0047 11.8792 10.9784
13.6431 12.0404 17.2837
5.01944 2.68323 6.43207
13.214 11.2161 16.3952
17.9017 11.1447 13.4146
10.6757 7.17913 8.49472
6.38435 6.0911 10.756
7.33704 10.5302 12.5306
10.3228 3.02975 5.04119
12.5066 9.52513 9.50176
9.89465 6.18085 9.43026
4.78224 3.03888 4.83338
7.83277 2.65174 3.30388
21.5688 13.1697 18.6476
11.1122 14.0585 20.9384
12.922 13.0684 12.8493
7.91735 3.87044 4.52664
9.53677 6.89515 10.9459
7.08622 2.97554 3.32316
7.47526 5.88584 8.05736
4.29573 4.07212 4.65263
9.91996 5.92066 10.2012
7.67251 2.9601 3.54662
4.07298 2.38254 3.56655
6.92214 3.20355 3.83967
7.49478 8.19025 13.3375
8.01631 4.49796 6.64803
8.97002 5.70329 7.67533
11.0968 7.67314 9.93939
12.8197 13.8405 22.7881
13.982 10.2791 14.2826
3.76365 8.59499 12.8146
20.7679 13.2922 17.3481
6.88875 5.99676 11.5229
3.71562 8.57656 9.79248
10.7397 17.1947 26.3936
7.834 5.37353 11.4659
13.8386 9.54875 11.3731
8.0574 9.31931 11.9156
7.6979 2.26316 3.11508
2.91463 2.718 5.67452
6.62521 2.94626 5.51544
4.16036 8.10172 9.80994
6.15758 3.31758 4.29918
11.4278 6.39652 12.6816
17.1937 15.7209 17.0894
5.60631 9.30837 18.237
10.2338 8.927 21.8684
7.485 4.86849 6.3239
6.66066 12.8458 15.8465
5.73806 8.95428 17.7869
12.7657 12.2574 17.4737
16.6623 22.7035 36.4463
12.46 13.9274 17.7727
6.14414 3.223 6.77526
17.7202 18.7676 27.5824
8.99902 4.65467 11.2221
10.4914 6.97476 11.0706
4.38918 17.1445 27.356
17.0253 12.8723 17.4973
8.06272 4.02906 7.22822
13.5095 15.0354 22.8366
5.92312 9.19734 15.3639
6.56474 5.01742 9.24318
11.4819 8.39882 18.8709
10.0403 13.9553 14.486
6.05203 3.15646 4.53231
9.44452 13.2585 20.4058
13.4943 4.50872 5.0488
13.0888 11.1908 17.3929
3.76193 2.39484 8.37815
4.29964 8.84004 18.7478
14.055 15.3145 14.1997
6.664 5.78146 11.6303
11.6812 9.63213 11.7488
12.1684 16.4719 34.1376
15.033 13.7276 20.1173
9.53657 4.64503 6.32138
15.2958 18.8614 34.7946
5.15321 9.35357 12.1108
8.69116 9.33254 24.5195
11.6747 13.9611 15.9894
9.77148 7.20695 12.633
8.30474 12.0431 20.3455
6.99182 4.62121 8.22031
5.23215 4.14137 9.56911
2.97653 3.69962 4.23307
4.89202 2.56363 2.51931
4.331 8.79998 11.703
5.04699 7.20497 12.8909
4.97981 0.493165 2.05101
7.08549 3.34847 6.18668
4.93457 1.91693 5.20169
3.03595 3.17341 8.60568
13.6256 12.1765 13.2716
1.89814 2.87021 6.93083
2.41713 4.966 8.38067
9.08063 5.34401 7.75457
5.29901 7.96004 15.8911
5.4681 4.19997 7.73529
7.45776 1.9356 2.76539
3.13968 2.54208 7.39573
13.9183 14.8858 19.5153
4.77599 4.67654 5.28076
4.19843 4.74191 7.52979
1.21873 5.41797 11.6717
7.43251 3.4704 6.67883
9.42956 8.20908 16.0368
8.94273 7.25064 14.6962
1.89371 1.96541 3.18811
1.79347 4.64387 8.97469
8.91743 9.55387 15.1801
6.17786 3.39625 10.0788
8.47373 12.9993 21.365
6.14901 5.95285 7.75778
5.42116 6.38179 15.5105
6.90562 10.3569 16.9072
7.42083 4.34042 5.27468
3.98796 3.37076 5.50235
4.27881 1.2425 4.18862
4.20356 4.19196 7.15293
9.16801 6.3483 13.4258
2.5025 8.07039 22.2426
7.46487 6.25663 9.64386
7.73125 20.4919 33.646
6.19767 6.75478 11.3709
6.78679 9.76477 20.2375
7.96772 14.5389 30.8521
12.8596 10.3477 15.6352
8.59193 8.54787 17.4482
5.79043 2.07329 4.9558
4.95039 11.9169 20.8313
13.1947 13.5303 24.4345
3.99861 6.49265 14.299
10.7994 6.64053 13.2743
6.40391 6.26729 15.7231
9.72766 8.50249 7.81573
6.60758 15.4035 25.5404
4.2755 5.63868 18.0911
5.07834 6.30092 10.693
4.15087 17.2994 25.2833
5.08884 9.39522 25.7643
10.3871 6.68254 15.2389
11.5038 9.00135 10.6315
11.6579 13.3861 32.8169
13.906 21.4972 41.0979
1.41942 5.38736 8.58398
3.48871 9.36133 18.8591
4.04737 4.1028 11.1635
10.332 15.661 25.1184
3.62088 2.29667 7.84031
4.01694 3.82914 6.08591
2.7127 10.175 20.4345
7.71282 3.54584 7.48253
6.5942 11.6734 29.0327
9.83399 6.0217 10.6228
8.38188 1.78827 2.23303
10.3644 7.44029 10.1261
6.98917 7.33158 20.4135
10.1943 13.4142 17.3536
5.1816 5.31477 9.84765
8.36842 11.935 38.6061
9.65118 11.8908 19.0089
6.86094 11.4542 17.3288
6.1708 8.49347 24.3341
4.87174 9.02343 14.9894
5.6567 11.3338 13.9652
2.72602 2.8981 5.75735
7.86075 14.6991 27.8169
4.0487 6.45317 10.3514
4.11776 5.11056 12.5677
5.97061 9.38443 15.7412
8.32885 10.6845 27.833
9.73703 9.33733 16.5217
4.86659 3.73922 9.17737
3.61106 5.00246 13.2947
6.76219 13.1143 32.2083
13.9449 15.631 25.6232
5.72165 5.51705 12.2566
4.99993 5.67834 13.6659
2.931 4.1324 14.4868
12.0618 12.2158 15.0472
2.81439 5.70687 20.4977
4.54043 9.40966 9.00348
3.10059 5.91417 15.2609
8.85685 6.79991 14.3325
5.4928 2.48833 8.19405
8.14145 7.92596 16.0136
3.5658 3.47308 7.38143
4.91423 10.3944 21.7266
4.60203 6.74209 17.5983
4.70406 4.54602 12.5896
5.84378 9.48747 14.5804
3.49163 4.28036 7.89248
3.91824 16.3712 33.4057
9.90503 6.48958 20.0149
6.18281 3.09709 8.14694
9.5842 11.048 23.1239
7.20418 5.9796 10.8787
9.5739 14.3521 33.2564
5.71626 8.95188 20.6647
3.90684 12.8826 30.6874
9.71789 10.5075 17.8397
6.78568 5.99857 11.3758
7.08492 4.83934 8.04077
5.98282 7.0311 14.7014
5.42954 6.84923 14.875
2.67294 1.70382 11.5882
1.92777 6.91918 10.647
2.69017 6.93062 23.0082
9.20567 3.2739 7.76412
8.92885 8.96116 13.1646
8.93931 11.3382 26.852
4.5086 3.54367 6.9124
3.80515 7.07762 22.8086
5.25697 7.69309 13.981
9.63481 7.07573 8.68781
2.88295 4.21201 17.063
5.52937 10.7701 23.5431
12.9537 18.0445 34.9657
5.17768 9.5334 25.5406
6.29197 7.31244 16.8608
6.16347 12.226 36.29
8.12377 14.4782 22.2487
3.60383 7.71259 27.0395
6.70403 10.2925 14.5136
3.14438 6.96126 23.4277
4.53526 4.76022 7.70508
4.16945 4.3367 13.9966
2.44205 5.96737 8.28268
3.26568 8.57071 23.4092
4.63971 8.22409 13.8554
5.28821 5.27038 13.1323
1.97383 3.12204 7.31208
6.04665 5.50258 15.2705
4.1271 12.1979 19.8883
5.17948 8.03066 29.9065
8.02145 11.3993 17.4197
7.00822 8.92482 22.1728
4.67522 5.51666 10.2427
1.68636 2.51805 10.6761
5.51932 4.77082 11.0184
4.57932 9.86239 23.3418
6.55181 10.3231 27.9385
7.58822 4.0553 7.28219
4.78961 9.26872 16.6783
2.34552 5.68277 19.1896
7.03297 7.93396 29.2412
6.7127 22.3773 35.295
7.33876 4.80456 10.9472
3.95144 13.9475 40.1366
10.8725 8.58444 12.8279
5.66804 2.82425 7.9298
6.38905 18.4813 52.817
5.2522 4.18645 12.1381
7.36606 14.1769 21.073
3.51843 8.06968 27.6766
6.83747 7.22404 28.4167
6.38145 17.3041 27.2902
6.47267 10.138 22.8871
5.2335 2.71941 12.3178
9.06318 14.4451 27.8983
8.43102 11.879 37.1828
5.2765 5.20589 11.1455
