# pn-170911/RbIIR-60-NIST-1280-1959.psd
# Power spectrum* (dif=0,1,2) (really just |FT|^2)
# NOTE: only the first half! (symmetric)
# weeks: 1280-1959
# 6 clock-days, 0 excluded
# PSD: 1441
12.385 0.0481787 0.00955587
16260.7 0.466302 0.0775383
44668 0.689231 0.0471476
14612 0.343911 0.0368624
10766.1 0.899774 0.0903723
6661.96 0.572059 0.0944213
5302.52 0.83122 0.055261
2044.87 0.403222 0.0276713
2531.3 0.606402 0.0168326
965.782 0.328401 0.0730808
876.806 0.292666 0.101188
716.953 0.38118 0.0399783
650.439 0.435421 0.0174368
309.215 0.336019 0.0434711
363.1 0.395401 0.0545028
1011.96 1.12042 0.0613855
383.785 0.647224 0.023293
561.472 0.478156 0.0290301
322.8 0.234139 0.0882516
332.246 0.486562 0.0724549
351.481 0.691775 0.0235625
270.9 0.69888 0.0257935
229.46 0.607525 0.0458712
499.262 0.998429 0.0916996
262.311 0.427609 0.108015
579.732 1.21301 0.0462471
396.148 0.786898 0.0382446
303.024 0.909136 0.0740726
87.2708 0.444898 0.0741619
344.916 1.02542 0.115027
393.8 1.33317 0.0686337
189.432 0.891295 0.0372354
158.686 0.660211 0.0770974
210.179 0.868801 0.105046
174.552 0.90893 0.0711038
153.342 0.574515 0.042758
139.376 0.864201 0.0214401
255.111 1.44487 0.110037
210.986 1.12461 0.14781
213.602 1.18992 0.050255
122.264 0.760386 0.0260925
116.575 0.820181 0.045825
99.7555 0.967298 0.0730259
85.212 0.76886 0.0748865
168.396 1.4943 0.0552568
223.847 2.01818 0.0578949
126.928 1.19661 0.102945
136.552 1.10567 0.0506645
113.478 1.35897 0.0581376
207.208 2.3016 0.0765781
176.181 1.63198 0.0540686
104.344 1.13169 0.0575381
127.242 1.41417 0.0828572
223.498 2.80015 0.0884418
187.697 2.75356 0.0672882
129.224 1.89827 0.0718802
278.001 4.35471 0.141554
108.396 1.31188 0.154651
93.9197 1.74579 0.0849068
112.913 1.97639 0.0338706
75.3058 1.31671 0.0808867
81.7972 1.36124 0.0928867
65.9161 1.18015 0.128629
40.2865 1.19891 0.0872219
100.701 1.94511 0.0747687
157.716 2.82654 0.137078
114.497 2.28779 0.183321
59.8734 1.55045 0.0777485
62.6546 1.18926 0.0350336
211.834 4.51486 0.105313
116.777 2.58551 0.126799
111.025 2.35031 0.0713521
120.103 3.439 0.0745874
120.256 2.2003 0.0632745
124.742 2.90324 0.123538
116.377 2.93032 0.065184
105.589 3.07551 0.117023
118.546 2.83299 0.134756
32.5907 1.51306 0.078193
83.5952 2.5653 0.170919
186.873 5.54335 0.300909
164.481 4.96997 0.251455
67.1679 1.78998 0.0709199
31.2788 0.892353 0.0408768
81.3201 2.8512 0.217569
184.876 5.40823 0.353342
101.283 3.01661 0.225046
99.4534 3.45173 0.0822914
209.363 7.21101 0.397422
121.364 4.24314 0.292439
129.978 5.74503 0.270036
111.491 4.04126 0.208066
131.288 5.35488 0.227593
56.7591 2.08398 0.115802
69.6096 3.46503 0.154129
111.85 4.64869 0.260071
71.8818 3.43125 0.203208
136.4 5.37513 0.270215
149.55 6.03772 0.252613
92.4878 4.0798 0.24602
87.849 3.85668 0.279574
43.0058 2.04034 0.138374
106.929 4.90041 0.375105
89.7859 4.40614 0.238553
75.423 4.57722 0.234363
121.681 6.14487 0.397094
59.3212 3.59071 0.132954
115.583 5.79716 0.398732
167.607 9.35818 0.738048
47.0373 1.93097 0.114077
98.3631 4.45987 0.324046
53.8445 3.09275 0.217258
129.856 7.26356 0.452176
45.5471 3.10754 0.28646
148.617 8.12913 0.621546
91.8148 5.31597 0.373074
76.1454 4.02087 0.2359
76.7744 5.93182 0.419399
40.2221 1.56847 0.245013
90.3985 5.27468 0.439822
61.6866 4.06744 0.383786
54.8576 3.90011 0.403614
116.138 7.90511 0.756884
123.93 9.37955 0.933775
117.947 8.0385 0.652504
82.6391 7.29631 0.684286
21.2856 1.13141 0.108029
87.7453 6.83701 0.671836
100.302 7.24487 0.764458
183.266 13.4291 0.910783
56.701 4.53644 0.547109
111.906 8.0768 0.571851
51.2626 3.14662 0.410029
55.9719 4.53702 0.496927
100.38 9.66299 0.957634
82.0496 7.2481 0.780564
66.8864 6.5306 0.637537
155.185 13.3684 1.32274
98.431 8.3819 0.842727
46.2105 4.27279 0.39874
48.21 4.4946 0.358619
113.954 9.6856 1.02079
70.4644 7.35308 0.604514
51.2743 5.72311 0.612399
52.6366 6.05541 0.648903
60.5063 5.25053 0.420666
77.095 8.53651 0.767576
63.6848 6.49213 0.801764
75.9588 8.59107 0.994821
109.334 10.6042 1.11364
114.377 11.1717 1.23175
52.1653 5.98849 0.78281
106.006 12.4858 1.35802
169.011 17.1518 1.75157
82.0816 7.69228 0.833693
78.0698 7.83378 1.00183
120.107 13.3946 1.63507
92.972 10.6478 1.67231
59.4896 6.39861 0.78578
99.3636 10.1522 1.04547
31.8226 3.21226 0.521924
91.0415 11.3958 1.44776
90.7073 11.4611 1.23068
58.3299 6.41201 0.815842
52.7234 6.6569 0.862967
96.294 12.7069 1.82042
96.4939 10.8503 1.11837
82.8228 10.6445 1.61655
33.7529 4.46631 0.60326
57.1044 7.67674 1.00252
40.8097 5.49142 0.703727
31.0086 4.52546 0.701555
75.0166 10.1481 1.3048
61.779 8.50607 1.51214
79.8393 10.8398 1.4144
101.461 14.551 2.14222
27.6526 4.23652 0.678327
87.3255 12.1059 1.57629
30.6016 4.37478 0.699895
41.6325 5.14361 0.65651
90.585 14.2673 2.09722
50.2619 7.93372 1.07452
34.3306 6.4625 0.918285
59.5509 10.2746 1.85338
6.68898 1.88384 0.404832
31.2013 5.62388 1.03457
110.425 16.7239 2.3051
72.2986 12.8518 2.05631
74.4116 10.373 1.60591
35.6084 5.71816 1.02712
69.2251 11.9783 2.07715
29.3356 5.26327 1.028
98.8108 14.8022 2.46292
68.2724 10.6323 2.00251
100.426 18.7992 2.80954
42.7449 9.42328 2.12091
52.0328 7.7957 1.15657
50.4831 9.98633 1.91593
101.489 15.0877 2.67594
58.83 10.4481 1.6171
36.4507 7.97457 1.48969
101.446 19.92 3.84533
61.2678 10.4153 1.55128
67.5847 12.8458 2.00845
69.9572 12.6987 2.57436
51.4328 9.61159 1.97459
27.7475 7.03511 1.53092
50.2579 10.7468 2.50432
126.075 22.4485 3.32758
71.224 16.3219 3.46289
55.5992 10.9947 2.02979
29.0044 4.86483 1.02488
118.625 25.2529 5.45633
44.5153 8.07975 1.37666
26.3304 4.84477 0.705047
46.265 11.4091 2.50813
58.4057 15.2126 3.65961
38.6149 7.37434 1.05793
103.91 21.3087 4.13584
70.9368 14.058 3.19762
51.4274 10.6166 2.172
39.3473 9.96483 2.20686
107.179 23.5307 4.76599
50.5237 14.3667 3.82559
57.2376 12.2814 2.7271
84.519 19.2648 4.92641
65.1423 14.2282 3.26756
69.8873 17.7466 4.61769
32.4536 7.36946 1.69344
39.8886 10.6544 2.83716
80.5717 18.501 4.86129
31.1171 8.24447 1.97092
54.1405 14.2044 4.05983
48.1223 11.853 2.82462
47.4544 12.6793 3.26787
62.781 12.873 3.28495
66.3348 15.9222 4.07213
39.2854 10.1608 2.64255
97.5939 22.6654 5.55939
89.4695 24.8682 6.77581
33.2628 10.6403 3.22639
56.1443 13.3484 3.33821
50.7149 14.9759 4.13855
74.1449 20.4584 5.6586
8.60423 3.10478 1.08691
44.8157 11.9961 3.06177
58.9588 12.7182 3.34843
79.8322 19.5364 5.00003
45.1718 14.6162 4.92689
76.8822 22.1978 6.56703
65.2325 19.6135 5.3015
68.5649 19.5852 5.78804
40.6185 11.5401 3.47719
29.2107 8.82628 2.85808
72.5187 20.9061 6.12164
45.2279 14.6077 4.93613
92.2587 27.3928 7.4219
42.3098 13.8747 4.47498
35.7788 9.95037 3.15809
52.2843 16.867 5.44134
63.7514 18.5272 5.75497
38.2943 12.6634 3.32513
23.2779 9.8158 3.4997
42.025 11.6151 3.572
36.3129 11.7108 3.59659
25.7639 7.08519 1.94299
78.7453 27.4373 8.30908
23.2291 9.36422 3.58562
89.3673 29.5536 10.0471
53.2044 19.7736 7.21424
41.5249 14.4622 5.08512
35.2253 12.8537 5.18414
41.4438 12.7663 3.65534
40.7999 13.9754 5.44846
36.9014 12.2441 4.79512
65.4645 23.4346 8.48834
60.362 17.1578 5.02724
29.6233 10.2756 3.93708
29.8734 9.16387 3.1648
36.1185 14.0898 5.2813
34.1919 12.2547 4.02598
53.5666 20.0984 7.49525
34.0344 12.4757 5.06129
61.5639 21.7555 8.23156
8.5066 2.44789 1.0259
40.6108 14.5512 5.15259
56.4369 23.2123 9.25344
41.2887 12.9118 4.77859
56.3577 20.6784 7.87324
32.4548 10.9338 4.16116
32.6109 13.9914 5.72673
84.2373 29.9908 10.9644
32.3899 13.3987 5.30446
50.4114 19.1731 7.22513
27.5601 13.0039 5.96618
33.8414 11.5479 3.92596
52.5103 18.3903 6.38163
75.8232 32.1272 12.6828
27.51 11.6491 4.98898
14.1177 5.73404 2.51917
44.8566 20.6116 8.72311
29.7273 9.48352 3.29875
8.83569 5.26132 3.0044
29.2803 9.88117 3.55328
18.5782 9.35416 4.36623
34.3537 16.7341 7.84066
76.7958 29.9639 12.2925
53.1611 24.5493 9.57938
35.2665 19.1217 10.0454
53.7836 20.6214 8.59417
62.8631 28.1054 13.7815
62.9772 30.3949 13.911
30.4788 10.4098 5.22463
41.8742 18.4418 8.20422
49.1527 21.1732 8.58084
31.2624 15.7259 8.51775
20.109 6.56999 2.392
39.1373 17.5841 7.60708
28.7741 14.3571 6.80184
42.2624 16.7951 7.07385
15.2525 6.46039 3.0434
15.1421 8.81909 5.28994
30.5066 14.5846 6.56631
40.8217 23.0874 13.3616
65.8139 24.5707 9.08073
20.7621 10.1624 4.16104
40.066 19.8161 8.9559
37.721 18.9725 10.0883
33.868 17.0463 7.98347
41.6212 20.3771 9.68002
28.5393 15.5188 9.01548
39.7879 16.1228 7.00565
49.5529 22.9983 10.99
26.9583 15.0105 9.1118
22.2846 9.39817 4.13757
17.7688 10.5522 7.24456
69.3187 34.8656 16.3982
39.9958 20.5944 10.7745
51.5188 26.8 12.2721
31.1882 14.1269 6.79838
19.7444 11.7196 6.81539
26.7241 17.0847 10.6248
25.1104 9.40076 3.55455
31.2458 17.2491 9.08202
31.4174 19.1478 11.194
44.7628 23.766 11.9146
11.1314 6.85667 4.0292
30.3328 17.545 10.7937
37.0477 18.6435 10.7371
42.1007 19.9334 8.43179
41.1738 23.5932 13.6364
27.084 14.8672 7.45734
19.3887 15.481 10.5011
24.0952 13.5758 9.29944
36.3659 22.1133 15.6113
55.1807 26.6645 12.4382
30.8368 16.7337 8.59247
22.111 18.2999 11.9269
45.7202 24.5692 13.1703
29.0031 16.984 9.81015
19.3306 9.19848 5.11279
21.793 13.2524 8.80198
47.1975 25.0195 11.3389
26.7837 20.1551 15.2355
44.0532 22.492 10.6127
49.0458 33.0129 18.6682
18.478 14.8663 10.4843
11.3989 6.81051 4.31271
25.8589 19.9505 14.174
23.4773 12.2231 7.67702
33.7449 16.6616 9.20876
29.9935 19.9433 12.1841
13.2528 8.38863 6.51652
28.818 14.5089 6.83297
14.2005 12.5114 11.3736
38.7932 21.4932 12.012
51.3613 34.0353 22.6327
51.2122 25.8978 12.7269
21.086 16.6789 12.2287
11.338 6.7433 4.01873
20.9085 19.912 17.5288
39.8789 22.8799 13.0913
26.4246 14.808 7.87587
12.0389 7.77788 5.73421
16.9256 13.2997 9.36531
34.5839 23.0581 15.8184
19.0851 9.26329 6.13876
11.4589 7.39513 5.70296
35.3078 21.8975 12.825
20.578 12.7258 8.56478
18.9248 15.259 11.9842
28.2543 16.1627 10.3586
37.7668 22.7324 12.7869
11.4283 10.5582 8.1965
13.6768 11.7426 10.1413
24.7821 15.1928 9.59959
22.1377 16.4503 11.325
13.0461 9.74372 8.44608
30.1982 22.425 15.6644
19.4846 14.6272 10.746
24.401 17.5785 12.6334
21.0417 17.3008 14.5395
32.6326 18.4437 11.426
12.7227 7.08721 5.31284
33.2919 26.4904 18.2448
9.73271 8.13593 8.03286
12.6285 8.02318 7.25105
35.4986 23.2264 15.1961
32.7262 21.3592 13.3397
26.1613 21.2314 15.946
23.9733 16.8745 12.7854
21.3097 13.6958 9.5643
23.4514 19.5139 14.5997
30.3707 23.6477 19.2406
29.94 25.4248 19.7698
32.7184 26.4737 19.9258
14.4604 9.65785 8.21331
21.1862 15.4767 12.3717
10.5315 7.16447 6.4431
29.6613 21.4686 14.6258
27.0763 21.7532 16.5388
16.9036 13.4379 10.653
37.2282 30.7086 25.1047
31.7025 27.6973 23.8044
35.1749 26.821 19.6946
19.0764 14.4261 11.8953
23.5897 14.5776 10.1708
18.161 16.3807 15.3016
20.1268 13.9012 10.584
15.6081 13.2419 9.86081
30.5355 24.6944 19.5801
15.9026 12.4031 9.85728
12.0485 9.21834 8.93883
18.2159 13.0304 9.30592
17.735 14.5103 12.2949
12.3927 8.2073 4.9578
5.51141 6.35063 7.42122
25.5744 20.485 15.3893
20.6871 17.803 13.256
23.7232 26.0784 26.7462
17.9367 11.2929 10.648
41.3928 35.8849 26.7612
16.4068 14.3848 15.3618
30.1545 23.7858 18.3772
28.9289 24.0077 17.5515
18.8348 15.8671 11.6417
25.3918 24.4458 20.5021
23.2715 30.5306 32.6349
40.9179 31.1769 24.6864
19.0919 22.2514 25.6739
26.565 17.6452 15.1343
22.4122 14.4328 10.0539
21.8455 18.4686 16.1353
16.2697 17.614 17.182
18.8795 14.4677 12.3333
18.7869 20.9492 21.5311
38.0297 30.0881 22.592
10.6691 11.9242 14.3317
23.4298 21.039 21.349
21.1589 13.7044 8.76401
14.887 13.8858 12.5027
10.2833 8.94619 7.49967
10.5025 11.5013 11.3469
9.07467 8.91106 9.68611
17.8511 17.534 15.7143
9.72897 8.1179 9.45928
22.9248 19.4033 18.4958
40.4857 37.8107 31.9356
16.1754 17.0255 18.5878
16.9372 16.0164 16.7504
17.5082 13.5422 12.3813
21.7763 20.8011 19.0196
18.7367 16.7299 16.5809
35.2302 35.2464 32.3602
21.5404 24.9861 24.1593
10.9557 13.6834 16.1208
13.5111 12.6227 14.5087
25.8812 25.0944 23.9961
12.4648 12.3121 11.7592
10.2033 12.2242 18.1704
21.295 16.2977 13.6504
21.9584 25.9392 28.5397
30.1806 24.8072 18.2259
14.5582 13.0193 10.3816
19.1501 23.838 24.9508
13.6155 13.9781 17.6156
34.8039 34.7348 30.5303
15.3087 16.5497 16.0222
8.9406 11.3699 14.4722
15.4066 19.7162 24.169
19.2571 15.1118 13.2366
4.15329 3.70187 4.68454
10.2668 13.1977 18.216
23.6916 21.3891 16.5969
6.67532 5.444 4.91621
8.90657 11.4265 15.7182
28.1939 27.3134 25.1292
12.8921 17.1868 24.8438
30.8996 29.242 23.0311
16.0248 21.5673 26.9459
20.2702 17.6371 15.1096
36.2298 45.6837 44.1491
8.75159 11.1696 15.0587
10.3519 13.4889 20.1542
17.719 17.0628 18.9639
19.3117 16.8992 14.5919
10.4088 12.1499 16.2686
14.8511 15.8062 19.7688
28.3466 28.9946 25.69
19.6863 24.958 28.5019
10.9235 16.7137 27.7312
24.5364 21.959 22.5977
30.4085 37.8039 39.6389
17.2067 19.6633 19.1994
12.5297 20.5281 29.4946
13.6363 12.7034 17.8142
18.3481 16.711 16.7403
21.3815 26.8439 31.6207
18.4935 19.111 18.1003
9.07838 7.66504 8.9121
13.2061 13.3293 13.7491
20.5123 25.5499 31.0635
27.0216 27.6169 25.1473
19.752 26.984 27.4587
12.6004 24.5423 38.6311
27.658 27.029 24.6499
7.80003 14.6176 23.7495
8.65164 10.8381 20.2756
14.6516 13.7387 16.092
12.3262 13.962 16.962
12.3603 11.8528 15.1085
10.0139 10.5891 13.4163
17.6203 17.328 18.5567
25.4627 27.7644 28.1229
15.1801 22.8445 30.215
14.4148 14.5096 13.7355
5.26473 7.07054 9.34112
14.9671 18.1975 18.5298
10.6594 15.0312 19.6519
12.2278 18.0668 24.2457
12.9816 15.8909 23.079
17.1394 16.2349 18.0435
18.9592 19.5935 19.0639
13.1144 18.4226 23.0092
14.0586 21.3269 31.1421
21.2168 24.8732 30.148
9.27193 12.991 19.7829
14.3996 17.7889 20.7324
14.0415 14.968 14.8375
9.46151 17.1624 23.9851
7.82949 13.8437 24.7816
15.7448 23.0474 41.7241
21.6424 16.5835 10.438
8.57826 11.7319 17.953
26.272 28.4772 28.5023
15.4488 20.7129 22.331
7.04514 11.3207 16.5227
4.81752 8.09967 15.0552
16.0113 24.2374 31.7693
14.2743 15.0762 16.7848
13.1049 19.2929 27.3554
7.69225 6.47716 7.3604
9.95216 15.4065 24.3668
10.5364 9.01488 8.2031
8.39247 14.4846 21.6391
21.4233 27.4235 30.5296
11.9894 15.146 18.5008
3.01914 5.48845 9.88967
4.33269 4.54486 5.70387
5.35629 10.9642 16.2249
7.58758 14.4777 28.5568
13.7066 12.4792 13.2473
9.24664 11.0096 13.828
9.86403 13.6371 16.0965
6.19816 9.73284 16.9479
14.4011 17.7651 22.3963
7.00721 6.92841 8.97685
9.85625 11.476 15.1277
12.764 20.8349 28.0616
7.24377 12.0023 21.3415
12.5469 18.1177 23.9011
7.17429 5.75955 7.61219
8.55002 12.2539 18.5492
10.8735 14.0069 18.1536
12.6546 16.4676 20.7082
8.02862 13.2377 25.533
16.7573 22.3672 29.3379
8.12873 11.0227 17.0163
11.2462 16.9718 27.1473
14.2348 13.0498 13.7978
16.9023 26.7974 33.9828
7.66917 7.5521 7.29963
5.57707 9.20104 13.6351
13.4311 28.3681 50.6987
12.4292 11.9225 11.0196
9.6071 20.8134 40.7977
14.1406 15.4025 15.5468
4.18676 4.37947 7.32789
10.3581 18.236 28.5121
6.39441 6.92622 11.632
11.7652 20.5539 30.0393
12.2223 16.9263 26.4119
17.3086 26.1638 37.8711
22.0647 30.0126 41.2101
10.7783 13.918 23.5777
23.3848 33.3174 43.6074
6.64031 10.6261 22.358
12.7013 15.9361 17.7206
8.14176 16.0866 23.7976
4.56133 16.7254 44.4285
21.4183 20.7364 20.1879
5.69549 9.85938 17.7724
7.19958 10.0586 17.0427
9.2364 7.57896 6.65042
8.19149 13.4456 19.3034
11.207 18.2183 27.061
7.14903 11.0468 19.1443
10.5459 14.6881 18.2416
14.5895 27.2495 42.7407
6.69644 6.97401 12.818
13.1499 25.2909 41.0804
9.87979 11.8902 18.2447
9.15723 17.4322 33.7759
8.06426 8.56726 15.2518
16.7483 27.1781 43.5174
18.7805 30.3423 45.6414
11.9324 16.8458 23.3164
8.24274 16.7273 30.7558
10.9308 12.3559 13.2888
11.6128 22.089 29.1375
8.29867 16.5195 26.1967
4.86166 7.54653 17.8431
12.9786 20.9308 29.0537
7.80881 16.1882 30.1343
9.51567 14.3008 29.5833
10.5534 13.5403 17.2082
10.9404 22.0302 37.8459
11.1837 13.2221 19.8687
9.05733 13.3638 22.6619
6.12554 7.41952 12.043
13.5781 29.1544 54.4947
13.4822 19.9077 36.7096
19.2343 25.3802 33.9909
11.9332 22.728 33.6787
12.4872 22.0037 40.263
11.2325 14.6154 22.2647
11.5142 20.7003 35.6343
11.256 14.8385 21.1846
10.9613 20.8397 32.463
4.19115 10.1569 24.627
11.7078 22.7145 41.696
8.58454 16.5366 39.8413
13.9342 17.2321 25.6279
12.6448 25.5531 53.5213
10.5592 9.00174 10.9619
10.3907 15.3203 15.1328
6.34934 16.1135 30.8641
11.6504 17.1169 21.0362
4.92604 12.4465 29.2509
9.32746 12.6652 22.3617
16.1461 29.1221 38.1297
8.60048 24.162 52.3815
9.83962 11.196 17.7383
8.92191 14.2364 24.8624
6.67569 9.13704 16.6216
12.7976 20.3384 23.3708
6.51824 17.8941 42.846
11.0295 17.8696 31.111
8.62391 13.5009 21.4903
12.5286 27.648 47.6449
11.4687 21.2593 35.0132
8.64936 14.8143 31.1486
15.5203 34.1189 66.028
10.3685 10.8499 18.0319
12.8192 23.5836 31.6061
6.13345 13.4899 31.4948
7.44013 11.3631 23.5809
10.5969 14.6913 20.2673
8.52284 18.2292 32.2307
5.77526 12.5933 24.9468
7.38931 17.7221 39.6285
10.1841 16.6499 36.1601
15.4897 21.7605 33.6957
6.6023 6.81377 6.3069
7.44555 16.6312 26.2085
4.34548 8.52854 16.4344
4.83311 9.97132 16.5189
4.11316 8.02871 15.2542
3.93872 11.1101 28.6003
11.3993 21.0523 31.8023
9.94501 24.0081 51.8701
7.61087 11.2601 20.0481
6.64334 12.2833 23.501
5.44545 11.5928 34.67
11.023 14.6258 16.0176
10.5483 24.3887 41.0103
5.80302 15.4482 39.8572
8.78039 8.96163 15.2594
9.56315 16.6063 28.0109
6.14521 10.917 16.4836
6.36524 15.6159 33.6131
10.6165 15.02 23.2289
7.76656 16.8983 28.2315
3.68068 7.07528 15.564
8.2807 20.1635 38.8194
8.15265 19.4857 43.2961
7.82712 13.1913 37.353
13.2632 16.0304 14.556
4.05077 12.0255 29.0182
5.03652 7.03456 15.8166
9.22442 19.2128 34.3702
6.12391 10.0513 17.7241
6.28071 11.3286 22.931
8.29087 14.6606 17.7778
3.80276 13.4199 37.0243
12.3372 22.9564 35.9814
4.08218 9.74324 19.4541
5.28713 13.3401 29.9159
9.37039 20.7951 46.4712
9.75296 13.0489 18.7678
2.74457 5.67933 20.7206
8.72217 14.6862 25.24
4.44608 7.69379 12.2319
5.62924 14.5637 31.7689
9.66778 24.5517 43.9715
6.83496 17.5281 44.9394
5.65418 4.95904 6.15658
1.8981 3.56017 12.011
4.90688 7.88293 13.9575
4.45969 14.0285 34.5829
9.34677 14.773 21.6054
3.5492 8.6568 20.8855
4.9737 10.9311 25.8284
6.50858 11.2271 18.4323
4.27896 11.0226 31.196
10.4408 17.38 20.7337
3.21491 15.2843 51.8784
11.9087 17.4753 24.7544
5.47788 13.6881 33.2676
9.47768 20.3561 37.1134
4.33479 7.94052 17.9981
3.59133 10.1149 30.8022
8.02075 13.0386 18.2357
3.52458 8.51934 23.8174
6.51225 11.4365 21.8666
7.9995 16.462 36.4575
11.4012 24.0467 36.8837
4.28801 9.33816 23.3251
6.94448 21.4119 46.227
5.84703 7.81865 18.8518
9.37767 25.8908 53.385
8.05888 19.6729 47.9289
7.47925 11.3267 21.8708
6.61024 14.4503 35.2038
4.94296 8.44536 21.1328
6.16542 14.5144 39.8469
13.2571 24.8137 49.0531
13.0569 23.7822 30.1199
3.30869 13.3437 39.2539
8.30176 20.7892 47.3273
7.23888 13.822 27.7476
4.20477 7.50376 22.0473
4.34845 7.59287 25.8735
7.13806 7.99089 13.702
10.0734 22.922 35.3726
5.91692 10.7479 14.3363
4.71929 16.1319 41.1085
7.12338 22.3037 56.266
7.04361 10.8922 30.3357
6.42005 9.00622 11.3781
4.32979 14.2185 37.3315
6.86805 19.1553 49.1672
8.47024 16.3184 34.4937
5.3029 10.0485 28.3594
5.89179 13.2955 35.7586
7.91586 13.1818 25.1854
9.57225 24.9789 51.42
5.56419 10.0456 22.701
4.46311 11.1511 28.9771
5.79023 8.20741 13.8186
4.15876 11.6032 24.9615
5.33245 12.6235 23.2763
3.40787 8.51121 19.6013
3.94802 9.9432 27.6087
4.39765 10.8869 34.6325
7.52672 12.7287 22.6892
5.31025 13.7659 34.9836
5.94531 12.1151 28.5131
8.14283 22.529 56.1151
7.33669 11.8907 27.7604
10.3616 23.5772 38.9512
3.08635 8.66311 24.458
4.24533 9.54883 28.229
5.48487 11.1779 17.188
3.18786 9.57606 34.4501
8.4689 13.891 21.7266
4.09918 9.2142 20.5793
5.36188 17.324 47.8378
9.75993 24.127 47.0208
3.36076 4.6274 20.9187
6.38089 13.8861 33.1844
5.70924 8.76736 14.3783
5.51329 13.7084 28.1092
2.89938 7.88398 24.3714
5.89735 13.9681 29.0191
4.4354 8.46484 24.3393
4.16736 6.41062 17.1186
6.48738 16.1042 26.734
3.52587 9.30334 19.0352
3.32153 11.0027 39.4329
11.0117 22.9892 40.9959
6.14234 18.163 45.4714
5.90464 10.7073 23.363
4.8784 14.3321 42.9737
9.98009 27.6312 58.9166
5.88184 7.94781 14.3434
2.6686 7.19609 15.6751
3.56484 10.143 22.1562
2.45163 5.24986 14.8803
5.26912 19.01 46.7253
5.13593 11.5781 34.3072
6.59495 15.3275 41.5113
9.79567 22.5854 50.5489
3.87122 5.95149 25.8591
7.7167 19.8508 39.3907
2.68027 3.61591 23.6593
9.06705 18.686 29.915
