# pn-170911/RbIIR-43-PTBB-1280-1959.psd
# Power spectrum* (dif=0,1,2) (really just |FT|^2)
# NOTE: only the first half! (symmetric)
# weeks: 1280-1959
# 7 clock-days, 1 excluded
# PSD: 1441
458.746 0.146978 0.0234624
21842 0.614162 0.00845005
73295.9 1.58843 0.00825985
35460.7 0.967026 0.00851427
43489.6 3.66501 0.00953974
4311.36 0.798675 0.00878287
7848.05 0.876047 0.00926323
4768.25 1.44078 0.00943438
25574.2 8.15027 0.0162782
4542.62 1.51724 0.00652843
7991.34 3.97954 0.0147351
4937.17 2.69557 0.0070493
14252.4 8.49232 0.00872583
2390.4 2.72623 0.0114291
8601.44 6.72405 0.0111035
737.783 1.11305 0.0119786
3859.21 5.26928 0.0175002
6209.91 9.82816 0.0324823
14630.6 25.38 0.0467018
3809.26 6.91588 0.0262131
5222.13 12.4406 0.0237927
3810.11 5.82695 0.0226618
5628.89 11.4517 0.0422288
2452.34 4.98251 0.0133037
6858.57 18.0445 0.0770552
1353.04 3.29113 0.00784
1097.48 3.64635 0.021096
1403.69 5.98667 0.0269841
2551.19 9.7533 0.0205333
1364.94 6.16263 0.0425626
1715.87 7.02274 0.0249541
1021.73 4.64046 0.037292
1412.89 7.81033 0.0521549
4391.21 21.8002 0.145661
1817.29 10.3319 0.0876235
1748.98 8.57112 0.0711641
898.287 4.81865 0.0396523
1802.24 11.8796 0.0600002
1318.21 7.90241 0.048154
1988.33 15.361 0.090866
972.132 7.62077 0.0558571
694.272 6.47371 0.0555467
835.025 7.15476 0.0450249
1109.72 10.7283 0.125912
1009.01 9.77973 0.100393
1177.23 11.2409 0.144294
510.994 6.3809 0.0909879
785.928 9.60588 0.103932
449.578 3.68548 0.0604957
1046.19 9.97541 0.114684
505.171 4.6084 0.0693246
996.572 12.2483 0.140614
434.417 4.97284 0.0816279
1791.41 23.807 0.274022
956.624 12.4322 0.15818
1188.69 18.3331 0.268769
563.126 9.88122 0.149157
549.03 8.79878 0.143202
451.394 8.11725 0.139364
924.743 13.3861 0.245106
363.357 5.13846 0.1049
915.167 14.7348 0.303512
756.318 13.0716 0.304597
612.649 11.3881 0.179582
712.345 13.4836 0.290099
768.955 16.2981 0.27263
509.736 9.05959 0.193196
358.898 8.14505 0.151556
644.172 14.6512 0.33493
167.46 3.82142 0.110019
261.378 5.19193 0.131216
517.425 12.8492 0.347894
817.106 18.361 0.446039
267.855 6.68391 0.19277
608.233 14.371 0.370623
456.835 12.5573 0.350572
351.356 8.11368 0.23505
380.777 9.6911 0.278673
341.198 8.88576 0.236441
389.194 10.7226 0.352504
140.345 4.19912 0.15455
172.345 5.34886 0.186332
216.729 7.50396 0.227468
324.143 11.0501 0.350375
394.101 11.0734 0.367312
157.877 5.56194 0.173771
267.321 8.22697 0.326698
340.722 11.7898 0.440714
353.575 13.005 0.450208
153.72 4.89115 0.205593
543.706 22.3768 0.849651
532.634 18.8652 0.775058
155.479 6.12462 0.235226
261.824 11.0976 0.41394
143.283 5.6494 0.259193
540.439 23.3373 0.899063
271.262 11.7419 0.548989
174.406 7.23576 0.343386
586.527 27.5205 1.32734
347.244 14.1058 0.672442
280.832 14.124 0.717208
386.245 20.6665 1.00785
110.214 5.19922 0.301897
268.46 11.3547 0.563691
255.286 12.7519 0.673154
288.089 13.7051 0.732336
214.615 11.0403 0.645633
253.721 13.2719 0.761787
347.847 18.3968 0.987067
273.006 16.2618 0.852743
199.165 10.2507 0.563696
177.829 10.7328 0.69109
184.899 10.8899 0.639824
240.139 16.2521 1.09604
119.3 7.00584 0.446019
217.19 13.3546 0.819279
297.723 16.4596 1.0373
156.938 10.0634 0.69894
178.303 10.4543 0.747347
204.483 15.7659 1.12813
99.3201 5.80379 0.372935
221.366 16.3133 1.12195
170.989 11.7998 0.91823
233.42 15.8469 1.12505
186.184 12.4289 0.868824
142.279 11.6555 0.832667
192.792 14.3697 1.06483
115.189 12.4327 0.990712
260.172 20.5548 1.62586
270.987 18.0263 1.4014
209.662 16.4323 1.44551
178.557 14.3404 1.23611
140.261 11.4295 0.966552
232.256 16.523 1.27613
286.063 20.8754 1.77089
139.672 13.3236 1.19977
77.724 6.01105 0.638591
278.777 23.8505 1.97496
104.714 10.8779 1.01795
225.203 20.0747 1.91483
65.686 5.52812 0.508077
146.554 14.3047 1.25116
151.599 15.6207 1.54548
141.279 12.1685 1.21305
189.613 19.1014 1.88711
132.1 11.3294 1.09741
134.227 15.7093 1.63564
62.947 7.85517 0.936983
196.724 19.159 1.86504
59.1787 7.13021 0.764436
163.027 18.2421 1.87438
103.599 12.519 1.50961
225.031 23.8458 2.79577
247.997 26.2645 2.68074
150.991 14.8836 1.57062
103.303 12.3196 1.41123
106.122 10.2632 1.31694
208.479 25.1556 2.93167
227.906 22.2503 2.37141
109.198 13.5348 1.7473
238.215 26.9864 3.5028
276.587 35.5095 4.59331
125.595 13.6398 1.52163
129.888 15.2973 1.76334
87.0548 11.6086 1.64304
239.109 28.1082 3.76752
146.518 16.8977 2.18324
82.6097 11.7311 1.52345
136.591 19.9916 2.63435
62.5834 8.33116 1.3101
99.2096 11.4036 1.31456
133.041 17.6755 2.70014
128.528 16.1911 1.9585
79.2151 11.2233 1.29734
47.0271 7.28755 1.10842
103.068 14.9394 2.12434
204.388 31.224 4.25127
171.269 21.8923 3.05277
53.0395 9.07821 1.55796
110.931 19.8566 3.33542
81.6767 11.303 1.51896
153.563 21.3792 3.29833
148.597 21.8978 3.2918
131.251 19.1376 2.78835
178.584 26.4119 4.05321
89.7912 14.6543 2.61882
42.083 5.31744 0.808639
58.7821 10.4312 1.63055
128.818 20.8056 3.49785
107.692 18.6002 3.29098
94.5211 16.8847 2.72661
109.083 18.3309 3.37213
111.469 16.79 2.63587
161.523 27.4787 4.8671
69.6001 12.7516 2.41734
81.483 12.2109 1.93408
135.946 22.5265 4.06857
128.191 21.7455 4.00158
63.2993 14.1578 2.84427
127.364 20.9402 3.7139
56.4234 10.8595 2.48088
183.824 34.6778 6.5211
77.8224 14.8276 3.00353
84.4657 16.2641 2.76718
71.2087 13.018 2.46097
88.5918 16.7696 3.2161
132.381 27.5903 5.47136
139.614 29.5881 5.88495
77.629 17.3632 3.78709
106.785 21.0587 4.3651
125.774 28.7424 6.55328
82.5071 19.6993 4.50241
74.3679 15.1586 3.24725
149.924 30.8816 6.21025
110.215 20.72 4.75361
90.6732 17.9175 3.81241
52.8859 12.3389 2.44823
84.103 17.2986 3.93426
63.0257 14.3714 3.4358
87.4345 19.1385 4.47274
126.274 27.7566 6.05687
122.391 29.2506 7.24589
80.4021 17.6268 4.11643
26.0672 6.18702 1.58498
56.1343 13.8259 3.75623
141.869 29.8694 6.20702
57.2571 17.6666 4.90421
58.5158 12.8076 3.08054
115.378 30.0873 8.17677
113.264 28.0917 6.64849
88.0999 19.6588 4.11711
56.266 17.4092 4.39498
55.6287 11.0722 2.73679
70.9632 18.6554 4.40483
64.2498 17.4389 4.45348
94.0271 20.8264 5.03975
67.1467 18.4391 4.78391
69.9122 16.4601 4.14191
140.233 39.159 11.5561
107.669 26.5978 6.97292
102.481 28.1962 7.50587
75.02 19.3861 5.1368
79.5355 23.1077 5.9532
132.654 36.3007 9.20399
129.311 38.2873 10.463
94.1259 24.8976 6.37539
37.2289 12.2651 3.54949
33.4117 10.8665 2.90131
36.2339 14.1007 4.93981
41.6478 9.85925 2.3898
55.5594 15.5678 4.23594
56.042 17.1043 4.61044
78.8409 25.5754 8.01647
57.3115 13.8485 3.52994
78.6878 21.2184 6.25201
69.9166 25.8016 7.83819
61.2644 19.1738 6.30849
43.0797 13.2698 4.17704
65.3914 23.1166 7.13893
33.0488 9.17324 3.21818
96.7271 24.9917 6.79824
57.6475 18.7343 5.80004
49.2857 14.8973 4.91771
54.7864 17.7599 5.64083
58.0948 18.2632 6.1486
59.543 17.0013 5.68484
94.4117 27.2538 8.1477
46.8565 15.748 5.50903
65.2447 25.6585 9.2805
20.9748 10.7469 5.67029
84.3553 27.5718 8.76072
90.5024 29.874 9.96908
85.4072 27.9417 9.66653
60.3605 20.1901 5.94705
66.9696 23.7281 8.18607
67.1035 24.8212 9.42176
115.72 35.3575 10.6878
47.568 16.5166 6.49602
54.8532 17.7548 5.91056
113.494 39.3573 14.1339
81.2064 33.9996 14.03
112.269 38.951 12.6906
68.4784 27.92 10.9187
36.05 14.1727 5.82132
39.0495 13.4437 4.38139
68.9727 28.6576 10.2325
32.7774 15.6856 7.1311
62.4421 18.1176 4.87238
214.295 88.1832 33.6466
39.0441 17.9499 9.23043
107.886 43.746 18.642
113.193 38.1661 12.4991
79.5015 28.2243 9.82847
35.872 15.3241 6.04579
67.7616 30.7052 12.9546
62.1835 24.4754 9.04081
55.1198 21.9001 8.67778
37.4179 14.9932 6.12331
48.4301 22.887 10.7106
72.914 28.8948 12.9698
49.5759 18.2333 6.25701
52.5367 20.5035 8.97947
63.8477 25.4598 9.96359
88.8745 35.0806 14.1791
40.4969 15.3042 7.18021
58.7064 24.6745 9.66446
29.4519 13.8379 7.12491
38.8695 18.0963 8.06514
39.2764 19.6655 9.76057
69.3424 25.4667 9.6362
71.2373 32.1079 15.0533
43.5593 16.7145 6.78833
35.3053 14.3518 5.13177
20.3057 11.5849 5.33523
31.4413 16.0559 7.44351
49.3408 21.4379 10.1051
54.3343 24.5702 12.2933
66.8763 27.8175 10.1413
60.0975 26.5384 11.6053
45.7574 23.8708 11.5369
56.4631 24.3596 11.9692
46.8419 20.4216 8.70394
44.0298 22.9955 13.4106
29.2437 14.3807 7.37703
45.2516 17.7319 7.03379
61.4073 31.9711 13.9243
37.2353 20.3862 10.035
46.6401 22.2401 9.57543
51.8037 29.5134 16.2602
60.2247 28.2136 13.6993
28.6005 14.9081 8.37663
41.664 17.6795 7.93683
26.7697 14.4328 7.68017
36.9253 20.281 11.1268
44.6016 26.0572 13.9031
80.7307 40.0964 17.421
15.6839 7.04631 4.01679
52.355 28.0864 13.3633
69.9169 41.8888 23.1324
45.5012 22.6576 11.2564
42.1221 24.2773 14.7138
32.5764 15.0859 7.69525
34.2777 16.0812 8.33108
48.879 27.2535 14.874
25.404 15.5941 11.2059
43.3221 22.4923 12.8683
38.6885 17.6655 8.85438
35.5543 19.4059 10.5553
23.8416 10.0139 4.57528
35.5081 18.2515 10.2349
72.1195 41.0008 23.8733
54.8673 29.8103 16.2941
76.1477 39.824 20.9799
29.5096 14.8662 8.55022
45.8092 28.4523 16.5229
38.4517 22.2679 13.8976
41.2195 24.743 15.7566
36.8661 21.335 12.0696
27.0043 13.2303 7.87443
39.6637 20.3066 10.1066
73.6756 40.9771 21.5622
23.5982 15.0125 10.1024
34.4893 17.6089 8.78614
47.2824 30.3811 19.1886
67.1168 36.79 20.8598
31.6603 27.5153 21.6657
28.9331 17.3694 13.3692
70.2214 34.6249 14.8456
32.6613 22.7492 14.3606
39.501 21.7261 10.7023
42.8497 27.5762 16.8019
33.3136 23.9268 16.9998
48.6251 29.3665 17.9472
69.1996 44.8581 28.7069
41.2466 26.1471 20.004
62.732 30.7127 16.8048
41.4369 24.1933 11.7886
34.5282 26.8402 18.8532
56.7184 33.6558 18.3428
38.7817 24.878 15.8299
40.7905 28.7218 18.6853
14.9158 11.6879 10.4319
23.8276 13.8354 9.8699
43.9062 24.5947 14.6851
57.4661 39.8409 26.1257
40.0703 25.9998 16.3775
32.5996 22.7167 16.5177
27.9635 16.6681 10.3797
45.7064 30.9131 20.1392
27.9338 21.8459 17.2871
42.3552 22.6002 14.2884
26.6253 17.9622 12.6195
23.3446 12.345 6.71259
20.1486 13.9724 11.1482
31.6724 21.0354 13.7068
53.0472 40.2569 27.3616
45.7739 31.1295 22.1727
11.5402 8.84778 7.95416
43.8855 30.2794 21.5509
33.916 18.9075 12.6404
88.5288 65.9058 45.1581
28.2831 17.9809 13.4843
20.119 15.2725 11.456
24.299 17.912 15.1863
41.5046 26.2728 17.4715
37.0367 30.7782 24.6717
38.3883 30.1999 23.689
22.8216 16.6369 13.7563
28.7178 17.8859 13.7533
31.4997 22.3761 13.9195
17.9148 12.9814 9.31463
30.2459 24.92 18.9126
11.4361 6.64605 5.42508
27.7262 27.8386 22.3448
34.9653 21.4235 13.1796
37.0991 31.5381 26.4125
19.7281 21.191 20.1032
28.5912 16.1647 10.922
30.0077 23.4832 17.7442
17.0145 11.0616 7.27976
17.8464 17.5913 15.7641
22.3886 13.6091 10.493
41.9911 27.9632 20.1071
20.8986 14.6377 12.4925
36.2283 24.3752 16.6198
40.9146 33.5395 28.8509
23.1735 14.4626 11.4872
54.8908 41.6982 28.4823
19.3749 20.8665 20.6408
36.7287 33.8298 32.786
20.7798 14.1428 16.2554
87.6809 78.2956 58.1585
25.1614 20.04 21.2569
51.1836 37.5322 26.7521
20.15 15.4378 14.1743
18.2452 13.0372 9.90963
23.2891 20.9167 17.8332
41.1533 37.5615 31.6667
23.4269 22.1622 20.6617
24.5754 17.416 12.5896
34.4696 25.5139 19.5138
18.261 14.93 12.8605
21.6091 24.7061 26.2052
54.2826 34.9205 22.192
28.4207 32.8317 31.7506
44.1362 33.7019 29.5536
26.2954 23.1157 24.1826
42.7685 37.431 30.5825
35.0987 27.8159 22.2204
39.7399 45.5059 46.2841
35.3162 22.6211 15.672
28.5387 24.3861 19.0445
14.553 19.6981 22.9175
28.3779 23.1805 21.3765
32.5577 32.9633 35.1276
27.7076 21.6784 17.6775
27.496 23.5398 20.6885
29.1857 27.0124 20.4198
12.9004 17.7519 20.1143
21.1705 17.9106 19.5208
34.2102 28.2565 22.1439
20.7125 21.1817 22.2004
7.7393 7.86872 11.7826
18.1778 17.2349 17.9081
37.0652 27.7572 23.5788
34.5786 30.8845 24.2426
24.2719 26.8301 30.1665
25.2742 20.8364 16.4391
20.6066 18.0835 16.7058
24.5637 22.9114 18.3477
21.6359 25.5491 30.7434
37.3034 36.3133 30.7851
31.6906 38.9357 47.4259
31.9605 25.3851 22.889
14.8841 10.4213 12.3304
39.5051 39.7796 39.9524
25.0418 19.4793 16.185
20.5935 21.0377 25.4181
30.1634 21.4956 14.4381
30.5095 28.0716 27.136
88.1039 87.2832 73.1358
20.6708 23.6203 23.1485
8.60563 12.3515 17.2045
20.4199 27.2 29.9721
33.4409 38.1727 44.1336
31.0702 23.1808 19.528
44.3956 43.7575 41.602
24.7554 28.0588 31.5033
22.3402 21.815 23.9731
30.3454 27.4537 27.4235
43.7843 58.2423 62.4363
28.9172 22.8096 25.7168
24.1493 20.8135 18.2326
24.6825 21.1604 19.5286
27.6541 31.0715 34.8435
33.8046 33.5526 31.4726
22.608 20.007 18.5831
24.6916 25.5897 25.5724
12.4639 17.0743 24.2681
19.6912 24.9315 31.1425
29.0875 21.8717 19.0533
21.2717 17.3308 14.3251
31.025 39.2239 42.948
11.7737 13.1218 20.2084
18.253 15.0472 14.1329
33.5136 41.511 45.1796
15.9017 20.8486 25.9593
22.0909 29.0777 36.8698
27.1463 19.2288 17.2487
34.4793 42.7374 42.9877
19.5332 12.265 8.29927
8.77221 9.36698 11.7582
37.2548 48.8732 58.7634
47.713 49.2624 50.8751
15.221 19.0478 26.3867
28.7561 42.0263 54.7626
39.4731 32.9593 24.9356
20.8804 36.1003 54.0906
52.7441 43.275 33.7806
35.5072 52.8132 70.5509
52.1241 58.5654 68.9132
21.6854 23.7398 33.8271
29.6703 26.0494 23.9901
32.1182 37.674 38.2512
24.0154 31.6652 38.7044
18.7978 27.7462 41.4761
41.8331 46.9538 42.8485
13.2155 13.7374 16.8385
13.8119 17.833 22.3049
11.3622 14.6926 19.8811
28.7511 35.9715 37.2344
16.4151 23.7014 30.1903
13.8092 17.8268 25.3678
22.1364 24.6933 24.8811
21.7783 39.7727 57.3366
25.8252 23.8942 32.9417
24.7785 24.3944 27.7977
22.3174 16.8299 11.0685
31.5583 47.2054 56.0161
41.1985 55.7386 67.2074
24.4449 34.5876 50.3515
19.8658 24.0949 39.3727
39.0851 43.058 47.261
19.1717 20.1749 24.1576
24.3112 31.8835 41.3556
28.5072 33.4095 46.6791
24.3461 28.3626 32.1416
32.1796 39.7876 46.1857
26.5155 31.5638 38.8333
28.3813 34.0186 40.8335
25.7622 30.5412 39.0431
18.481 21.1161 27.8617
14.1078 15.575 17.1839
17.2063 27.61 38.2761
14.5936 14.1679 18.8843
9.63335 13.0213 25.9801
50.0874 70.1369 80.6539
30.1971 33.8675 43.7682
39.3873 51.3951 65.3732
26.2218 32.5538 44.6251
14.2845 17.3957 25.9714
20.78 25.6258 32.888
19.0022 23.4348 26.1118
15.8816 25.0783 38.0924
27.4385 35.3259 50.3866
24.4482 25.3877 24.5534
12.4613 19.1463 33.2447
30.938 37.0249 39.8972
17.1657 24.0282 36.8541
33.1734 58.3444 82.4883
16.8977 11.4651 11.416
18.756 32.9414 56.4036
36.7583 44.2607 50.8113
22.2704 42.3998 74.8183
35.1955 33.824 38.9746
30.508 37.5859 44.6
34.0739 52.9911 64.3465
6.74433 14.6708 38.9399
32.1216 42.6032 59.2429
27.0878 28.4252 34.3253
18.594 19.9664 21.1092
15.7014 25.5664 36.5899
24.6728 33.3431 40.3264
9.56661 18.9298 36.0766
13.1752 15.2947 21.6872
9.85158 16.1352 34.1489
33.0598 41.8158 40.6647
17.7528 24.4176 28.8885
7.34594 24.9112 59.254
31.83 28.2442 25.7533
13.9572 25.3166 40.5509
21.3534 29.9809 40.6471
12.6104 16.3053 21.6846
9.27473 19.1921 31.4921
7.86544 12.0381 25.1298
18.7441 19.3264 21.9399
20.2987 33.2755 47.1686
16.7676 20.356 27.0337
15.9623 31.8906 52.9335
26.498 43.3379 75.223
25.3417 31.1862 43.348
14.7921 19.7253 33.0729
22.0316 26.2782 26.5031
10.0382 17.4292 22.064
7.17887 10.0109 12.6559
15.1447 33.7082 58.5441
16.2841 14.4857 18.0099
16.9713 26.6714 32.9255
6.73729 12.4063 23.9305
25.2593 41.8668 61.7111
15.3553 20.3301 36.2674
21.6528 23.9582 18.999
11.0237 30.1324 56.2253
16.1137 14.8391 19.4817
20.8971 37.4719 59.4739
23.7421 31.3536 39.503
12.9283 28.2899 53.3419
12.4672 20.2242 39.6485
16.2013 19.3787 26.977
21.5951 41.5199 63.9384
20.8831 30.8516 42.4334
9.88195 15.467 29.7826
12.5695 16.0515 28.234
26.0172 37.9805 49.3375
12.4144 21.3381 38.5137
28.1624 48.074 69.5445
13.3385 25.7589 52.6284
16.3605 22.6757 36.3174
7.39495 12.1576 38.2569
26.8427 37.5844 44.4748
6.93883 11.3037 25.1189
15.3426 23.0282 32.9558
9.92917 14.7919 18.6583
9.83468 22.2954 48.2247
15.5555 23.3162 41.2213
26.4667 36.2228 44.6553
9.73262 16.3549 34.53
15.1404 25.7686 40.2626
5.61857 10.688 34.1861
16.6479 16.4842 15.6962
18.6097 36.4475 49.3599
10.4781 17.5806 26.6214
4.36062 12.5445 31.6341
12.5414 15.5942 30.3221
15.8719 20.8172 25.3293
3.43453 5.08309 6.7742
5.83102 17.5356 45.0147
20.4302 25.3463 28.2844
7.56998 14.2775 20.0407
7.66554 21.2021 38.4145
8.09213 15.2263 35.2703
15.7294 19.1013 30.2463
17.108 24.1214 33.8571
13.9228 29.3413 50.925
11.0958 20.1405 37.5231
9.00614 15.6927 35.4732
15.771 20.1667 25.5691
9.15597 14.5013 20.5969
8.44192 15.4142 27.9988
11.5341 21.6568 44.6564
17.5703 33.6705 55.7674
13.4006 15.68 23.6089
8.10077 18.5004 41.1844
12.2698 15.7345 23.9504
10.6403 18.9084 40.1081
15.5925 26.196 38.5521
11.2695 18.5535 28.8061
4.73869 9.87627 21.3589
14.0349 26.4409 43.0785
10.948 23.6328 50.1733
16.1365 27.2558 55.2208
13.5349 19.0376 36.4633
24.6156 44.4794 72.6548
16.5004 22.1431 24.3787
13.5058 30.4705 52.9709
7.97607 14.8323 30.4148
14.5686 35.1417 66.4033
10.7334 14.933 28.0258
8.54213 15.1636 32.6511
7.76787 16.8338 61.0896
42.4215 59.3106 67.442
10.4291 24.6438 50.0975
18.8038 36.2237 63.8908
6.8953 9.53897 17.7031
9.26046 18.465 28.3964
6.36595 16.9955 46.6776
12.4302 23.0855 37.8781
11.6958 22.6771 47.9202
10.8969 15.2486 24.2298
12.2516 22.5717 33.252
11.666 30.0747 65.903
11.4521 19.2225 44.7735
9.75947 11.5328 26.7262
19.1036 36.3886 56.2504
13.2645 28.5982 47.2422
8.1605 15.5334 27.1121
5.16105 10.0387 23.0146
12.3855 26.2941 46.4225
7.3923 17.115 40.0382
6.43022 10.3756 35.7684
18.7039 30.4289 50.7539
17.3444 32.7548 56.5136
14.2972 26.9137 56.2967
22.7779 40.6286 62.5079
26.2206 70.3949 153.779
24.886 35.018 54.3886
4.09811 16.307 79.1017
28.4013 33.5336 25.0251
13.1995 39.8751 74.3405
12.4171 21.7209 41.6442
10.349 23.5865 61.3465
15.5051 15.7896 25.2312
19.1319 33.1276 42.3127
4.6702 15.2961 41.8378
11.8134 34.2843 94.0562
14.7653 18.0905 38.448
15.7464 30.1054 55.6108
19.5034 33.5891 30.2175
10.2077 51.2493 127.516
16.3514 27.5503 74.1306
16.9756 28.0131 78.0603
25.8228 31.1643 40.6472
17.7106 34.5769 56.4794
16.3761 39.6942 68.7514
5.17222 12.5364 52.2087
20.1051 28.6661 27.6033
7.64573 19.376 28.0765
6.98966 21.3729 59.8916
10.732 19.2625 50.3412
21.7221 39.0647 46.4514
7.23561 23.5187 55.4493
11.2744 25.6801 56.7518
6.88088 10.391 30.8521
13.524 30.7574 54.3433
9.12419 28.4534 102.529
33.3503 49.9527 69.3993
8.69442 18.2873 36.0084
11.045 20.7803 46.0072
15.9083 28.7069 33.4216
4.23104 14.9784 31.7984
5.2684 25.7023 79.912
13.2269 20.4124 57.3195
12.4557 16.5126 39.1901
18.0812 27.9059 46.8624
20.7613 49.7217 92.0158
11.8931 21.3542 44.9716
9.76519 16.5327 28.0055
9.40461 21.1793 32.4782
6.59439 25.5963 73.579
12.9175 17.1024 30.2188
10.3722 23.2785 45.9874
10.1153 21.8629 44.2325
11.7073 36.9963 96.1954
17.145 28.8615 61.031
11.8359 15.8301 32.0761
15.2986 35.8796 66.6357
6.1819 12.1433 37.3795
6.51575 10.8202 23.3977
6.81443 10.833 35.452
16.3632 34.3218 50.6177
5.8462 12.4504 29.0921
12.191 33.4331 54.5526
8.39547 34.6727 116.035
20.9365 26.426 40.1621
6.65385 21.55 85.7821
27.5937 49.0201 71.0694
11.0465 28.8973 68.6432
9.84973 13.9119 24.771
10.2494 32.2458 83.1739
12.5 13.222 12.1512
8.71035 23.6165 44.844
6.39411 13.187 27.0924
7.25005 24.2565 61.2623
9.52587 23.732 71.9568
11.352 15.5883 22.7447
4.43185 12.9103 36.7581
10.3565 23.4066 41.7885
4.01372 14.4521 44.4235
7.47596 10.9848 27.0438
8.0032 16.518 43.6981
11.8653 21.9974 32.3009
8.44512 32.2822 90.4795
15.6727 26.0089 56.3217
15.5558 36.075 72.1008
7.37083 16.4071 36.0623
8.35111 24.0434 62.9101
11.7134 36.1234 89.3046
16.3025 28.7192 58.2829
12.2174 34.8372 71.4419
7.35104 23.6431 99.4367
19.5882 19.4608 18.222
9.87708 26.2149 53.4591
9.41859 21.0223 51.7795
11.089 23.6321 44.5585
9.09779 22.369 41.1786
8.66175 36.0979 116.612
18.1615 26.7998 45.5162
7.59968 15.9614 47.5068
11.3712 24.2169 38.755
7.2934 18.7366 40.8561
9.70391 32.4131 80.611
12.3558 25.0167 58.5388
8.00308 13.1106 21.2051
3.49633 11.4893 34.0752
7.66017 23.5376 68.6693
11.8278 19.8789 25.8117
3.43958 14.5981 58.2609
13.7737 24.9938 35.3936
9.42743 31.4749 66.4092
9.55301 29.7335 97.5134
12.9564 20.8427 33.6895
6.29102 22.0699 83.9792
18.0236 34.1158 56.7528
6.47033 14.5657 32.9161
6.69434 16.1986 37.8069
10.1714 30.7008 73.4048
4.73251 5.29386 24.8067
6.17159 10.316 27.158
10.8821 28.2965 55.9369
5.53606 11.2244 28.9495
9.28638 23.9957 38.9393
3.36903 18.2245 64.906
6.68724 9.74274 34.3248
9.35456 21.3707 64.151
17.3733 39.6024 69.885
9.62713 21.2611 37.753
2.48566 11.6713 46.0467
6.02854 12.8109 46.3065
6.85329 10.8542 22.0936
