# pn-170911/RbIIR-44-KOKB-1280-1959.psd
# Power spectrum* (dif=0,1,2) (really just |FT|^2)
# NOTE: only the first half! (symmetric)
# weeks: 1280-1959
# 6 clock-days, 0 excluded
# PSD: 1441
331.168 0.0738148 0.00486997
55227.9 2.06301 0.00311625
100490 2.77841 0.00351648
37789.5 1.36233 0.00341325
31812.2 2.27038 0.00368714
26775.3 1.11404 0.00368529
8049.63 0.581456 0.00309527
4221.3 0.490967 0.00308182
4874.8 0.854392 0.00336723
4983.99 1.01301 0.00317263
3333.53 0.811361 0.00397294
4344.25 0.949029 0.00299781
1963.24 0.358238 0.00381205
1870.39 0.405228 0.00270769
1956.49 0.606173 0.0023877
1668.09 0.743865 0.00420225
1261.58 0.622696 0.0043376
1543.89 0.771247 0.0048431
1099.37 0.589568 0.00359822
1112 0.90586 0.00348384
1734.98 1.51567 0.00782554
1006.79 1.47501 0.00263229
941.652 1.83093 0.00605622
924.217 1.05724 0.00670649
1207.02 2.71569 0.01073
720.682 1.45545 0.00435715
1155.45 3.8739 0.0096164
802.496 2.20199 0.017063
1074.45 2.73372 0.0187245
794.008 2.07436 0.0118418
797.753 2.70141 0.0111278
472.334 2.44844 0.019046
310.927 0.794598 0.00588003
782.647 3.26825 0.0191702
768.046 3.34325 0.01768
562.956 3.70925 0.018466
1176.51 5.13246 0.0300811
852.68 2.86524 0.0233468
886.769 4.17587 0.0385597
466.136 3.7823 0.0348657
619.337 3.81097 0.035077
982.224 6.33765 0.0479467
520.846 4.48881 0.0483962
574.137 4.70715 0.0474124
547.206 3.89352 0.0374549
396.186 3.05506 0.0364826
452.056 2.6124 0.0203934
489.448 4.1625 0.0506911
470.378 4.05182 0.0564954
497.952 4.89545 0.0563251
397.901 2.80046 0.022074
655.936 7.69857 0.0946131
631.95 6.03315 0.0755135
369.586 5.70748 0.0895829
258.121 5.05604 0.062153
336.021 3.65032 0.0648774
616.032 6.37533 0.0948715
683.768 8.6786 0.11687
558.34 8.25065 0.133712
875.906 9.92758 0.178292
240.301 4.93345 0.10121
420.805 5.39498 0.0893265
247.931 4.35774 0.0921757
903.639 12.5699 0.246445
375.145 8.39167 0.17187
416.47 4.70512 0.102413
389.601 6.54766 0.150481
420.858 8.12991 0.192624
365.322 7.32704 0.181118
376.491 10.046 0.210126
220.518 3.92828 0.0882066
345.364 7.54452 0.194262
179.986 4.10554 0.10486
487.208 9.41315 0.232083
251.053 4.99551 0.151924
353.313 7.07725 0.235795
199.866 5.15192 0.126932
358.334 10.4324 0.30353
195.159 5.27255 0.151361
214.895 4.60664 0.147198
357.486 10.1712 0.312894
319.317 11.9721 0.397331
375.799 11.2462 0.407598
307.907 7.68199 0.248561
416.278 13.1359 0.436828
429.789 15.7135 0.597551
263.983 7.57939 0.264984
326.607 12.0179 0.429296
110.637 3.34507 0.123872
382.357 10.6661 0.423365
150.96 4.35025 0.162253
271.242 6.85766 0.239086
242.363 6.42044 0.274228
150.222 7.26079 0.330594
249.402 5.53621 0.204463
224.406 6.88746 0.330851
554.153 22.3596 1.00057
118.987 3.90552 0.20432
249.026 9.59234 0.463224
246.509 15.1767 0.761362
206.772 5.81802 0.275596
233.713 8.53097 0.451483
233.456 11.2953 0.582717
98.7531 2.38122 0.131755
435.845 20.3517 1.09645
276.725 11.4085 0.580195
88.3773 4.01714 0.23891
247.139 10.0012 0.473696
208.186 9.27206 0.479324
363.419 18.7936 1.07574
131.714 10.3842 0.583258
254.42 14.8047 0.835274
246.027 12.6853 0.756928
170.433 11.0199 0.612185
311.492 16.1715 1.02448
215.861 10.6193 0.636156
234.95 13.0792 0.833577
137.792 9.61367 0.664825
233.602 17.3938 1.1885
103.739 5.53568 0.458962
370.759 18.4825 1.15007
262.326 17.2116 1.13571
130.193 8.32356 0.620258
275.561 14.3344 0.907914
223.6 13.2911 0.926458
123.174 8.70581 0.674134
219.89 14.1296 1.02671
406.356 28.7687 2.265
78.6029 6.05629 0.414932
287.935 20.3137 1.62645
192.458 13.0272 1.01302
117.387 9.32162 0.848608
151.953 14.9191 1.35261
230.187 16.2255 1.24585
244.075 18.0076 1.59876
129.078 13.5402 1.1291
84.4456 3.48109 0.242645
277.851 23.5395 2.06579
199.995 19.0903 1.7197
90.3387 5.51028 0.502379
109.915 13.0391 1.23973
184.202 13.782 1.33272
174.515 15.0384 1.38441
163.603 13.573 1.27816
125.025 12.8867 1.22766
102.146 7.61454 0.823806
130.381 12.4677 1.17498
124.883 10.974 1.2054
105.445 10.5935 1.07583
155.065 13.7687 1.56815
182.496 19.6698 2.11602
306.927 32.9727 3.15444
146.545 18.7413 2.19935
79.6212 9.08747 0.952074
95.7812 9.15506 1.033
91.6453 14.1369 1.67039
154.735 18.2028 2.08874
180.574 17.5907 2.05394
164.77 20.0064 2.27728
25.9024 3.99898 0.479629
127.513 17.3331 2.30755
81.1615 7.74229 0.835796
187.635 22.3886 2.77334
54.7598 9.01826 1.2136
89.1983 9.86717 1.26458
184.553 25.676 3.56638
196.063 21.9616 2.78851
72.3892 8.15318 1.16275
102.815 11.4492 1.55793
126.046 14.5504 1.73035
92.207 9.36599 1.0941
167.508 18.6017 2.55056
36.6554 8.33498 1.33809
142.684 13.6671 1.81766
102.267 11.2734 1.46273
63.6467 10.188 1.51512
100.548 12.6619 1.92591
133.922 17.2077 2.48654
94.7144 11.2668 1.61977
100.376 15.7782 2.53652
58.4987 9.06035 1.34329
109.418 12.8988 1.9173
103.821 15.4438 2.4586
70.6882 10.8378 1.7194
150.079 21.2134 3.42918
70.9832 8.90467 1.3673
194.041 32.2474 5.35872
97.2945 13.1824 2.02041
76.4823 9.16316 1.4457
93.5132 12.4414 1.90199
164.395 26.0453 5.20994
86.8123 16.4315 2.53157
78.2813 15.033 2.55492
136.346 22.9807 3.85237
74.8101 11.4481 1.87583
52.977 10.1457 2.10712
107.759 22.3879 3.95368
42.477 4.28853 0.782538
81.7911 12.0204 1.98129
74.9778 17.35 3.38942
116.893 18.2542 3.83104
100.397 20.835 3.73784
80.4031 15.2757 3.04626
54.725 11.4411 2.25242
131.836 23.1161 4.1163
27.4056 7.43447 1.70074
120.377 27.9614 5.46826
31.8307 6.61578 1.34146
91.6717 18.9048 3.8117
87.8308 15.6094 3.59021
50.1532 11.2134 2.23002
174.234 32.1394 6.52461
120.414 28.408 6.12659
60.3098 14.1574 2.97245
44.721 8.74422 1.93179
25.4154 7.66361 1.88036
107.236 19.0863 3.92563
48.1401 11.9363 2.93867
64.9457 14.6196 3.08933
125.155 25.6157 6.00757
54.5539 10.9999 2.95641
75.6441 16.5309 3.18163
48.0212 16.247 4.51898
156.567 28.7188 6.11383
123.035 28.2658 6.74063
55.8148 18.3383 4.67414
80.5479 17.7318 4.64613
90.0362 20.7223 4.83454
68.8193 11.7322 2.77108
73.1344 13.5265 3.49423
141.106 30.646 7.63091
88.9097 19.8001 4.46477
24.1175 7.1256 1.62795
41.1549 11.1694 3.32305
44.7654 10.3602 2.41923
65.4073 18.0221 5.01866
93.6946 16.6814 3.55257
108.784 22.9982 5.53536
43.8365 16.0077 4.59593
80.3273 17.8775 4.94502
38.9918 11.354 3.11872
83.8725 21.1942 5.40661
76.2222 17.8823 4.7904
86.9179 20.6957 5.42507
39.8062 8.33672 2.23516
84.4308 19.1163 5.33754
79.2369 20.6251 5.71562
40.5477 13.6896 4.24638
110.641 26.2082 7.31355
50.3877 11.574 3.70081
47.8527 12.7966 2.83687
33.8944 10.355 2.94931
58.6945 16.8106 5.2357
20.4654 2.28155 0.498972
90.309 24.0811 7.66838
59.2152 17.2523 4.94163
57.6384 17.9559 5.80786
69.4543 21.7314 6.58336
68.1621 16.1263 4.70834
48.7541 9.95792 2.81284
93.174 23.0685 6.80354
62.6293 16.332 4.9989
51.6678 14.1982 4.68222
28.1805 10.9562 3.9705
50.724 21.0822 7.1085
41.3454 13.4779 5.07101
71.6171 16.8027 5.20763
49.2805 16.0789 4.98046
21.0298 8.63032 2.9245
53.3623 11.1524 3.3952
32.4225 10.7093 3.41199
63.5744 19.5886 6.94457
76.0895 20.0609 6.64092
42.3755 9.35685 3.13248
35.9861 12.2479 4.29096
34.3803 7.83239 2.65476
50.2641 13.0327 4.10909
66.4255 20.4079 8.48704
56.3254 18.4384 5.89641
53.1292 22.9471 8.74694
43.3752 17.9711 7.31901
35.9106 9.93528 3.64412
43.3082 16.9018 6.6476
99.9149 30.506 11.4528
36.4467 14.4682 5.94215
50.7856 18.7781 5.33683
38.9169 18.5274 6.64794
28.3698 13.6118 5.84201
97.4781 41.5135 16.9301
69.3181 18.5993 7.1485
88.6482 24.8952 7.73132
33.78 11.2525 5.16776
49.8384 19.4883 7.15835
57.5622 22.9866 9.56854
49.3294 16.4697 6.59349
47.9978 22.2269 8.94353
62.0219 25.0831 10.3948
54.2213 14.7897 4.66478
33.5051 17.1044 7.88858
37.5689 9.62272 3.4902
36.819 12.5376 5.57276
26.6135 10.747 4.50705
11.5573 3.88049 1.74645
13.9103 6.60473 2.23049
83.8746 35.987 16.1721
10.4335 6.61988 3.77212
45.5362 19.1174 8.79646
31.1688 9.09714 2.44497
44.5115 18.6808 7.7598
34.7155 10.5368 3.8922
32.9838 13.7653 6.75184
34.177 11.2777 4.79498
27.648 14.0225 6.95129
54.1284 19.2424 8.09479
36.4002 13.7219 5.5323
33.2536 16.3648 8.74192
36.4341 12.7737 5.11288
49.0579 22.5989 10.0697
24.1207 9.72755 4.68048
36.3262 18.3351 8.57555
29.0217 13.6428 6.4137
28.9256 11.7336 5.83446
30.414 10.7434 5.67796
93.4822 37.1468 16.6807
41.1562 17.9286 8.59053
17.0665 9.5446 4.46243
44.8365 21.9125 10.4721
30.3743 13.0591 6.62026
29.7349 12.833 7.24986
23.8833 12.1125 6.65553
27.0282 10.8508 4.56478
29.448 13.9305 6.82352
11.9146 4.43796 2.13498
32.0652 17.1531 10.7871
28.0349 14.5367 6.84959
19.0465 9.18808 4.42014
26.4052 11.7565 4.86773
18.2087 10.2909 4.9191
45.9689 29.9071 15.2818
17.7128 10.6983 6.25516
16.1685 8.13942 5.66627
24.1722 13.0579 8.02485
30.0135 16.2136 7.42924
22.4643 15.1399 7.67567
37.8002 16.0882 7.37538
42.0126 23.6625 11.6908
25.1229 16.2269 10.0336
25.2374 14.8395 10.6744
71.4718 44.0004 21.7466
13.3464 6.29643 4.71996
44.1627 23.9523 12.8502
39.4681 15.3586 7.20817
39.7332 28.3029 15.4453
18.5006 16.9072 12.6091
23.5112 8.82738 5.73826
28.0631 9.47762 4.49494
21.4287 10.619 7.53767
70.8824 28.0861 13.32
15.6655 7.22162 3.60511
14.161 13.9815 10.4457
36.4065 10.895 4.14807
37.9065 19.1784 11.8073
31.5046 12.6511 6.39177
24.958 11.5661 6.09711
33.0482 18.0787 11.4702
16.2159 9.1425 5.58005
35.0732 22.9043 14.0816
21.3562 11.941 6.53823
20.7098 15.0757 11.6746
55.4093 28.5157 16.1797
20.8386 12.4089 7.1362
28.3794 15.3069 8.58146
26.6402 16.7115 9.69493
14.032 12.983 12.3553
55.7615 24.9666 13.6823
30.1928 20.2479 11.8239
41.8008 30.6021 19.4177
18.1625 8.92949 6.12869
23.4101 16.1256 10.2782
13.4918 6.44174 4.72009
32.4834 21.4922 14.6043
23.4273 21.1643 14.7296
29.9972 12.2293 6.81351
10.7826 8.66737 8.55785
49.5588 19.421 9.33074
45.5328 28.7197 18.7983
18.0587 10.0537 7.05593
21.3061 10.1276 6.4962
30.2861 20.5118 15.5974
26.7782 15.4795 10.4787
18.484 11.1093 5.73704
31.5673 17.0291 9.89224
25.2829 17.526 13.3777
19.8301 12.5043 7.09493
11.7858 7.34587 5.6006
12.1072 8.40232 7.23213
9.19053 4.41602 3.51041
15.5869 12.5693 9.62557
25.5725 14.6928 8.2139
15.1834 15.271 12.2753
14.0414 5.9264 3.25005
27.5188 22.8482 17.9077
21.4711 12.2142 11.3235
70.643 39.1756 23.8553
13.3158 7.79646 5.94234
10.3033 9.05327 7.71869
18.4786 6.84392 3.80609
23.5563 16.7288 12.0497
14.1067 12.0889 9.34969
15.3834 10.0684 8.3682
27.9638 22.0533 17.7035
27.7342 15.1769 11.8112
58.9547 31.3446 18.9782
37.162 23.7033 16.675
16.7594 10.8442 9.34581
25.5124 17.6302 15.1349
9.43351 9.52633 11.3806
29.8853 16.8811 9.12536
12.6027 11.6483 9.86184
15.0648 10.9952 7.23292
14.8652 15.9993 13.5707
8.83117 8.18771 8.43835
44.3417 27.8056 20.1964
14.0706 12.759 12.965
30.4786 23.1872 19.6416
25.3094 18.1191 14.3375
13.742 11.5933 9.7564
18.5699 12.9872 10.9311
20.1184 16.122 14.8318
25.9138 13.0576 8.55007
21.9895 15.9508 10.3816
42.4694 31.7639 24.0045
16.1031 15.2757 16.1556
12.9945 10.3403 10.6436
25.7119 20.8881 14.2395
24.0211 24.2371 20.1233
22.4374 17.7629 17.8551
11.5548 7.27406 6.41303
13.6051 12.9777 13.4958
45.5734 28.8047 17.1063
16.5007 15.8411 15.5449
20.6561 19.2007 19.052
24.7234 19.4403 14.2844
25.167 17.0987 10.1115
9.0778 15.0239 15.8143
12.4226 9.15651 8.66302
9.08037 4.46409 3.2399
12.9592 11.956 10.2858
11.3709 9.03744 8.64871
9.24655 11.8451 12.6633
24.6473 12.1933 10.0822
23.9642 15.6979 10.5814
15.2151 11.2091 9.65467
22.0916 22.7611 20.7893
15.5436 12.5546 12.0648
14.172 12.8503 15.9094
27.6074 19.9293 13.7537
11.4541 11.7611 11.3673
19.9717 12.1094 9.17956
15.0872 12.0445 11.7658
26.4907 23.5788 25.8365
11.3356 6.98298 4.38242
20.3362 19.0958 16.9728
14.8176 15.404 16.7674
27.1791 24.5048 17.2739
11.4566 18.8714 23.1501
11.9024 5.78897 6.90336
9.9776 8.44043 11.3869
30.8864 22.2307 19.8387
19.0466 9.89975 5.76948
27.9417 22.42 19.3351
12.6228 12.6045 14.1028
24.5593 26.5402 33.0446
29.2008 21.8469 16.247
15.1078 15.2356 13.39
21.915 23.2027 23.1005
25.6656 21.6924 18.9204
13.4238 13.146 16.1829
24.5508 21.9754 20.0887
10.6624 6.70107 6.80453
43.2977 48.7126 48.8498
25.4165 27.2609 24.0258
14.1714 20.0969 25.862
10.8009 13.1938 13.8352
9.17915 9.9293 14.1878
25.8492 21.3919 16.5933
13.9427 9.49527 8.44309
15.2652 18.9686 24.8721
29.2228 28.1712 26.7192
16.2452 13.5291 16.9254
16.7007 19.4499 18.2126
12.297 9.41161 9.44796
25.4972 26.0881 25.1166
10.4744 9.85424 12.3968
27.5382 35.0814 37.1597
14.2077 10.1091 7.50575
4.62294 6.13269 10.0902
18.5062 16.4409 16.5285
10.5319 13.6742 15.3016
17.9575 17.7476 15.9989
10.9185 14.8876 20.1065
30.1554 31.7642 31.631
12.9531 14.364 19.2408
16.9259 12.1288 11.6851
12.6803 17.0846 19.2124
14.9504 14.6309 17.8057
15.32 16.8065 16.9669
10.7512 8.20162 6.20863
12.7305 16.5074 15.2268
7.95377 11.7713 13.2591
8.79039 15.9865 24.451
15.5679 13.869 21.7459
41.5673 39.2081 33.7226
9.89865 6.89351 8.49003
11.2278 12.6118 16.1042
15.5958 11.7272 11.5371
10.2504 7.70617 8.07469
7.36724 10.8421 14.1069
9.70332 5.90752 6.1072
9.12279 6.74549 8.85553
15.0245 13.1469 13.4192
15.8733 16.1303 18.921
19.9825 17.9288 16.5797
7.831 9.71238 13.2435
10.7286 11.998 10.6607
9.57062 11.8534 16.1226
13.5288 16.2544 20.9886
4.20912 6.71352 12.7941
10.8173 12.4508 11.6562
8.09352 6.28078 7.87283
8.11856 9.89502 11.0104
9.80962 10.9265 13.0843
7.76057 12.5624 18.6666
9.67536 8.73689 11.9806
13.6576 12.1031 14.0982
10.9638 7.81677 6.48426
20.2912 31.5218 42.008
27.643 24.08 24.5009
12.9322 17.8444 26.6824
16.5152 19.4394 20.2699
14.8828 15.3898 16.865
4.54566 7.99929 15.492
13.6166 15.8703 22.0155
10.5264 9.81345 14.8891
9.75245 11.4486 8.45343
8.31279 11.9898 15.4265
23.4852 37.004 36.4646
2.78449 14.0785 28.9406
21.6019 18.9891 21.1919
8.79833 6.53686 6.86539
8.54897 7.36453 8.95294
8.54486 10.4364 12.9878
6.32984 4.97579 7.87746
17.3842 18.3295 18.4269
5.15641 7.15325 12.7862
11.1523 13.1953 18.9728
11.4415 11.0339 14.9038
7.46489 9.13 15.2868
8.13436 8.64009 9.18683
6.38441 7.75296 9.23258
5.33655 12.5785 19.9276
12.5065 16.1773 27.8414
15.4135 16.8729 14.7565
15.4254 32.8192 50.6459
18.3158 17.2664 17.6706
16.4388 21.1054 26.2906
9.95813 10.2217 15.1876
10.7233 13.0026 19.0872
7.21263 7.6283 10.0468
8.69193 12.3857 11.7763
2.37045 5.06906 9.52137
7.65221 11.4283 15.7867
6.97425 8.23921 13.0594
10.2306 12.254 17.0381
21.7014 29.1991 41.1898
9.38542 8.48379 12.4003
26.5218 38.624 42.5755
7.12314 17.6646 30.8506
15.7358 20.1223 29.8487
13.331 25.1639 35.6954
11.8034 17.3155 27.4851
14.8087 15.975 24.4874
9.30498 12.3433 17.8437
10.7251 12.6032 19.1687
13.0136 14.0803 16.8103
4.70576 7.38094 11.8067
9.64203 10.6267 12.3533
5.91821 7.00741 14.8735
18.0367 20.6253 20.9504
11.5322 13.4328 18.2257
7.82871 11.5555 17.2378
8.49606 6.88843 11.299
9.79639 12.6108 14.4281
17.8305 24.5242 36.3062
7.20172 8.41776 10.2096
7.44722 7.84537 12.5081
10.0027 15.3944 22.1591
9.34126 14.474 20.0289
5.74285 10.0709 20.435
6.68703 6.67105 11.6931
15.0387 20.5779 26.6495
10.7741 11.3951 17.5254
13.9192 15.7391 18.3776
5.74232 9.53398 14.0139
11.7007 21.8078 37.5712
14.2564 11.9018 15.9929
13.8996 17.533 20.6511
5.74638 9.09373 14.9857
5.09733 8.67166 17.1246
9.77867 11.2552 14.9084
13.4094 19.0324 27.1382
3.27013 6.74495 20.8486
11.4289 11.1417 12.2295
6.62456 14.5107 24.4347
8.53543 8.01348 10.306
9.98345 11.9255 13.801
6.75801 12.1335 23.7889
10.0149 15.4793 20.0092
7.44192 10.9774 15.8998
8.61819 13.0047 24.3382
12.631 21.5788 32.1082
7.28893 11.4007 22.5281
13.6854 21.0214 28.0151
6.98582 8.07388 12.9724
11.8791 15.5506 24.5798
6.57602 11.2885 19.2001
6.42743 9.88136 14.8868
8.39042 12.8145 17.5793
3.49736 4.44067 8.70404
7.17065 15.5704 26.5716
12.7319 17.7246 33.3814
11.745 21.7897 24.1985
7.03375 15.9854 31.6447
11.7973 16.8245 24.2922
7.52961 11.7978 27.9192
11.2201 10.9566 9.77843
5.314 9.681 18.4779
8.04061 9.463 22.3513
15.748 26.4242 32.5454
4.47734 8.20873 16.2385
10.3202 13.3715 19.1964
11.2693 24.6633 44.7945
9.6083 10.4427 14.5785
7.79047 12.6233 24.5164
13.2986 14.0027 15.137
5.90452 12.8773 29.247
5.04627 5.6942 8.33152
8.23973 9.53533 8.67715
4.24795 12.3793 31.6068
13.0759 17.6188 19.5371
8.09419 18.5383 35.6045
6.17093 5.76446 11.0723
4.78608 10.2648 22.4097
11.8016 14.5665 28.6994
15.5946 24.3993 30.4868
3.65098 9.66334 15.3626
4.29383 5.41886 10.2057
2.88722 6.54441 12.6516
6.31208 9.93029 14.6321
3.50134 4.14422 7.72723
1.73015 3.64225 7.42741
4.52402 11.591 20.9915
8.94106 15.9289 29.7403
3.35543 6.57209 20.491
7.69379 11.0974 17.6116
8.59472 8.55454 17.3397
13.4278 20.4188 29.2931
5.40633 11.0919 16.2686
6.21011 8.447 14.5274
5.7918 10.2457 16.752
5.02925 7.79921 15.5079
2.03369 5.45496 21.4607
13.2613 27.178 39.87
3.29258 4.47937 13.1474
7.03849 17.5616 38.6563
13.5871 13.5771 18.4805
6.41855 9.9252 12.5176
3.39897 8.90092 19.6419
8.63481 11.8281 20.411
8.2101 15.73 25.7989
10.5147 16.3597 22.7682
4.21744 8.72704 21.809
6.92729 11.3789 19.8955
5.64468 11.3699 16.536
4.11792 11.0669 30.9742
10.2068 15.436 22.4611
3.64361 6.08689 19.1061
7.29164 15.0604 28.9991
8.79822 9.70293 16.7306
7.69095 11.5554 24.5064
7.67091 10.7306 16.9857
12.2142 20.9643 32.8856
6.61005 7.92227 15.1934
4.50651 7.56783 15.3826
8.32261 17.7599 27.6735
7.14667 14.4409 32.9868
6.92883 14.9123 22.6455
5.18798 6.49553 12.5553
7.093 18.2199 40.6806
7.06326 6.53513 14.142
9.32717 11.2966 16.9801
12.0872 23.6547 38.7839
6.06486 11.3446 27.1014
5.95144 10.7732 21.2251
5.94046 12.912 34.2756
7.01986 10.8752 14.9671
5.42575 12.5055 20.7928
4.55447 11.5457 24.4361
2.63381 2.74858 8.05212
3.53131 8.66153 16.3885
2.49504 5.34579 20.7774
10.1366 19.6932 34.3107
6.49942 15.5534 30.3198
7.95608 12.1829 16.3701
3.82216 10.1838 20.2431
2.32659 8.68558 32.3365
14.9719 21.4509 29.6129
4.11734 7.59341 15.4635
3.51645 5.05281 15.4868
8.81096 17.9281 28.9457
6.4244 11.5829 21.0587
9.8265 19.0354 30.409
1.94511 7.51809 19.8148
8.77004 14.3527 27.556
4.3655 9.35174 19.3938
3.19152 9.27191 27.9803
6.16592 10.864 22.9802
9.16687 14.0781 18.2291
4.51245 12.8801 26.6475
6.55145 21.367 38.8194
5.08431 11.4217 30.3069
7.40357 11.8359 23.1567
3.28793 6.23042 23.8825
8.67772 15.8526 43.9115
10.4668 15.7 16.4434
2.79757 4.81323 8.73736
6.29807 14.625 25.751
4.78545 12.4571 29.9958
6.62066 7.99678 14.9758
6.29394 12.0219 27.1894
5.68164 12.2896 21.4646
2.40211 5.73655 19.6468
7.85971 16.141 29.9353
2.37566 4.61372 21.5658
7.7387 13.0107 23.654
5.85267 7.88147 14.901
5.12609 6.67539 17.8635
10.7404 18.8451 41.3252
7.05762 12.6171 20.0847
5.58315 14.438 30.2184
7.96851 20.3419 30.1464
5.36765 19.0488 52.1205
9.07947 13.2836 27.4615
4.74375 8.35079 22.9175
4.16253 13.5491 41.5795
9.16939 10.6334 18.7982
12.4819 23.0585 38.2145
2.66179 4.9834 9.18709
7.30845 16.1233 27.1627
5.21256 16.9372 36.4812
3.02312 6.13549 22.6559
5.61718 9.64129 22.4428
7.19312 13.3849 21.5173
5.64782 7.6824 13.7452
3.4757 6.99883 8.3648
3.25558 12.1141 35.8824
5.89914 12.2923 28.6245
5.36802 12.4382 45.5855
17.6267 33.0147 53.7855
2.93642 7.21016 12.5312
1.25968 8.80628 34.2816
8.0397 11.4695 16.8715
3.51945 11.6655 28.4672
6.2076 7.56686 15.7752
5.84482 11.9369 26.2749
7.34942 22.9309 55.0388
6.81939 6.4822 15.9124
4.60438 10.5959 24.1307
9.93628 17.452 29.7801
2.95912 6.73495 17.0408
7.21853 19.1472 47.1132
7.71237 16.5406 34.2953
3.83639 7.07466 23.3179
7.25099 25.3622 61.9315
11.5827 17.9072 31.8269
5.09986 7.06099 10.8038
2.74517 4.73083 13.232
6.85527 14.4343 22.8913
3.47544 13.3812 29.6244
5.4994 12.4754 35.5017
5.35455 9.64958 21.8729
2.84743 5.5887 6.99112
2.15788 12.6365 48.4531
7.84848 7.32822 7.97848
2.54197 6.94685 16.1817
2.86415 6.09048 10.3136
1.63987 6.29558 17.6757
3.11562 8.76611 21.9582
3.51811 6.30371 17.8001
5.90743 17.6192 28.4869
3.16763 7.28521 26.0086
4.73494 4.74428 14.2174
7.63253 18.1096 47.8927
5.97594 7.87696 11.5606
4.72131 9.7418 25.0977
3.63822 11.8724 23.2293
2.82547 7.7717 17.8844
2.54436 3.92393 15.3674
3.82822 8.20902 19.2385
3.62523 6.35644 19.9736
5.35954 8.62278 21.2347
4.80015 9.55614 19.8255
5.91906 13.1252 26.1789
4.58994 9.44641 23.2508
2.07108 2.79347 9.31012
5.50255 12.9366 31.3887
3.65379 5.75506 9.56918
4.74671 12.3462 35.9086
3.87565 10.7985 30.15
4.69254 15.2284 33.1376
7.32294 13.0944 18.8233
2.68069 11.5198 39.0975
4.47803 6.60512 12.0149
5.88008 17.5702 40.9646
6.26807 13.6953 27.5767
4.69585 9.62326 23.4658
