# pn-170911/RbIIR-av-RbII-1280-1959.psd
# Power spectrum* (dif=0,1,2) (really just |FT|^2)
# NOTE: only the first half! (symmetric)
# weeks: 1280-1959
# 4102 clock-days, 62 excluded
# PSD: 1441
74648.5 1.33518 0.0330128
2.41672e+06 61.271 0.0654326
3.25159e+06 55.4639 0.0664873
913228 17.713 0.064844
597378 17.1556 0.0663415
377167 9.91849 0.0631337
255478 9.53415 0.0639561
178510 8.50749 0.0642903
143001 8.64682 0.066143
116512 8.01714 0.067986
84250.3 7.23884 0.0691933
84206.1 7.36426 0.0660816
57284.4 7.47603 0.0680577
58356.4 6.42888 0.0679175
47509.2 7.0787 0.0735767
45516.8 6.89861 0.0685401
35938.7 7.65226 0.0734373
34673.5 6.51496 0.0736772
32709.4 7.92473 0.079899
27303.2 5.98061 0.0740535
18870.1 7.75973 0.0811739
28608.9 6.8337 0.0772102
24034.5 8.60777 0.089713
17065.8 6.28595 0.0793942
15713 8.09164 0.0840308
14443.9 6.51659 0.0829679
12570.6 9.20226 0.100134
12930.9 6.30757 0.0837473
12949.1 9.28998 0.0997156
10609.7 7.51767 0.0966348
9269.44 8.63271 0.101853
9880.89 7.2531 0.0975013
9888.8 10.5397 0.110006
7712.32 7.56476 0.105046
9308.71 9.95295 0.116709
7877.17 7.83609 0.106961
7533.06 10.0123 0.122581
7207.97 8.51922 0.113809
6758.88 10.7146 0.134831
6477.78 8.51503 0.134358
5995.1 10.4662 0.142178
4990.15 8.98678 0.129598
5741.37 11.587 0.153395
4880.22 8.87857 0.154623
4671.87 10.8669 0.170996
4580.51 9.54307 0.153246
4957.82 11.3406 0.169397
4821.74 10.3612 0.181136
3951.3 12.6124 0.206707
3978.56 9.44565 0.172774
4318.17 11.2731 0.199315
4198.11 10.2593 0.184883
3601.58 12.4497 0.220492
3505.8 10.9391 0.21927
3647.93 13.5246 0.243919
3573.08 10.0345 0.200064
3497.1 12.7759 0.256621
3593.1 10.7625 0.24138
3599.64 13.3317 0.280793
3107.92 11.3992 0.26465
3192.36 13.4942 0.292291
3171.88 12.1737 0.280029
3096.39 13.3673 0.31765
3195.92 12.6438 0.310908
3142.87 14.6233 0.367385
2874.2 12.76 0.331749
2764.35 15.2808 0.412059
3009.36 13.839 0.375938
2522.46 13.7746 0.393608
2487.53 13.2505 0.374425
2405.23 15.5537 0.448993
2237.59 13.9197 0.417577
2283.47 15.7444 0.479638
1969.41 13.7419 0.438011
2179.67 14.7119 0.457736
2111.54 14.0396 0.463748
2180.03 15.706 0.499772
1992.61 14.5706 0.49749
1914.15 14.7469 0.503406
1891.89 15.2672 0.546808
1774.05 15.617 0.577773
1695.35 15.1992 0.535251
1717.05 15.8613 0.602732
1530.7 14.9488 0.592002
1651.88 16.6349 0.626157
1713.46 15.3489 0.597086
1353.16 17.3401 0.693675
1459.53 16.0929 0.681567
1474.6 16.8833 0.693252
1377.18 16.0527 0.680899
1217.28 16.8346 0.722442
1489.39 15.8856 0.716595
1393.51 18.1658 0.808732
1275.11 15.0969 0.684545
1396.99 16.42 0.78918
1433.37 17.7077 0.846502
1295.17 20.7721 0.963948
1361.25 16.9512 0.820077
1311.02 18.8998 0.939271
1056.79 16.7278 0.862152
1156.2 17.2687 0.884907
1429.04 17.1389 0.919548
1227.23 19.5642 1.03638
1194.02 16.7129 0.877656
1208 19.0481 1.04224
1181.09 17.2752 0.957396
943.483 17.9348 1.01308
1178.28 17.5508 1.00218
1035.21 19.4118 1.11793
1041.06 17.9922 1.09988
956.787 19.4995 1.21597
1098.86 18.3076 1.11009
1046.9 17.597 1.12044
831.257 19.3292 1.26948
971.398 19.7674 1.30185
1020.79 17.6317 1.16702
761.503 19.5325 1.30557
774.921 17.6695 1.21677
897.673 20.0516 1.37487
835.217 17.6222 1.23775
931.937 18.7808 1.34401
761.396 20.5779 1.47795
794.781 18.3876 1.37038
991.758 19.496 1.4451
871.163 19.6317 1.48594
841.421 19.3003 1.48371
796.388 18.8192 1.46227
698.06 20.0354 1.57369
738.473 19.548 1.56221
688.881 19.2907 1.58289
724.383 19.7457 1.65927
728.521 19.1716 1.63877
670.195 18.9884 1.69507
723.8 19.5366 1.69328
709.755 19.5586 1.69955
737.798 19.1619 1.72332
745.663 19.31 1.77477
638.967 20.6318 1.90507
633.794 21.6798 1.98789
657.889 18.4629 1.73829
674.484 20.7148 1.99488
666.301 19.0294 1.85321
572.24 19.8081 1.96657
637.606 21.0664 2.11129
653.352 21.2217 2.16507
615.261 19.4969 2.01093
536.672 19.7491 2.08148
614.15 19.3807 2.05785
552.421 19.0564 2.03619
571.009 18.8803 2.07887
573.712 23.6389 2.57556
544.369 19.8978 2.2092
591.514 21.0371 2.31974
612.099 20.9781 2.35649
556.621 20.0756 2.3228
542.478 20.4005 2.33554
495.507 21.2129 2.50069
573.551 21.6438 2.53029
497.556 20.3715 2.44278
464.287 20.1241 2.47727
476.653 20.9146 2.59326
445.552 21.0074 2.6482
495.469 21.4108 2.69269
477.791 21.2955 2.73814
546.745 20.4914 2.6427
540.167 20.6651 2.69651
450.471 23.0781 2.97895
411.023 22.3542 2.99456
541.742 21.096 2.85725
431.907 21.127 2.8175
448.006 20.9192 2.85187
354.31 20.5495 2.88386
371.571 23.1161 3.20298
463.85 20.9106 2.98445
401.432 20.4159 2.96553
371.569 23.5548 3.4381
420.666 21.8128 3.22323
433.208 20.8805 3.14871
398.692 22.0289 3.3587
405.25 21.8139 3.33721
420.328 22.6874 3.47923
454.736 22.0331 3.54241
352.354 22.1566 3.44205
414.153 21.7624 3.50185
419.405 22.8581 3.68159
436.225 22.575 3.71637
411.525 22.5806 3.65936
453.294 21.6144 3.62127
362.293 21.8266 3.70217
330.895 21.7531 3.67478
372.678 21.6995 3.76478
419.661 23.9646 4.16757
368.127 26.6614 4.58734
402.327 21.5844 3.75195
361.782 21.9759 3.94656
346.789 20.6224 3.67609
339.395 20.4326 3.75138
405.943 21.9571 4.03369
309.54 22.2781 4.13494
313.921 22.0732 4.12312
348.484 22.8846 4.28138
312.648 21.0894 4.04231
291.175 22.6671 4.36542
361.33 22.0556 4.34644
336.913 24.0283 4.76662
296.093 21.4096 4.2262
345.721 23.1134 4.69372
331.251 21.4721 4.30665
305.25 22.4841 4.64594
327.096 22.8831 4.68697
308.617 21.7323 4.46885
327.922 22.1661 4.62084
322.961 22.4401 4.75654
312.972 23.5608 5.0074
311.685 23.0487 4.95209
286.8 23.0268 5.03041
309.489 23.4665 5.202
304.519 24.1521 5.30768
283.368 22.3106 5.01538
303.323 22.6362 5.1575
289.611 22.4147 5.11232
309.053 21.9642 5.08066
293.721 23.0994 5.36398
308.678 24.0168 5.64573
306.207 21.8167 5.16896
289.273 22.7235 5.40823
286.993 23.6133 5.67615
266.907 22.6152 5.52828
263.988 21.8494 5.42063
265.433 23.9978 5.95508
273.426 23.3519 5.72888
252.531 21.5586 5.46766
266.195 22.3372 5.65718
262.217 22.4447 5.69835
242.928 22.8472 5.88954
240.208 21.9177 5.7249
228.603 22.742 5.95886
252.621 21.7152 5.70434
266.351 23.9636 6.29723
254.496 25.007 6.71512
222.722 22.9042 6.18621
248.44 23.0364 6.27388
235.377 23.5854 6.45061
218.438 23.0841 6.29686
207.993 22.9136 6.34493
224.796 22.6844 6.4412
234.667 24.6879 6.97274
208.103 22.9677 6.54658
215.172 23.9109 6.86858
242.873 23.9622 6.87528
215.554 22.23 6.53392
237.109 23.1603 6.812
209.192 23.9226 7.20972
213.031 24.1139 7.24752
233.45 24.4435 7.37152
189.168 21.7739 6.67589
224.456 22.1227 6.82165
211.921 23.0206 7.21696
212.369 24.1115 7.47194
200.829 23.7295 7.44213
216.006 23.6989 7.55632
203.482 23.5487 7.3672
175.497 22.6529 7.25964
196.201 24.4678 7.90629
192.965 24.3664 7.86183
193.269 23.9103 7.85798
230.416 23.4985 7.6298
224.801 23.3216 7.68948
170.245 24.2942 8.13585
211.429 22.5054 7.63337
207.019 22.1062 7.55475
198.149 24.8751 8.48838
184.231 22.2271 7.76168
186.085 22.7173 7.90938
185.255 22.7484 7.91931
199.711 22.5308 7.74732
167.63 22.3039 7.89989
197.268 23.376 8.35256
170.444 23.5989 8.3992
182.03 23.5253 8.63576
164.622 22.8362 8.3215
176.009 23.7343 8.78883
174.65 23.1239 8.47176
163.692 22.94 8.56556
150.241 22.9182 8.60383
128.541 22.2588 8.44147
124.905 23.5945 8.89734
190.855 23.5381 9.1699
153.463 29.2942 11.0005
123.653 23.5847 9.06809
152.338 24.742 9.51429
134.979 22.806 8.98758
149.157 24.331 9.57202
163.789 23.2067 9.1701
157.297 22.9342 9.18863
155.096 23.0415 9.11959
167.317 24.7515 10.1895
150.884 22.9985 9.29607
145.479 22.6936 9.25584
169.519 23.0466 9.47852
142.622 23.6986 9.82041
162.377 23.1399 9.5962
144.116 22.9555 9.70896
157.264 23.3399 9.7426
151.343 24.8433 10.5747
150.892 23.2536 9.93694
150.817 24.226 10.4584
134.811 22.8317 9.83222
129.951 23.8009 10.2421
177.008 23.8247 10.4415
162.517 24.0434 10.7301
136.739 22.1879 9.95451
131.14 22.7327 10.11
133.042 22.7151 10.3548
126.365 24.1376 10.8774
137.572 23.8699 10.9292
137.869 23.355 10.7375
130.472 22.0951 10.3446
120.191 22.4771 10.6282
148.72 23.2748 10.8244
134.933 23.6633 11.0395
127.43 22.5605 10.7836
154.008 24.8922 11.7873
134.74 22.9803 11.2322
132.139 23.6823 11.2081
131.129 23.8497 11.6423
126.668 22.8242 11.0559
128.05 23.6919 11.4948
124.246 22.7275 11.3232
113.535 23.5072 11.5864
124.385 23.8652 11.8894
112.532 23.6469 11.8388
112.388 23.5331 11.7096
112.865 23.4353 11.9947
114.669 23.4332 11.8295
129.913 23.8084 12.27
106.097 24.0466 12.4118
106.347 22.8447 11.7772
124.791 24.0249 12.4887
127.232 23.4563 12.2416
106.414 22.8295 12.0268
109.376 22.8909 12.2287
111.608 23.472 12.6044
120.882 24.0244 12.7343
111.488 22.5107 12.1174
123.816 21.8728 11.8107
125.728 22.4935 12.2882
116.305 23.1778 12.5887
116.568 23.2368 13.0675
124.033 22.5415 12.3534
121.293 23.5089 13.1422
123.839 23.9887 13.4765
112.978 23.0634 13.0156
125.882 23.6802 13.3819
120.26 23.3677 13.3535
138.091 24.6868 14.1703
117.927 23.0109 13.2438
119.218 22.082 12.7218
116.375 22.5666 13.2334
120.523 23.4166 13.4718
113.383 23.712 13.7589
99.1105 22.8039 13.5515
115.421 23.9439 14.2282
115.886 23.1349 13.8935
110.298 22.8063 13.5856
98.1333 23.0296 13.642
107.579 22.9667 13.9027
107.943 23.3453 14.2431
102.887 23.204 14.1683
98.1959 23.0037 14.1171
95.4374 22.0102 13.5785
98.6688 23.3879 14.6848
103.415 23.0673 14.4281
105.957 23.916 15.0706
86.8201 22.9362 14.4919
104.959 24.5904 15.4309
102.983 24.36 15.4201
97.4637 22.3254 14.4145
87.8793 22.9045 14.7165
102.258 23.1812 14.8845
98.3653 24.9654 16.0542
93.2918 22.8964 14.9663
100.016 23.1527 15.2675
96.4208 22.5748 15.0938
95.6183 28.1647 18.2423
102.481 22.7321 15.4443
97.1026 23.1994 15.3382
86.2446 22.6349 15.5358
97.816 23.2557 15.7579
111.366 22.8286 15.2407
96.55 23.2969 15.9843
100.319 23.7773 16.3267
92.9856 22.6805 15.6211
100 23.6633 16.3289
83.9049 23.468 16.6673
97.2707 22.9415 16.1671
84.2948 22.0141 15.5246
97.5426 23.4296 16.7157
86.2916 23.4982 16.7528
100.952 23.076 16.3395
95.5093 22.0471 15.9345
80.173 22.8824 16.4959
90.1295 23.7683 17.228
100.041 23.493 16.9274
80.6403 23.3206 16.9272
79.9405 22.0353 16.5076
92.9375 23.6809 17.3808
90.1069 22.8023 16.807
88.8072 22.7435 17.0279
81.5111 22.9959 17.2295
88.8053 23.2408 17.3
93.7631 22.4048 16.9506
84.7538 23.2862 17.5877
92.0399 22.5017 17.3122
81.3565 21.7525 16.5924
77.6057 22.7887 17.7502
84.0603 22.2874 17.211
80.7736 22.8575 17.7996
81.9446 22.5223 17.2878
78.5804 22.2692 17.1664
72.7512 22.6786 17.8639
78.0602 23.3118 18.4527
74.2898 22.6891 18.2768
76.8063 23.0675 18.0585
80.584 22.0139 17.5004
72.25 22.7079 18.1411
71.3109 23.3386 18.5301
75.9643 22.9531 18.5443
81.4677 22.7337 18.7108
81.0221 22.5915 18.1564
66.5537 22.5816 18.4861
80.8843 22.8818 18.8983
82.0613 23.2268 19.1384
77.6324 23.8906 19.5096
77.5025 23.1378 19.2858
79.5241 22.5759 18.5664
73.0259 22.2892 18.9718
75.3479 21.9951 18.4905
77.9583 22.7318 19.1293
78.8121 23.4211 20.3803
81.5698 22.5222 18.8616
87.3714 22.907 19.9224
79.4804 23.0583 19.83
81.2392 22.8875 19.5044
72.3241 23.1304 20.2684
80.1235 22.8348 20.0507
69.9812 23.0772 20.2786
70.5719 22.8834 20.2523
68.7565 23.2267 20.417
62.6558 22.3888 20.2832
72.3481 22.3093 19.6807
67.7885 22.6758 19.9901
87.9729 24.0474 21.5978
79.1769 22.9667 20.6661
60.6804 23.2812 21.0941
66.098 23.0756 20.9494
89.7049 23.3336 21.353
66.6459 23.3161 20.9672
70.0791 22.9145 20.9038
59.2507 21.9736 20.0599
61.8019 23.3916 21.8306
79.1598 22.2393 20.6738
64.9558 22.1794 20.6163
59.958 22.6116 21.3041
63.4336 22.6878 21.3256
67.2334 21.9387 20.641
63.9241 22.5088 21.3698
64.7984 22.1658 21.1272
68.1598 23.1507 21.9706
73.8164 21.9111 21.1202
58.0436 22.0019 21.2723
67.637 22.7083 22.2066
65.3245 23.6093 22.7282
69.54 23.7024 22.793
66.2184 22.1139 21.6947
66.5554 22.5771 21.8208
60.0204 22.1519 21.7299
58.532 23.6487 23.5424
65.8562 22.6688 22.9978
70.0315 22.5007 23.1825
62.3466 28.0482 26.8799
65.2189 22.3428 22.6138
67.0661 22.2999 22.9096
59.9482 22.1749 22.3686
65.0412 22.1982 22.681
72.6552 22.6684 22.8536
58.4812 22.9273 23.2097
62.1015 22.9512 23.9952
60.1423 23.1734 23.3688
58.9179 21.77 22.8322
59.6365 23.5683 24.166
64.1854 22.0389 23.1924
63.5664 21.6183 22.5411
57.494 21.9069 23.175
65.0113 22.6116 23.945
64.5608 22.1805 23.0764
58.7563 21.6533 23.3597
66.5564 23.3042 24.5924
62.5404 22.1317 23.6272
65.8421 22.5592 23.8297
61.6426 22.6511 24.8212
59.4526 22.9111 24.3825
57.1536 22.2817 24.3754
56.4608 23.1767 25.2552
58.2384 22.3809 25.1874
56.859 22.1527 24.4005
55.9179 21.3956 23.6008
55.6784 23.308 25.1352
56.7699 21.8905 24.8621
61.0068 22.375 24.1325
52.3378 21.3231 24.0433
62.5607 22.7625 25.401
58.9064 22.6385 25.0297
57.3224 22.7797 26.0988
62.1317 22.3298 25.7143
55.0669 23.0317 26.0756
57.4154 22.0355 25.1966
57.055 22.4731 25.6546
53.1377 22.3292 25.5102
55.5588 21.7275 25.2428
54.5721 21.3516 24.7811
63.7484 23.0058 26.3595
52.6919 22.0421 25.3743
52.5812 21.6172 25.4074
51.9968 21.4011 25.0589
57.5501 21.9461 26.1028
51.8996 22.0314 26.0968
59.7095 21.5587 25.1962
52.1722 21.7507 26.1193
57.5272 21.8683 25.6238
53.3776 21.7874 26.1854
50.6261 22.6348 26.541
51.8798 22.3726 26.866
52.2891 21.6773 26.481
51.4886 21.5406 26.4484
50.9446 22.2395 27.0152
52.9788 21.9384 26.9409
59.3696 21.7101 26.7993
51.5009 21.341 26.4089
57.1655 20.8699 25.4806
51.9903 21.4974 27.0407
49.6287 21.0337 25.9224
51.6572 22.2609 27.4012
48.3509 22.0411 27.74
50.149 21.0905 26.3821
52.7904 21.901 27.7029
53.8486 21.4683 26.9452
47.9513 22.8382 28.6662
56.9562 21.8856 27.4713
48.4263 21.2205 27.1005
44.6021 21.6055 27.4928
51.784 21.4751 27.4696
44.5663 21.8633 28.1782
43.7931 22.4295 29.3198
55.4296 22.1544 28.0198
50.9322 21.0148 27.8449
42.3492 22.0502 28.9445
56.7399 22.4698 29.4094
52.8701 22.5591 28.9515
49.1136 22.1703 29.165
45.2353 22.313 29.1526
49.4776 21.3113 28.0573
49.0401 22.1906 29.0937
53.7203 23.4228 31.1465
50.063 21.6326 28.8498
50.7727 23.1182 31.06
47.6598 23.2906 31.1769
49.7366 21.7083 29.3423
44.2007 21.7203 28.89
48.6158 23.0007 31.4384
46.711 22.7434 31.7624
45.4435 22.6488 30.7584
44.5739 22.4542 30.7902
38.1204 22.5807 30.9397
39.1776 21.9355 30.9084
63.3116 22.1122 30.9531
42.0398 27.5406 36.6616
40.0056 23.1234 31.394
47.4763 22.5556 31.493
43.2634 21.3026 29.7457
46.6148 22.3509 31.6127
45.5983 20.8672 28.8959
44.1604 21.9184 31.1658
43.518 21.272 30.0758
44.5786 22.221 31.4215
39.1955 21.4127 30.3476
42.505 20.5738 29.3287
41.7479 21.3925 30.7706
37.012 21.442 30.8293
42.5084 20.8373 30.2341
41.7206 21.5237 30.9011
41.4079 20.9308 29.948
39.4945 20.4143 30.0786
45.2655 21.2139 30.6923
39.1396 21.2239 31.2859
37.3669 21.3682 31.1574
39.4987 22.5605 32.9138
45.2337 21.4739 31.2721
42.6797 20.1564 30.3748
44.3478 21.7739 31.6369
37.8574 20.1016 30.3476
41.8887 22.238 32.9897
39.232 21.6832 32.2412
41.434 20.7124 31.3101
43.2318 21.8322 32.073
38.9217 20.2668 30.3401
31.3296 20.8638 31.2138
42.6825 20.8316 31.3909
39.151 20.8878 31.6098
41.9112 20.6353 31.6276
40.9471 21.8173 33.9435
43.2863 21.4998 32.2232
39.4614 20.9739 32.0097
39.2539 20.6469 32.1705
37.7324 21.7418 33.0952
36.7312 20.8291 32.2668
37.1314 20.5206 31.6474
36.8687 21.3867 34.3311
41.2782 21.5739 33.0197
34.05 20.8647 32.2008
36.976 20.9403 32.8789
40.6758 20.3896 31.5378
37.6489 20.7577 33.0651
38.1423 21.8107 33.7123
34.4107 21.421 33.4012
36.3889 20.2748 32.0278
38.4559 21.1151 33.7405
42.4193 20.32 33.2806
37.1314 21.6954 34.0306
35.8893 20.5697 32.8846
38.0889 20.1876 32.9259
38.6111 20.5605 32.8593
34.2108 20.3254 32.7982
38.6726 20.4907 33.4566
41.0633 21.6131 35.2585
38.2656 21.2827 34.5152
39.6049 21.5929 35.0907
39.9169 21.2069 34.4508
38.5602 21.1279 35.1624
38.298 20.5705 34.5635
34.8361 20.008 33.4019
37.7124 20.8891 34.021
36.8849 19.8024 32.9993
39.052 20.1614 33.5755
37.9338 20.1405 33.1454
39.2777 19.6677 32.8491
35.9529 20.0451 33.6734
38.1977 19.944 33.5731
38.3618 20.5765 35.7105
31.7943 19.9763 33.6839
39.4739 20.6122 34.7602
39.3585 20.1477 34.3374
36.5905 19.6688 33.7315
32.5648 19.8928 34.6145
37.9978 20.6239 35.4385
35.7113 20.5105 35.5969
38.0246 19.315 33.1427
33.1474 20.3172 35.0887
35.681 20.3522 35.0042
36.6351 20.7402 35.7736
36.5776 20.8622 35.4665
36.6809 19.9506 35.1768
31.3444 19.8834 34.9771
38.885 20.7219 36.5291
36.0846 20.9991 35.7669
32.7053 20.3027 35.5603
33.7558 20.5921 36.6604
38.1496 20.1109 35.4963
33.4698 20.6013 36.1456
31.2489 20.7654 38.1775
37.296 20.2247 36.9228
37.3925 20.725 38.8243
35.0514 24.3937 40.0857
33.9644 21.0307 36.425
36.5079 21.0309 38.9368
31.2577 19.7049 35.7561
36.3462 20.2411 36.3009
36.2772 19.8141 36.1627
32.4633 19.7978 34.738
33.7345 18.9263 35.6203
35.0823 20.4798 36.3481
33.4996 20.6249 37.745
30.4301 19.7648 35.6007
32.702 19.7819 36.3928
32.7453 20.2848 37.7024
35.08 20.9993 39.8147
32.308 19.894 36.1507
39.0448 19.3604 36.5041
38.4581 20.6236 38.6425
34.3741 20.0377 36.4212
36.2457 20.0435 37.4942
33.0307 19.6405 36.52
30.9287 19.5314 36.5084
33.356 20.1439 37.1665
31.3854 20.7226 39.3125
31.4021 19.8927 36.9951
30.3517 18.6011 35.8568
30.8726 20.0689 36.8472
33.7482 19.5045 36.5834
34.2698 19.1981 37.5716
28.9591 18.1673 35.3912
34.0974 19.7315 37.9659
32.5054 20.2794 38.2553
32.1339 18.7853 36.2814
30.5053 20.2662 39.0279
33.5955 19.4059 38.2552
34.8932 20.0513 38.1609
31.7862 20.2468 39.495
30.3097 19.5008 37.4458
32.3977 19.1648 37.181
28.9009 19.276 37.0115
32.4216 19.5029 37.6961
29.0117 19.338 37.551
25.7421 19.1341 38.1502
29.6584 19.4143 38.7579
31.0876 19.7844 38.0124
33.4065 18.9742 38.1776
31.749 18.841 38.4631
25.3868 18.891 37.9825
34.1901 20.0385 39.8733
31.4598 20.5739 40.6867
31.7556 19.6231 38.8761
32.1464 19.2529 38.5377
26.1531 19.5142 37.9459
29.5218 19.5954 39.2612
29.4697 19.636 40.0143
30.3401 19.584 39.2339
30.5156 19.3255 39.8604
29.8595 19.5074 39.2189
34.3348 19.5571 40.3084
31.0192 19.0333 39.0451
30.8204 19.8358 38.7095
29.1159 18.7926 39.4828
35.1437 19.7118 40.1999
30.5195 19.2038 39.577
29.7543 19.7671 40.6694
28.7353 18.9771 39.5974
28.2564 18.4464 38.7648
31.2522 19.4095 40.5133
27.8926 19.3051 39.8607
34.7282 19.4001 39.449
31.2174 19.4793 40.7946
26.2042 18.8368 37.7488
28.773 19.8135 42.1175
34.9815 18.7915 39.372
26.5394 18.7599 40.0422
28.4399 20.1191 40.5831
26.4109 19.0561 41.1294
26.2691 19.33 41.294
26.4667 18.8878 39.9335
28.0586 18.9123 39.6945
26.0548 19.6641 42.9187
23.6708 18.8717 41.4788
28.1257 19.0491 39.0302
27.7024 18.6576 39.9817
26.1711 18.5095 40.2838
29.718 18.6824 40.6729
29.4726 20.7185 44.4207
25.0216 19.4214 41.1337
26.0401 18.7171 39.4182
27.3899 19.6711 43.144
30.5884 19.1137 41.0887
24.2752 17.497 38.9195
26.2367 18.8984 40.2087
28.2247 18.0813 39.1337
25.8288 18.2464 39.9481
27.2409 18.1915 40.3294
29.6621 19.6464 45.7328
26.5593 22.4293 44.7254
30.0642 19.3319 42.9363
28.5054 19.3146 44.345
26.0717 18.7317 41.2158
27.8 18.886 41.8446
31.4724 17.8748 40.3338
28.6855 18.8426 42.3232
27.446 18.7563 40.3164
26.0533 18.0185 41.3005
27.6329 18.9719 43.161
25.6414 18.9893 41.3852
30.8483 17.9797 42.5473
27.4233 18.6318 40.8776
26.4163 18.505 41.587
32.6636 18.424 42.0516
31.5996 18.3699 40.601
26.4416 18.033 41.6833
31.5065 18.6219 42.5331
28.1688 17.9948 41.6665
33.4657 17.8011 41.1452
25.5462 18.4163 42.147
25.6046 18.8518 43.0918
27.456 17.8356 40.983
25.9091 18.554 42.5031
26.8707 18.2064 42.008
26.747 18.2288 41.1994
24.0427 17.543 40.3792
25.7271 17.5594 41.7836
24.2837 17.0603 41.4783
24.8424 17.9921 41.7399
25.785 17.7747 40.6756
25.1543 17.3572 41.1208
25.1086 18.4221 41.5443
26.019 18.3343 44.0093
28.4438 17.6606 40.5355
23.1493 17.0302 40.2016
24.1594 18.0213 43.1038
26.9139 18.5953 42.3218
24.6329 18.2387 44.9236
21.3356 17.704 41.9245
24.6954 18.053 43.1191
30.159 17.9751 42.7025
23.7157 17.5517 41.9028
26.5056 16.7901 40.1471
23.9951 18.1085 44.8505
28.7302 17.577 41.5652
24.1899 18.6653 44.9472
25.3348 17.6338 42.5524
27.5436 18.5386 43.111
26.3282 16.6428 39.8625
23.1212 17.5213 42.6079
26.0137 17.3219 43.3691
23.5001 18.1193 42.5292
24.856 17.2387 40.9533
29.0042 17.5203 42.7318
24.7819 17.2419 41.8727
23.7466 16.6766 41.9221
27.0222 17.982 44.9541
24.6113 17.6169 44.1943
29.544 17.5664 42.5927
26.041 17.9961 44.1911
23.7109 18.0907 43.6038
23.8121 17.3591 43.4956
