# pn-170911/RbIIR-41-RbII-1280-1959.psd
# Power spectrum* (dif=0,1,2) (really just |FT|^2)
# NOTE: only the first half! (symmetric)
# weeks: 1280-1959
# 334 clock-days, 4 excluded
# PSD: 1441
56734.9 1.01494 0.0237834
2.15747e+06 52.8367 0.0476651
3.19731e+06 56.936 0.0452688
816657 15.9725 0.0465655
505161 14.5325 0.046951
327091 9.20853 0.0434494
227020 9.10191 0.0439709
158154 8.22391 0.0452775
122216 7.42323 0.0490451
102575 7.80253 0.0494045
75683.4 6.68033 0.047736
74357.7 7.48008 0.0470235
49486.9 6.63841 0.0516093
51651 6.09597 0.0495847
42404.4 6.79369 0.0520289
39993 6.71688 0.0462343
31102.6 6.17447 0.0499469
29930.6 6.17303 0.0567159
29140 6.2865 0.0610966
23351.1 5.3216 0.0527652
16583.6 6.26885 0.0581259
24401.5 6.67662 0.0587571
20503.1 6.66851 0.0672408
14850.1 5.49067 0.0595095
13373.6 5.82441 0.0590095
12452.4 5.8868 0.0629342
10692.9 7.15637 0.0814905
11205.5 5.55914 0.0667118
11080.6 7.08399 0.074023
9178.89 6.60421 0.0773815
7658.69 6.55954 0.0789642
8534.08 6.40035 0.0762887
8686.3 8.28025 0.083273
6792.43 6.79385 0.0776141
7590.41 7.18855 0.0868585
6830.27 7.05796 0.0914481
6217.5 7.07257 0.0912659
5970.84 6.76935 0.0865658
5679.34 8.0719 0.0947504
5612.88 7.62376 0.108658
4918.28 8.02027 0.119486
4214.03 7.7974 0.105362
4788.74 8.9251 0.11869
4260.58 7.23997 0.123308
3955.15 8.38332 0.125666
3937.03 7.78179 0.116592
4126.5 8.35971 0.119503
3992.3 8.25754 0.14161
3389.84 9.19002 0.156279
3417.84 7.68542 0.134691
3630.55 8.14107 0.156713
3601.09 7.72878 0.132329
2982.77 9.03537 0.169413
3000.94 8.77127 0.17193
2956.36 9.28995 0.16556
3020.17 7.21813 0.143526
3028.77 10.2231 0.195951
3038.57 8.47195 0.185339
3047.21 10.4753 0.204803
2632.48 8.6402 0.201851
2588.7 8.24923 0.18288
2697.69 9.12277 0.204237
2606.39 9.2056 0.217477
2764.94 10.2285 0.245388
2645.4 10.9773 0.278693
2476.91 10.5144 0.264322
2391.08 11.1599 0.307373
2510.46 10.5762 0.275318
2193.65 10.791 0.290612
2128.51 10.4119 0.296206
2025.42 10.8796 0.335023
1831.9 10.6047 0.318063
1787.88 10.6827 0.334293
1604.51 10.2555 0.3416
1768.6 10.9104 0.338429
1853.25 11.4566 0.386877
1725.94 10.9321 0.350048
1718.31 11.3236 0.373778
1580.98 10.5445 0.352984
1637.3 12.0804 0.457029
1488.39 12.2432 0.461586
1399.89 11.0518 0.394348
1414.8 11.4909 0.442986
1216.39 10.74 0.44225
1372.49 12.3542 0.452151
1422.77 11.5572 0.446553
1100.2 13.4291 0.532071
1234.97 12.7869 0.540081
1239.35 12.7827 0.527275
1129.66 12.4002 0.537151
1022.99 12.6242 0.573072
1233.07 10.8305 0.493414
1132.92 13.4624 0.588469
1045.75 10.9087 0.479668
1125.83 12.1317 0.58145
1169.69 11.9887 0.578915
1095.73 16.2138 0.769629
1159.78 13.3985 0.664452
1085.18 13.1629 0.671506
884.068 13.0708 0.702303
984.066 12.6181 0.673571
1225.58 13.8142 0.750168
990.228 14.6485 0.776866
983.465 12.7023 0.671246
1020.89 15.0359 0.831406
942.865 12.3526 0.680193
803.282 13.9681 0.772126
999.933 13.6823 0.773964
872.072 14.3194 0.843003
863.014 14.016 0.873791
782.44 13.792 0.890323
933.549 14.6876 0.871347
927.257 13.8687 0.889865
690.425 16.3076 1.06956
810.731 15.3165 1.04136
875.509 13.2994 0.884951
632.677 14.0354 0.953002
675.569 13.6087 0.929441
749.243 16.019 1.10272
683.333 13.0572 0.920689
803.113 15.1432 1.10456
649.564 17.3954 1.23621
646.036 13.7683 1.04823
830.015 15.6375 1.17295
733.204 16.3306 1.21415
693.568 15.0769 1.17734
656.796 13.9406 1.07046
569.517 16.4433 1.2964
591.97 14.8055 1.16842
586.43 15.2189 1.26728
603.492 15.1133 1.26002
607.724 15.4961 1.31952
577.187 14.8467 1.31403
628.533 16.9055 1.49968
608.726 15.976 1.45575
631.787 15.8333 1.41014
629.303 15.6314 1.46993
550.691 16.8155 1.55556
523.47 16.3996 1.4837
519.576 14.6183 1.37794
582.798 16.6811 1.63887
588.156 14.9256 1.45278
492.992 15.6833 1.55086
550.232 17.8191 1.80192
563.602 16.6976 1.74885
494.716 15.4589 1.61208
451.852 15.2699 1.6273
517.53 14.9253 1.59077
467.601 14.78 1.58607
476.358 14.8301 1.6005
515.547 21.0968 2.32074
453.363 14.9022 1.63074
491.065 16.2567 1.78378
500.028 17.29 1.93596
475.638 16.5626 1.93124
446.623 16.8453 1.92147
448.836 16.9037 1.99698
498.189 17.3733 2.0687
406.578 17.1652 2.06326
420.301 17.2266 2.11979
402.593 17.3307 2.09228
372.336 17.2202 2.17914
417.067 16.8272 2.07213
434.215 20.816 2.63034
465.087 16.4383 2.07721
454.666 16.6956 2.15154
378.887 20.3152 2.60698
346.951 18.7637 2.56091
437.156 16.7228 2.23579
349.262 16.3263 2.14473
369.576 17.8425 2.44907
286.63 14.8735 2.07179
309.413 19.7524 2.73064
377.025 17.9882 2.56243
350.809 17.2169 2.52729
307.796 19.4677 2.83626
342.707 16.3663 2.43579
380.175 17.6608 2.67258
335.844 19.7903 3.0075
374.903 19.6083 3.0107
372.858 20.6483 3.10656
380.49 17.5077 2.88133
298.24 17.8412 2.70407
341.122 17.669 2.87317
360.927 18.2659 2.91819
368.118 18.8334 3.08299
349.7 18.6176 3.00238
347.314 16.2745 2.80608
316.077 17.9505 3.07534
291.967 18.2873 3.09455
308.579 16.8708 2.88804
357.223 20.1378 3.53856
310.353 21.3094 3.63487
323.723 16.9542 2.90069
310.96 18.3066 3.29202
297.455 16.8336 3.0332
290.68 16.7687 3.05414
357.832 21.137 3.84607
268.396 18.4791 3.39643
265.218 18.2079 3.348
275.611 17.5218 3.21017
254.455 16.4599 3.21426
258.868 19.3548 3.71264
296.618 18.2278 3.55382
299.939 20.8408 4.15923
247.352 17.8064 3.43073
281.911 18.0576 3.66381
278.415 19.705 3.87408
241.906 17.863 3.73868
278.675 17.9814 3.77026
249.928 16.9662 3.47121
292.183 19.7438 4.15146
266.077 18.7636 3.97716
263.707 18.7374 3.86377
274.17 19.2485 4.03518
274.212 19.7749 4.4002
266.226 19.5179 4.38321
262.517 20.3752 4.48321
259.687 18.7736 4.23329
264.318 19.088 4.37008
248.529 18.7633 4.27591
263.086 18.8859 4.36918
244.394 18.2413 4.31813
284.708 20.7434 4.89882
279.831 18.8965 4.40166
240.132 19.0981 4.47964
259.763 18.5474 4.54653
240.898 19.6412 4.76492
214.136 17.7914 4.48777
232.934 22.0658 5.42199
242.554 19.9859 4.8759
210.609 17.2151 4.37832
229.95 17.9968 4.60532
220.403 18.7467 4.72795
206.402 17.6413 4.58798
195.858 16.5303 4.32494
194.362 19.2424 5.172
231.73 19.2145 4.97406
229.36 19.5209 5.11586
221.825 22.4337 5.88759
190.101 19.5042 5.27182
197.777 18.426 5.04354
205.391 20.7257 5.63899
181.654 19.5716 5.45414
169.171 17.5963 4.80966
189.992 18.4426 5.1889
195.459 21.3908 6.05655
168.439 18.4935 5.22632
177.864 18.2977 5.33344
206.876 19.8652 5.53317
181.14 17.1202 5.129
205.725 19.6237 5.78467
176.085 19.2389 5.89388
183.963 19.3087 5.74518
195.262 21.3308 6.51961
163.406 16.7646 5.08485
178.787 16.9518 5.16663
193.353 20.7682 6.56263
175.47 17.7453 5.50017
166.262 19.5306 6.04969
184.798 19.597 6.32627
172.352 19.324 6.15349
157.618 19.873 6.34348
163.841 20.8339 6.72154
171.007 20.8003 6.66514
163.467 20.3609 6.7396
191.559 18.4048 5.97322
190.045 19.0584 6.28038
141.609 19.1246 6.4038
174.838 18.2683 6.31806
175.005 17.7646 6.02966
178.029 21.4455 7.17667
152.562 17.8012 6.2646
164.306 20.0586 7.05719
152.254 18.4292 6.30335
175.012 18.6635 6.35385
141.728 18.7962 6.645
167.088 19.1043 7.03556
141.724 18.7011 6.56862
156.28 19.8442 7.36537
135.462 18.2209 6.52984
137.927 18.06 6.79862
155.353 18.4508 6.67089
135.98 18.9003 7.15576
123.989 16.9189 6.48363
107.559 18.4248 6.92988
107.236 19.7063 7.47359
163.359 18.4862 7.22798
128.318 23.3907 8.72059
100.839 18.2671 7.06587
129.979 18.9701 7.31788
110.606 18.2414 7.15536
125.155 19.9712 7.91115
135.911 17.3093 6.69061
131.419 18.169 7.3468
137.343 20.9588 8.3399
143.913 22.3816 9.27988
116.109 16.7038 6.86764
124.496 20.0551 8.16763
149.438 17.5792 7.00947
117.991 17.3999 7.27204
135.298 18.3433 7.69847
117.103 18.0273 7.8251
127.436 18.861 7.82443
129.666 20.0944 8.4318
132.286 18.2493 7.85508
131.35 18.9911 8.07439
108.028 17.8926 7.86214
115.857 21.6884 9.42325
154.228 19.7482 8.52276
136.595 19.2543 8.53197
115.683 18.7173 8.45326
119.495 19.6949 8.9506
115.936 19.3259 8.68622
110.318 19.0986 8.52645
121.721 21.0744 9.39755
115.435 18.5229 8.6858
111.698 18.9163 8.74081
104.663 17.5996 8.39992
132.624 19.2758 8.94694
114.106 20.1453 9.35441
115.973 18.8474 9.15844
129.736 20.3574 9.81361
119.63 20.643 9.75863
113.148 18.3251 8.80469
113.747 19.6596 9.42553
103.712 18.8478 9.09603
115.861 19.4493 9.44263
96.8818 16.5993 8.31406
93.8371 19.3144 9.45664
103.335 20.0691 10.0089
92.1838 19.2127 9.71918
97.5283 20.8504 10.1735
96.0756 20.1149 10.4088
94.8409 19.1579 9.51827
111.387 18.4495 9.49291
90.2289 18.9563 10.011
90.2163 20.6867 10.4444
102.373 17.9846 9.54114
110.292 18.7947 9.75919
90.6779 18.6806 9.92023
94.6864 19.2247 10.3158
101.095 21.1302 11.1811
99.9275 20.6907 11.1511
90.1947 16.4596 8.83684
97.0496 17.4615 9.50862
103.616 18.5259 10.0141
94.3432 18.1221 10.0312
101.031 18.4299 10.1218
103.279 17.4276 9.54502
103.612 19.059 10.6902
98.285 19.2274 10.7446
98.7374 19.4212 10.3805
102.914 18.7852 10.7812
105.633 18.8208 10.9009
116.161 19.0053 10.9933
99.786 19.8188 11.1688
103.115 17.6918 10.0932
97.8302 18.8572 11.1704
94.9862 16.8921 10.0159
99.7731 20.4781 11.7166
86.7906 18.543 11.1037
95.3969 19.7165 11.3389
95.7261 18.398 10.9855
90.5337 18.4191 10.7906
80.1306 17.8107 10.5885
91.3793 18.717 11.3768
88.0741 20.0049 12.2028
86.0185 18.0666 11.3209
84.0804 17.4725 10.7992
85.4953 16.6719 10.2077
87.5419 19.3407 12.0102
83.5156 18.4387 11.4595
81.6844 18.3655 11.8668
72.5197 18.8616 12.3419
91.8985 20.3138 12.3804
86.8243 19.5766 12.3171
74.9349 19.5672 12.861
76.5 17.4505 11.0033
86.4554 18.5099 11.9013
82.028 20.4312 12.824
76.8748 17.3808 11.6667
80.6262 16.7874 11.1341
82.545 19.7601 12.9772
78.1088 21.6527 14.2217
85.598 18.5064 12.8151
86.7615 18.1106 11.7822
73.5314 16.64 11.4252
84.0711 18.6928 12.4399
91.9331 18.2869 12.1895
83.5026 18.2487 12.8256
76.8315 19.1214 13.2089
83.9978 17.6824 12.2218
82.8957 19.0364 13.2209
75.4802 19.2601 13.467
82.7324 19.3418 13.9374
74.8352 19.2256 13.7132
84.2429 20.5824 13.9755
72.2562 18.1732 12.8383
85.5098 18.6067 13.5704
78.6805 16.4896 12.118
69.5186 17.8031 12.9463
79.87 19.0317 13.752
83.6119 19.773 14.3714
69.4598 19.5264 13.9145
65.4205 18.2318 13.6436
76.9915 18.1178 13.338
76.7306 17.1075 12.5704
74.1382 18.3465 13.8036
66.9496 18.8822 13.8977
73.2881 18.402 13.948
78.4754 18.4676 13.6524
76.6614 19.8938 14.6216
78.1532 18.1794 14.2305
67.6539 17.321 13.2881
64.842 19.4991 15.2541
69.0302 18.1528 14.2037
66.3301 19.0884 14.7604
71.6767 18.7619 14.441
64.6301 16.6089 12.4019
62.4815 18.5829 14.1587
66.4658 17.5863 13.7523
62.4785 17.289 14.2036
65.2177 17.9874 13.8783
67.7839 16.5008 13.1599
62.7934 19.8752 16.3858
63.291 20.195 15.7304
64.4529 19.6378 15.6564
70.2251 19.098 15.8159
69.1177 18.3588 14.7687
61.284 17.308 14.3643
66.5243 18.8513 15.402
76.5641 20.227 16.5221
64.5273 19.1414 15.9442
65.4683 19.3611 16.2861
70.8567 17.3562 14.0659
65.3035 17.7186 15.0845
64.0445 16.9754 14.2987
67.3924 17.8239 14.6188
67.4933 19.141 16.9649
69.4893 18.6529 15.677
75.0549 17.9728 15.5514
72.0898 19.2601 16.5383
66.8824 19.5546 17.1001
58.4928 18.6789 16.4083
66.0522 17.7678 14.7611
57.2166 17.2444 15.4662
61.0123 18.4707 16.4636
55.2023 19.1298 16.8847
58.4121 18.2304 15.5394
59.0025 17.7629 16.0099
56.523 19.1776 16.9684
70.0813 20.2238 17.9549
65.9067 19.0562 17.6248
48.952 17.4392 15.6129
57.7867 20.4955 18.4074
75.8932 20.7093 19.1854
54.1944 18.3847 16.7095
61.5134 17.6521 15.9126
51.2093 18.451 16.7905
52.9374 18.9187 17.5947
62.483 16.7232 15.7908
52.8132 17.2637 15.7489
50.9326 18.647 17.5817
50.3003 16.8991 15.5942
54.6365 17.2519 15.9471
50.3027 16.9211 16.4753
54.6949 17.9396 17.4769
59.5579 19.1018 18.482
64.6027 17.9992 17.0378
50.2999 17.9956 17.1229
56.5355 17.8909 18.0836
54.024 19.5939 18.8494
58.3076 19.0997 17.8223
57.0098 16.6068 16.5593
56.6988 18.9578 18.3041
51.0441 17.503 17.4629
48.1612 17.2088 17.1511
54.5369 18.5506 18.6414
62.2357 17.9381 17.5894
50.9937 21.0896 20.5357
54.766 17.9992 18.876
55.6452 17.7008 17.9574
52.6667 17.7678 18.0431
56.0066 19.3235 18.5189
60.3787 17.9393 19.1523
46.2682 18.0661 18.4388
51.5313 19.8271 20.5777
54.2383 19.9778 19.6019
44.4527 16.0255 17.3488
51.9977 18.4579 18.7272
53.9148 18.4686 19.6622
51.8653 17.7621 18.1774
48.541 17.176 18.3707
61.3027 18.7347 19.4559
50.1112 15.2605 16.2658
50.1662 18.1365 19.0553
52.0446 17.8484 18.9589
54.4892 19.5543 21.0289
57.0072 17.8714 19.2477
50.455 17.0471 19.12
49.4531 18.5747 19.4621
47.9537 17.3532 18.6383
47.3218 17.7946 19.5333
50.6768 19.2354 22.0605
48.0594 18.5166 20.2328
46.5788 18.1484 20.0512
48.2896 19.8417 20.8498
45.2958 17.8002 19.9714
51.5397 16.0568 17.0113
42.4533 16.7092 19.3274
53.7816 18.3788 20.7261
49.4105 17.5382 18.8946
48.4607 19.1539 22.6858
49.6532 17.8942 20.1246
45.1056 16.8602 19.1205
48.9948 18.5612 22.0071
48.9697 17.5963 20.5806
45.8658 18.0759 19.7571
46.6541 17.1934 19.9112
44.8139 16.9252 19.9116
51.16 18.2014 20.8377
44.5208 18.3467 20.7739
47.8694 17.6358 21.0691
43.6429 18.3776 21.4493
47.5708 18.546 22.8511
46.8564 18.3877 21.2549
52.4193 16.3829 18.3589
45.5947 17.6515 21.5978
46.4649 17.5091 20.4567
46.4441 17.5048 21.4263
42.1645 18.1946 20.8978
45.869 18.0491 22.5731
45.6391 18.2585 21.2206
43.0766 17.689 22.2053
43.0353 18.2488 22.1965
45.3544 18.1376 23.1363
52.7432 17.3163 21.5434
44.0597 17.8194 21.7333
50.3897 17.3095 20.7151
45.5024 18.5863 23.2047
43.2145 16.6527 20.4076
41.9844 17.1814 21.4405
40.64 17.3549 20.7808
41.5331 17.351 22.3802
43.5786 17.4436 22.0291
41.4438 16.8742 21.1229
40.5595 16.694 20.9789
49.4298 18.3077 22.3979
39.5537 16.4855 21.4733
38.417 16.238 21.6087
46.0794 16.4075 20.8857
36.4136 17.0038 21.9549
35.6466 17.5284 23.6528
45.1373 18.3988 23.1862
43.4669 17.2154 22.3941
36.0401 17.9206 23.4134
48.4093 17.6772 23.2503
42.4655 17.8483 22.5242
43.4622 16.3457 22.8416
38.3316 17.0504 21.8728
40.648 17.1381 23.1083
43.0835 18.5122 23.33
45.6326 18.4551 25.4558
44.1082 16.5318 21.5593
43.0348 18.554 24.2776
40.9096 19.8426 26.7845
42.7024 16.8193 22.5154
38.4459 17.9268 23.7495
42.7133 18.6113 24.7048
40.7748 18.773 26.774
39.8337 19.4093 26.6151
40.9456 19.539 26.6879
33.6416 17.2814 23.6668
35.5353 18.7346 26.4494
57.6014 18.3814 24.7499
35.6795 22.864 31.0267
33.3252 17.6652 23.5198
39.3606 20.0185 27.8195
36.4468 16.9091 24.0288
38.4319 17.3462 25.5857
38.405 16.5568 22.9593
37.5872 17.8251 26.3197
37.8348 17.8909 25.3315
38.7249 18.5997 26.3124
35.274 18.2966 25.2784
34.7819 16.04 24.2483
36.5635 19.3293 27.9004
29.731 17.1228 23.6936
38.6502 17.8824 25.9403
36.2577 15.8342 22.4221
35.0369 16.6412 24.4342
31.3253 17.5567 25.2011
39.8987 18.5863 26.5961
36.4489 17.4118 24.9986
31.9539 16.3879 23.658
31.6063 19.3728 27.7817
35.9496 16.6319 23.6314
34.5636 15.7935 23.8828
36.8625 17.1941 25.2229
32.3423 16.4653 25.3375
34.2572 18.2805 26.2486
34.054 18.2348 28.1626
36.4747 17.4263 25.8518
37.556 18.2634 27.3935
33.4688 16.5854 24.8563
27.8411 16.9093 24.8344
36.413 18.8435 28.7865
34.0977 17.0362 25.8867
37.0644 17.7953 27.3661
34.981 19.2856 29.3855
38.7978 17.219 25.3545
34.187 17.0381 25.4883
33.2423 15.9318 24.485
32.7874 17.3487 27.2501
30.3627 17.2262 27.9296
32.6205 18.0224 26.3158
32.1783 17.5242 28.6317
34.0443 16.8583 26.2845
27.752 16.383 24.9143
30.5542 17.9062 28.0126
34.5072 15.1855 24.5424
31.1318 16.4142 26.7261
29.7515 18.1534 27.3217
28.624 17.0065 26.3274
31.0096 15.1085 23.8785
32.7103 17.2394 27.5614
36.774 17.8563 28.9085
31.4335 17.3469 26.9947
28.3557 16.9927 27.1519
33.4162 17.0327 26.8531
33.1126 16.7038 26.9113
28.7606 16.3668 26.2141
33.2102 16.897 27.4403
35.5994 18.0712 30.3402
33.6837 17.9913 29.0199
35.7887 19.0838 31.3706
36.0205 18.23 29.1116
34.4175 16.6826 27.1063
30.2464 16.1791 26.4857
28.9917 15.5277 25.9758
30.9258 17.8126 29.8315
31.871 15.8072 26.436
31.8644 14.3378 23.2925
32.0932 15.9608 26.3317
35.2669 16.4868 27.7854
31.6675 16.5588 27.8048
30.3484 15.8473 25.6066
33.0272 16.2806 29.2262
27.4311 15.3262 25.2134
33.9248 15.915 27.2325
31.9872 15.3007 25.3051
29.0189 15.13 26.3181
29.9791 15.9463 27.4754
31.5173 16.5193 28.0907
31.0894 17.1695 29.703
31.0957 15.4897 27.0885
27.056 15.6475 26.9738
30.7574 16.6933 28.0801
30.9578 16.2613 27.8001
29.8931 15.3153 26.2943
29.2152 16.468 29.6759
25.3079 16.6864 28.0678
33.2568 16.8985 28.9549
29.8369 16.8552 28.8009
26.3368 15.0604 28.8441
29.0879 15.9909 26.3562
32.1532 16.9027 30.8436
28.4475 16.7528 29.1186
27.6022 17.2628 31.3278
31.5676 16.0177 30.2657
32.571 17.6806 33.7526
31.1306 20.5667 32.3221
29.3693 17.7581 29.3545
29.2012 17.881 33.4873
25.5996 16.0355 29.8336
29.9569 16.3427 28.5569
30.5685 15.9633 29.7373
27.1782 17.577 31.5143
28.2113 14.7141 27.7944
27.911 16.2536 29.0622
29.4127 17.2449 30.3255
24.3209 15.1673 28.7701
28.1433 16.7851 29.8075
28.652 16.8235 32.3135
30.1572 16.029 30.1281
27.8244 15.5662 27.3184
31.4676 15.274 28.5126
32.1466 15.7296 29.5258
28.529 15.5102 29.8482
30.6295 16.512 30.7234
28.8511 16.7869 31.4454
26.7855 16.2474 30.1858
27.1844 16.4451 30.4446
26.7441 15.6843 30.1543
26.3821 16.0295 29.8345
24.8551 14.7065 29.4811
26.7631 16.6191 31.3718
29.6099 17.3156 31.1255
28.9962 15.4583 30.8355
24.9122 15.6881 29.5801
28.4733 16.5889 32.9071
26.6029 17.8729 33.1079
26.5437 15.634 29.4637
25.658 15.6895 30.5717
27.4301 15.8441 30.0971
29.6346 15.7025 29.7993
24.2302 15.7769 31.0427
27.5782 17.4301 32.3923
26.9133 14.5434 28.5152
23.1464 15.122 29.3314
25.8983 13.802 26.0062
23.8554 15.9509 31.8873
21.6959 14.7812 29.5119
26.0172 15.0501 31.332
27.3268 17.0961 31.6525
29.2792 14.4158 29.2688
26.4817 16.2666 32.9795
22.0889 15.9357 32.8191
28.5201 14.8464 30.9851
27.2078 16.7885 31.8113
26.6695 16.171 32.0368
26.7548 15.876 33.6437
21.4608 15.1273 28.1859
24.5488 14.7175 30.285
25.5058 17.3332 34.7164
27.1076 16.9431 33.0046
26.216 15.1546 32.0104
26.3834 16.955 30.6908
29.1269 15.7906 33.3599
26.3808 15.4872 32.0057
25.0587 15.554 31.2757
25.431 15.6027 34.871
32.0199 15.3372 29.6699
27.2899 15.8044 33.7024
25.2643 16.2791 32.3811
25.1568 15.0782 32.6396
24.6641 15.7569 32.981
25.8538 15.5301 32.6204
22.9027 16.1233 33.5042
29.5088 14.8282 31.5434
26.9626 15.4953 31.2172
22.0599 15.1537 31.5748
27.5933 18.0916 36.159
29.6367 15.4727 31.7522
21.5922 14.4756 29.5528
22.7878 16.8686 34.0076
22.2693 14.1476 31.5613
21.0385 15.6659 33.3204
22.2634 13.6765 30.9648
24.0085 16.39 33.2784
21.858 16.3734 34.7649
19.7408 16.3585 35.0453
23.3379 15.8846 34.3631
21.8593 15.1703 32.6636
23.0212 13.8675 30.1659
25.9436 14.8088 32.7355
24.6691 16.1468 34.7014
21.6109 16.6225 36.0747
22.6525 16.0507 31.8395
23.2303 15.7618 36.0309
26.5155 15.7589 33.7067
20.3734 13.9351 30.1852
21.4418 14.9887 32.1137
23.0355 12.885 27.6662
21.3324 15.38 34.3368
23.8529 14.9138 30.896
24.7468 16.1751 37.9978
21.9574 16.852 33.2777
24.9159 14.4428 33.2642
24.2944 14.5831 32.0987
20.8291 13.7116 31.5701
22.2733 13.8987 31.9817
27.5598 15.0526 33.4034
24.1114 16.991 38.3795
22.2622 15.4201 30.9839
21.7884 13.7781 32.8246
23.1722 16.1339 37.1064
22.5816 16.9278 37.2081
26.8873 15.4933 36.6798
23.658 14.6585 30.5197
22.4679 15.3043 33.1894
27.1393 15.5768 35.2255
25.7035 13.5279 32.707
24.2264 14.3265 32.0099
27.6183 15.1255 33.9486
22.3135 14.0029 33.2676
28.0452 14.2905 32.4609
21.9437 14.4316 33.1833
22.4425 16.2743 36.4366
23.8273 14.2113 33.7424
22.5136 14.4988 33.0423
21.97 14.1083 32.2597
22.6842 15.7043 33.833
20.0835 13.9108 32.4559
21.7888 13.508 33.3268
21.4037 14.609 34.5066
20.433 13.3835 33.4604
22.3236 13.6621 31.2112
21.7929 14.228 34.0237
20.7025 15.5166 35.6649
24.0984 16.1175 35.8894
23.2346 14.3072 32.2503
19.6629 14.4927 33.6623
19.1438 14.9162 35.5255
22.6154 16.4105 37.7472
22.0541 14.5759 37.4882
18.2138 13.9287 32.7556
21.4246 15.216 35.1143
25.2797 14.2088 35.4723
19.8409 14.107 33.8147
22.2564 14.0069 33.3985
19.6558 15.2539 35.4546
24.2373 13.5209 32.3918
20.7886 15.1176 35.2215
20.2532 13.4977 33.4835
23.9804 14.4342 33.5873
22.3074 12.3088 29.81
19.6742 14.3883 35.0353
23.1227 14.4891 36.7856
20.0175 14.9393 36.8651
21.8902 14.6256 33.668
25.6601 13.9147 33.128
19.8518 13.4455 31.9576
20.6029 13.0456 33.1089
22.4316 15.4042 39.087
21.1399 13.979 33.524
24.0666 13.8803 35.7065
22.7499 14.3216 35.3647
