# pn-170911/RbIIR-59-KOKB-1280-1959.psd
# Power spectrum* (dif=0,1,2) (really just |FT|^2)
# NOTE: only the first half! (symmetric)
# weeks: 1280-1959
# 7 clock-days, 0 excluded
# PSD: 1441
110.32 0.0940831 0.0117431
17975.6 0.603884 0.00929981
83111.1 1.45195 0.00908657
13084.3 0.584645 0.00988628
94330.5 6.87424 0.00926301
5038.78 0.414873 0.00925136
4323.02 0.939168 0.00992892
3824.3 0.41527 0.00933759
8496.17 2.24646 0.00914255
1058.86 0.405902 0.0104406
1608.84 0.828974 0.00978902
998.393 0.754256 0.0112569
1495.13 0.899003 0.00920701
1387.31 0.62286 0.0102714
1878.57 2.0164 0.00987898
543.486 0.354555 0.00950572
994.608 1.3498 0.00961821
767.865 1.1516 0.013265
882.833 1.4374 0.00895201
626.232 0.745393 0.0105664
599.589 1.02755 0.0119575
886.429 1.40067 0.0141196
497.889 1.29075 0.0142766
744.073 1.13167 0.0152116
287.804 0.534637 0.00746516
274.658 0.882704 0.0135875
299.529 1.26431 0.0164864
750.251 2.18707 0.0185092
409.598 1.63324 0.0213253
376.721 1.19574 0.0116795
219.888 0.974379 0.0126032
226.474 1.08966 0.0136725
412.655 1.74899 0.0214604
175.155 0.943642 0.0145794
310.639 1.6389 0.024857
407.36 2.16033 0.0208817
329.128 1.14366 0.0197079
210.887 0.866537 0.0234867
243.562 1.87159 0.0218913
416.244 2.67085 0.0180881
215.357 1.81746 0.0209596
255.574 2.20049 0.0301907
384.66 2.8272 0.0243503
308.671 3.21278 0.0298717
551.659 3.68353 0.0458321
138.479 0.803307 0.0188443
372.786 3.37203 0.0543527
203.018 1.69574 0.0262699
179.87 1.93533 0.0219801
140.269 1.89175 0.0403624
260.469 3.3035 0.0480943
343.532 4.14428 0.0607889
208.859 3.204 0.061761
259.498 3.8464 0.0701573
69.8339 1.07604 0.0186591
282.088 3.44933 0.0473326
218.517 3.4668 0.0483464
373.783 5.30644 0.107026
134.307 2.17501 0.0410696
245.629 3.87439 0.0901001
199.77 3.23559 0.0600392
266.202 4.45665 0.107236
257.444 4.03048 0.0773423
131.489 3.08442 0.0471058
145.131 1.97225 0.0376501
200.519 3.69401 0.101831
255.471 5.37471 0.102269
146.809 3.36858 0.0973897
235.365 4.32162 0.0988202
199.566 3.24836 0.0895346
168.31 3.94016 0.136359
379.308 8.93368 0.225104
170.433 3.85634 0.106053
295.484 7.16957 0.200395
218.931 5.88926 0.193788
259.814 6.43691 0.210415
239.002 5.79494 0.130575
83.2842 2.98361 0.0909068
280.051 9.31884 0.289659
201.064 5.93464 0.180289
269.982 7.79386 0.244188
251.482 7.33465 0.2777
156.289 5.7347 0.151831
165.55 3.81536 0.11636
190.781 5.93944 0.196225
258.466 7.79375 0.256835
244.103 8.44653 0.384051
266.366 9.12838 0.287486
165.905 6.04849 0.197912
149.098 5.20915 0.207926
177.996 7.61607 0.327497
120.06 4.06331 0.154614
313.506 12.7308 0.469628
159.38 6.22694 0.30703
240.691 9.81983 0.424494
176.534 7.53466 0.355829
276.771 11.2623 0.524944
248.951 10.5171 0.550603
162.483 6.87392 0.348167
121.611 5.91107 0.284225
210.67 9.9387 0.452784
205.776 10.4382 0.461455
180.172 9.8058 0.519397
165.24 9.24676 0.459738
311.166 14.6011 0.712204
100.57 5.34422 0.358743
172.991 9.41794 0.456047
182.995 10.1215 0.567257
96.4109 4.86455 0.259336
218.672 11.7738 0.645871
282.468 18.3996 1.07362
273.456 18.8293 1.11921
175.264 8.69716 0.54884
97.1126 6.32005 0.422415
114.4 7.23866 0.479703
225.052 13.7937 0.828909
254.797 13.2474 0.699132
249.842 16.2627 1.06815
92.1755 5.69037 0.422359
203.376 13.8091 0.944027
86.5331 6.13741 0.47231
253.361 17.7844 1.25178
80.9917 5.67932 0.471072
198.759 13.9894 0.970631
103.163 6.23743 0.513432
126.786 8.18768 0.626198
122.725 8.40962 0.626515
160.874 15.432 1.22363
153.551 9.44676 0.717819
138.075 9.94224 0.774296
93.7566 6.6605 0.581273
143.179 11.0407 0.930233
85.8756 6.74296 0.627455
83.8321 6.51969 0.529385
167.939 14.9362 1.31729
245.898 19.9258 1.66745
240.009 22.6388 2.09827
156.626 13.1804 1.11096
150.73 12.1838 1.18614
160.352 14.6442 1.304
186.147 18.1571 1.81539
112.235 9.8011 0.875029
98.72 10.3125 0.96462
153.798 17.3613 1.59193
198.739 19.8544 1.87461
138.104 13.254 1.30999
134.217 14.1004 1.44138
82.892 10.5932 1.23992
90.091 8.32982 0.769983
91.7809 9.28948 0.9556
231.871 23.0336 2.36778
51.4037 6.10942 0.793584
123.949 11.5328 1.28988
99.0913 11.141 1.33656
102.684 12.3035 1.32859
131.938 13.4394 1.5326
126.095 15.3586 1.79084
106.328 11.735 1.37849
189.996 21.8078 2.39383
125.248 14.7759 1.65976
110.45 12.5335 1.50104
79.8669 10.7406 1.34509
107.471 16.8704 2.20562
93.0213 10.5856 1.35656
92.504 9.94875 1.25597
170.62 18.9207 2.0835
228.244 30.9396 3.99466
77.3244 9.98189 1.42672
74.4673 9.68055 1.3055
111.725 12.219 1.54157
143.58 17.6694 2.26176
118.322 18.4272 2.80532
127.972 16.4241 2.24159
43.067 5.22204 0.706518
99.8271 13.7166 1.86063
80.9853 14.345 2.22569
104.391 12.7009 1.90359
71.6511 10.3891 1.51516
68.9243 10.25 1.57363
151.557 19.5535 2.69505
111.628 17.1393 2.663
62.7554 10.3637 1.71302
116.942 19.2237 2.93778
17.3421 2.37193 0.44243
102.388 14.875 2.48198
45.3424 7.48076 1.34249
141.226 20.759 3.11612
69.8048 11.1704 1.93987
97.0282 17.4014 2.88712
49.5514 7.34254 1.15815
109.389 18.75 3.21684
69.6199 13.6771 2.4016
206.75 33.9822 5.67547
49.0446 7.2644 1.27912
119.635 20.8111 3.60967
47.1106 8.33387 1.39971
73.3406 14.7954 2.6587
98.7817 23.5123 4.614
110.062 16.1352 2.80276
122.417 21.2285 4.07391
50.1999 8.60912 1.74825
100.5 14.9914 2.63041
128.882 25.4342 4.86502
95.3428 15.7469 2.84015
69.211 14.9988 3.16893
91.4349 18.041 3.48625
110.311 23.5919 4.58179
29.3643 8.54302 1.92493
33.3112 7.52587 1.59238
87.1221 14.4807 2.98085
95.9107 19.0153 3.69251
29.3349 5.25474 1.17576
42.9854 7.08181 1.35632
69.5525 15.2557 3.41454
62.6499 14.3528 3.15364
43.1422 7.79402 1.61725
91.6556 18.2369 3.71245
86.6791 18.9151 4.41164
75.7304 15.0236 3.12099
72.6573 12.9878 2.68572
59.4925 12.0938 2.68011
46.3457 10.7862 2.72739
46.9668 11.7203 2.78812
71.6588 16.6052 4.11884
59.4426 12.6497 2.9936
110.983 28.4567 7.24745
68.9585 14.1659 3.05627
69.4404 16.9801 4.13604
55.7447 12.4931 3.05573
96.8583 25.874 6.64113
66.3537 14.5211 3.24886
80.2837 20.1516 5.412
28.0515 6.12579 1.56141
91.3313 22.7181 6.36761
44.3876 11.2436 2.55695
122.212 32.7155 9.20109
90.8155 20.9387 4.91981
73.2977 18.3583 4.57249
46.5833 10.17 2.58024
120.503 31.6858 8.70278
47.828 14.1258 4.02434
61.139 15.2259 3.80483
38.4217 10.7464 3.0361
37.8879 10.0906 3.15455
80.1022 21.3826 5.68275
86.3723 23.0373 6.45061
76.4997 21.2252 5.94402
39.0294 13.2248 4.03684
25.0433 6.86051 1.9541
75.4453 20.7942 5.64231
51.5709 13.161 3.71606
18.7546 3.94824 1.1091
59.208 17.305 5.25175
90.5132 25.141 6.38571
28.6883 10.3133 3.85714
28.447 9.70118 3.0728
63.7614 16.4055 4.13175
81.6411 26.9508 7.8076
54.5896 17.5861 6.11792
66.5242 19.301 5.5296
46.0014 14.635 4.68864
49.205 16.9008 5.59672
71.4767 19.4837 6.59628
56.7403 16.2423 4.37224
41.6718 15.3048 6.48808
69.2217 19.0245 5.11045
26.4395 8.42611 2.15268
26.3693 12.4063 4.57179
65.3653 17.8947 5.27579
39.6454 16.1351 5.95333
59.9456 16.4796 5.29988
58.862 20.8626 6.50143
54.768 20.5237 7.93793
17.8916 5.82402 2.24465
50.8966 16.9382 5.38827
34.5797 11.4063 3.74671
32.6086 11.7351 4.08693
49.468 17.8589 6.89011
20.858 6.4583 2.759
77.5238 26.2474 8.44036
43.0487 15.9051 7.22815
30.8832 8.35334 2.69668
87.1803 30.1327 9.93694
29.1853 10.8037 3.75437
47.1035 18.0915 6.77645
28.284 11.5924 4.19355
28.813 14.5565 6.15607
43.1706 13.7803 4.70264
57.8114 25.1018 10.7102
41.2862 11.1338 3.32126
55.0201 24.8103 9.90536
74.7724 24.8671 9.82749
51.1404 20.0559 7.31446
40.9477 15.0495 6.23637
39.0034 15.0582 5.16617
54.2422 24.1418 10.2223
45.1735 17.4867 7.39516
32.1894 12.5261 5.30519
62.684 22.3261 9.40365
23.0057 8.56203 3.6021
38.1364 15.0447 6.54442
40.4825 16.6941 6.59215
39.1345 15.8579 6.78844
44.164 18.208 6.91446
56.6802 21.9558 9.76403
58.3944 23.0582 9.72779
62.1467 28.0331 12.9519
38.3103 15.2826 5.76804
80.7209 39.21 16.9566
37.2899 19.0597 9.3842
80.6904 35.7161 15.3932
44.5741 18.6037 9.03584
47.0675 19.4485 7.9767
55.3759 24.584 11.9928
29.3654 15.0454 8.08133
56.7774 23.8609 10.0705
24.3497 10.6817 4.35423
42.7152 17.8123 6.70651
30.6907 17.3196 8.43943
54.3231 23.4643 9.78749
30.1251 13.8171 6.84001
40.0492 19.4833 8.23366
16.3744 11.094 7.29309
89.3568 37.93 16.3793
28.7186 12.5494 6.18698
42.6374 19.8582 10.1127
54.9259 26.1175 13.4259
47.4131 17.763 6.82822
22.1151 9.8098 4.9238
34.412 19.3982 11.8708
29.2475 12.2853 4.87403
43.9048 19.7597 8.65116
28.4513 17.9222 11.614
62.5095 27.4282 10.8109
28.6988 14.1544 5.88311
23.5803 13.9958 8.00158
26.5227 12.8443 6.97589
29.287 17.9546 10.7664
44.7364 22.4849 10.7301
48.758 22.974 12.0155
42.6189 25.2017 14.8247
23.7985 11.1137 6.00987
27.205 14.6438 7.99646
43.7781 23.4003 11.0398
46.4025 30.8165 18.4611
32.0001 12.9145 5.68698
26.8213 13.9807 6.62192
25.7015 14.4815 9.42274
20.7025 11.0392 5.6909
26.937 14.5354 7.79135
36.7408 20.1806 10.9437
16.4265 7.301 4.29955
42.5983 23.0446 12.7191
62.522 35.1862 19.2308
30.1847 16.6667 9.59031
22.2553 15.1522 10.9012
61.444 38.4267 21.5137
42.8116 24.8145 15.9138
46.4229 22.0271 10.7509
30.6382 13.5992 6.81171
36.9537 22.8675 13.2941
15.0787 9.8035 5.78294
15.7748 13.4153 11.1554
34.8722 16.8331 8.59628
22.4218 11.8182 7.73048
32.0252 17.8173 10.6272
28.3357 17.4275 12.0929
35.519 18.2301 8.36566
17.7767 8.80487 4.32445
16.0766 11.261 7.26619
9.65678 7.13614 4.9794
32.984 22.2226 14.9056
39.8504 23.834 13.2285
17.7509 13.0459 9.85873
34.2963 20.0034 10.1603
39.7831 24.1052 14.7944
34.9939 24.5946 15.2333
28.3547 20.438 14.4186
19.489 9.01266 5.0645
33.5712 24.2458 16.9951
27.9108 17.3952 11.5661
16.2681 11.3545 6.85879
25.6241 16.8042 11.7621
25.5783 20.5188 15.1876
49.8421 29.3514 16.1262
16.876 13.4587 10.5309
28.5494 19.63 13.7884
48.9295 28.303 16.7414
34.1191 22.8179 13.765
21.293 15.9081 11.6488
7.91652 7.94933 7.12488
15.6199 10.7476 9.83747
36.1819 23.5691 16.349
38.5013 26.3553 16.6763
45.4636 34.8877 23.2591
15.5031 9.94851 7.79511
24.812 15.551 10.41
33.9411 22.1192 14.0345
24.3738 19.0413 14.6525
25.0204 18.9095 13.3135
20.4935 13.0996 8.94228
17.0923 14.3284 11.6644
39.4023 26.2592 17.1627
25.3774 19.5687 12.2496
16.5017 17.1195 14.3865
24.5659 13.8965 8.5708
21.8888 18.2198 14.4702
25.6351 15.6677 11.2458
18.5484 12.6125 9.60922
18.5168 13.7311 10.3922
15.5912 9.45999 7.40675
22.267 17.6555 15.0511
42.7175 27.2485 17.4059
8.80648 8.43491 9.99486
13.0597 7.5469 3.5776
16.2016 14.8731 12.5385
28.723 21.1941 12.2636
10.4902 11.4135 10.3191
32.609 27.2431 21.7575
24.1387 19.1972 15.0567
18.5052 14.3325 10.2587
15.6373 15.2843 12.9825
26.3239 18.6764 14.3006
26.4963 14.7241 8.50492
19.1038 16.4824 14.1363
22.9909 17.1761 14.0221
17.1985 13.2276 8.65738
31.4438 34.4657 31.9699
23.7119 14.8404 9.68579
18.4117 17.6789 15.9651
18.0366 10.3786 6.10006
16.9693 15.9422 15.7266
24.6522 17.2115 12.0311
23.5635 20.3172 17.8443
8.43382 8.7524 8.59675
18.0524 15.9928 14.4214
22.0336 16.5446 12.9769
15.9404 13.4285 11.9492
14.6724 9.63951 6.30219
20.0657 16.3029 13.3383
9.09284 9.51532 9.54773
13.5111 9.99973 10.5298
28.0148 20.8457 14.5113
11.9705 14.3856 16.9861
24.2349 17.8343 12.7578
17.5127 17.6008 17.9037
13.3116 9.18254 8.96964
17.5258 15.2117 12.8848
18.9511 14.4715 11.4512
24.3805 22.9482 18.2675
12.3048 9.52238 7.80238
23.2405 23.2227 20.0333
23.2555 22.1048 17.7908
28.7725 27.9401 28.6996
28.3722 22.4192 13.9435
9.11972 8.54884 8.74356
15.1401 13.4488 8.05367
16.1304 22.0317 24.0741
35.9882 31.8449 23.9098
20.0274 24.7582 25.1542
15.2254 12.1603 10.5428
14.37 16.7147 19.0185
16.0189 10.8785 9.09515
19.5518 19.6956 18.2868
12.9322 12.7983 12.2241
17.0762 16.8639 17.3587
15.9339 11.9953 12.8702
30.6356 29.8333 30.0699
15.5777 16.5662 15.8509
16.6242 15.9682 17.6486
24.8733 17.8993 11.7685
15.8026 15.3694 12.511
12.2928 12.0728 11.6628
8.97716 11.454 13.6096
7.63263 7.4096 10.5836
23.771 20.6606 17.5368
12.5135 12.2825 11.2021
17.818 18.101 17.5982
18.7026 22.7778 23.8246
12.3224 11.2607 14.0042
33.2761 31.8779 23.2625
10.0026 12.3227 12.1015
15.62 23.0839 28.4858
24.0307 18.0789 15.9594
22.7314 21.8033 19.6071
13.5196 14.9626 16.6366
20.7134 18.0386 13.0883
18.9191 23.2008 21.4378
12.3534 17.992 18.7014
14.0264 19.8758 24.3922
17.9348 16.7456 15.5768
9.57081 12.8288 17.9169
32.5397 34.6766 34.8986
23.6618 24.0108 23.6078
13.702 16.7921 18.8787
19.9567 25.0244 28.506
13.6855 15.4141 20.7488
23.6864 16.5493 12.0078
13.2227 15.0949 13.1569
19.1192 29.3122 37.6998
21.1848 16.9239 16.2737
13.319 11.989 10.2011
13.6973 17.7191 20.9843
22.4622 29.049 33.5345
9.77019 5.69682 5.79434
22.354 25.0457 26.4426
14.6765 14.5042 15.5865
10.2861 11.6553 10.5783
9.53254 15.7933 18.8219
12.8304 10.3854 8.11813
13.9658 19.5418 20.3683
7.47672 13.3396 19.5335
10.8365 12.7912 18.6365
14.6774 11.6129 11.7186
13.5589 16.5126 20.0325
25.9552 28.2087 23.6418
15.0001 17.8832 16.4624
11.5648 25.7364 37.7106
22.4348 26.5344 27.6345
9.92676 16.1495 23.9839
14.0101 13.98 17.6306
11.3903 12.5903 17.3739
10.5906 12.7842 18.5726
19.5125 14.937 12.5247
13.3186 19.372 22.5991
8.36045 10.6746 16.903
10.475 10.3773 14.3635
22.437 20.6808 17.8607
9.79029 13.4826 16.3747
11.6987 17.1524 22.4519
9.14338 6.2595 4.06305
9.27721 16.2553 21.9692
12.6355 14.3307 17.4903
10.0094 12.8226 17.3024
11.5584 13.9937 17.3834
12.7342 16.6627 19.8485
9.58178 8.39947 9.17944
8.93221 16.9251 27.7739
18.4543 21.373 28.094
16.5942 16.7027 20.147
9.65457 7.62125 7.82158
10.5029 12.0876 13.0594
10.5173 18.2606 28.9605
20.2914 18.5297 19.7574
18.9342 21.5081 22.3599
12.2238 13.884 18.2125
7.66591 8.32668 9.19921
7.99918 11.7534 16.0373
7.71603 14.1287 25.0031
13.5846 10.0865 12.2611
10.8567 12.9454 22.2996
23.0057 20.3563 16.5433
22.6385 27.9827 29.8224
8.79354 11.7284 14.0073
8.51725 12.1064 17.4829
10.8815 10.6665 16.5947
23.3074 28.324 33.5359
18.7966 22.8699 26.8097
8.77893 12.3663 17.7965
15.3974 24.7735 32.3884
15.0816 17.8338 23.0461
13.5155 21.3131 36.7472
12.0444 13.8571 17.7528
10.9397 13.8509 18.7737
14.5994 18.7364 26.7458
13.4234 16.3259 22.3206
20.901 25.3469 28.8789
14.2674 20.3679 22.1471
6.46383 11.1456 17.281
4.32623 4.51276 8.60452
12.0544 15.6607 21.2859
11.3839 18.7163 27.068
14.3061 17.7684 22.5058
14.1412 15.9201 18.7501
8.8562 12.4466 14.4534
4.01611 8.83703 16.2069
8.84614 15.4316 29.9016
22.3692 25.5189 32.0019
8.90885 8.42266 9.11994
5.57835 8.06729 9.6749
8.52292 12.4383 15.3068
5.56486 5.62453 9.02875
8.45445 12.9751 16.8476
9.67117 11.8003 14.1754
11.9048 18.3523 24.9739
4.53918 5.68391 10.1986
12.3319 20.5671 25.5961
8.89802 13.9207 21.0086
5.58317 8.64193 13.5076
11.6569 23.1495 41.463
18.945 22.4334 25.9934
9.28653 15.2297 21.6364
4.7466 5.23362 11.4214
10.047 13.3967 22.5186
16.6276 16.8928 18.1573
13.3531 24.4461 38.1574
13.8285 22.0782 37.4909
9.30406 9.561 11.6381
5.92041 8.90449 22.0782
17.9961 18.0453 13.0069
9.57434 15.0854 17.0635
10.0778 18.9552 25.9419
5.45222 10.1459 19.6738
4.5273 6.02012 15.9097
14.7302 20.9051 24.6702
6.95476 10.5298 17.2955
8.38047 8.26102 9.9474
11.1553 15.1145 16.7038
4.74778 10.4293 18.2993
10.0385 14.8998 23.4946
17.2658 28.1223 41.3179
4.05198 6.22535 14.5245
8.70199 15.7839 24.3079
4.9954 6.00723 12.0103
4.60224 7.51154 12.6357
7.19031 9.5512 11.7841
7.45962 12.0202 13.7645
5.2198 13.3866 22.9
7.15323 12.0078 21.6561
8.13133 8.06085 10.1234
5.18058 8.95947 14.7083
6.68355 11.3325 20.2493
10.8158 15.1746 25.4218
8.33945 11.3728 18.0503
11.9636 19.1856 24.8957
7.28118 13.8566 22.9091
4.08368 7.56063 18.414
11.0284 16.8352 29.198
6.70984 6.55377 9.37465
6.61036 9.64799 16.5632
8.23801 13.719 17.2872
7.45879 14.0214 23.2706
8.69708 15.9856 22.5283
6.00194 11.9429 21.1526
4.70888 9.58662 20.9279
4.34801 7.10861 20.2494
8.55485 8.42604 15.6509
6.67482 6.35265 10.0376
5.20639 7.13972 24.0753
19.642 26.4457 33.2245
22.1053 36.1933 44.198
11.1146 21.2933 34.7681
7.07488 15.4124 31.8654
7.84546 14.9663 27.1369
6.65331 8.403 18.4828
10.5484 18.618 34.8405
7.33085 6.21477 10.3853
8.09684 10.5846 15.7994
6.58663 7.71531 12.2129
7.00362 11.772 19.4644
5.10733 6.59682 14.0037
15.4825 25.4809 44.5591
9.61157 13.1145 21.3494
14.2858 21.1969 28.3968
8.98868 16.9611 30.9984
9.34998 29.0955 99.1487
55.9498 80.3557 96.6148
23.4592 35.9509 42.7856
6.88033 16.1498 31.7333
12.5422 23.0759 42.7807
4.14025 6.67415 23.6363
15.3117 18.4595 17.7431
4.33786 7.94812 15.0445
6.98517 12.3858 17.3527
4.11251 7.39219 15.923
11.623 22.3262 35.1903
10.8376 22.7809 33.8412
7.50599 19.4468 43.6607
11.1627 17.8991 35.6875
9.58213 15.9011 29.4372
10.3604 24.3322 44.5153
7.26096 12.8554 39.9404
20.9053 30.5066 51.4704
16.3041 21.1285 23.4907
4.81852 11.9241 21.576
5.32343 7.66021 14.581
4.64049 7.68112 18.2139
8.00759 12.3088 24.9038
10.6903 19.2193 29.2172
5.2594 9.86531 19.1861
5.81705 9.45972 16.9499
4.73538 8.2764 16.3439
7.31708 19.9758 47.0694
10.5079 10.6722 19.5654
9.99179 15.0001 25.9187
9.12168 14.9788 23.762
8.62584 10.4874 9.15942
4.02729 10.5779 28.8489
19.2028 33.5119 41.7776
2.81192 11.2878 31.6793
8.17194 15.0707 31.8318
7.77971 11.0024 16.6415
4.30857 8.58144 25.2988
13.0823 23.8487 36.9907
6.15493 13.0197 30.0941
5.55974 8.91375 23.6247
12.5528 19.6485 31.9679
13.4397 27.6716 44.4013
8.64866 20.1168 38.702
5.47274 7.26924 20.0847
8.17505 9.60772 12.0785
8.07907 17.2011 33.1147
6.76462 11.8545 32.8244
12.318 22.746 38.56
9.52702 17.0007 24.0472
4.32912 11.9783 29.9645
5.43845 5.45884 13.0858
9.41748 15.0229 21.8932
6.76076 14.8184 31.9032
7.79741 14.3758 23.1862
6.29538 11.141 19.8391
3.27156 5.84571 12.4718
5.42391 14.3697 28.9086
5.35025 11.1453 27.8464
8.79895 15.8435 27.5704
5.29376 9.65294 20.1387
7.03605 14.6907 32.0528
6.20116 15.1777 38.6034
7.44682 9.89934 14.3933
5.34789 10.4524 18.1523
4.37725 7.1868 15.7878
6.38042 12.7088 21.0333
5.0289 16.0135 39.5886
14.9858 30.5332 49.7854
4.51534 12.2622 42.7229
12.5603 15.1796 15.9606
6.50917 12.4724 16.8737
5.58343 19.0958 38.6313
4.16099 5.23554 12.9675
4.92597 12.6417 30.1027
9.22681 16.1307 29.9576
3.14292 7.11527 24.2983
8.60472 12.4787 24.9118
6.8882 14.6187 31.47
7.69221 17.346 38.9446
7.02332 9.29557 14.4762
4.76268 8.90709 19.2137
5.46357 16.642 45.8341
12.4911 18.8207 33.4983
4.9235 5.09124 8.87874
4.79984 10.3296 18.1668
6.03569 12.4748 25.8338
7.2115 15.1177 28.7516
5.80742 9.49242 23.6516
9.6394 19.1255 30.5426
5.50304 12.9021 24.1552
3.76196 11.3935 29.6555
3.91454 6.24776 16.8877
8.67461 17.1606 36.937
8.56533 16.371 24.9848
2.7984 9.82739 26.2666
4.65264 11.3435 24.0605
5.09149 11.1975 28.4799
3.99881 5.80389 13.6537
3.2089 7.2285 19.4109
5.14344 10.765 30.1102
9.76448 14.6017 15.0818
2.87004 8.22032 19.1242
3.55066 8.04987 20.7031
4.91615 12.3666 21.6946
3.81758 14.2393 36.9388
4.78882 9.90674 28.5475
4.31353 6.24524 23.1923
7.85154 12.0877 25.7227
4.82119 12.3193 57.2973
21.5485 29.7318 35.9255
8.49479 16.4484 32.8761
6.38987 14.4483 39.7045
13.861 18.448 18.5928
8.34481 21.403 37.5439
6.31059 11.5804 18.3736
4.65067 13.5975 29.6007
5.65794 15.1834 30.7543
3.33994 9.20766 26.6624
4.62354 12.1142 32.2868
6.34619 13.5657 29.4616
3.8625 6.97463 19.9307
7.12466 15.5182 31.9582
5.12354 10.4238 21.9382
4.31256 8.95701 15.4801
4.49726 12.576 35.8206
6.78077 14.8046 39.9323
6.08749 10.1249 15.1701
3.75127 10.9601 23.0067
4.30319 11.8623 41.7143
11.1176 28.066 56.2914
4.41003 5.89576 14.8473
4.63191 11.3277 22.8973
4.09474 14.3617 45.0364
7.22915 9.66606 15.9618
3.2291 11.4749 31.304
5.51137 8.48109 20.2586
5.07328 11.0113 30.7809
5.71513 8.96903 10.7633
3.37012 8.33128 15.9884
5.9483 17.1728 39.0706
4.36536 9.43903 20.377
4.95393 12.6168 31.1606
5.25918 9.00708 17.6836
3.89899 11.9716 25.3606
5.116 10.3534 23.0373
2.76446 6.87121 18.2529
2.20983 5.50289 12.4712
2.52979 6.97828 17.7973
4.46678 7.63135 12.364
2.723 8.72243 24.1553
4.95244 13.9784 31.4555
4.12077 7.83292 19.1884
2.77937 6.33828 12.3678
2.33376 5.29336 11.389
2.33668 7.27191 16.8668
1.72078 5.83102 22.1459
3.80387 6.98243 20.0269
4.92376 11.438 26.4449
4.47013 8.13494 23.1096
2.72316 5.34176 17.5768
6.02031 13.6862 24.7661
3.28974 9.69191 21.1887
3.81949 10.6607 22.1992
2.68747 7.56335 26.9419
4.25644 7.13428 30.6975
9.15192 13.1572 16.6934
2.95168 8.60417 26.7114
5.72901 10.2407 17.1792
4.87778 12.2531 26.2895
3.81745 6.90645 16.5243
