# pn-170911/RbIIR-58-RbII-1280-1959.psd
# Power spectrum* (dif=0,1,2) (really just |FT|^2)
# NOTE: only the first half! (symmetric)
# weeks: 1280-1959
# 46 clock-days, 3 excluded
# PSD: 1441
148532 3.28191 0.0269281
4.05873e+06 157.146 0.109932
6.06259e+06 79.9814 0.104685
1.75051e+06 31.9503 0.101684
1.39014e+06 24.9115 0.114592
1.04587e+06 15.2653 0.0987753
597753 12.9184 0.0861516
402731 8.91647 0.0953931
292263 7.0057 0.0862395
274005 6.63898 0.0979333
224769 4.92532 0.102563
219236 4.61815 0.0740229
147975 4.60624 0.0795965
140450 3.48108 0.0973337
115972 3.87041 0.0967172
78458.9 3.74813 0.104963
85896.6 3.3663 0.102942
94579.8 2.68202 0.11437
78833.4 2.81304 0.0833881
58588 3.10334 0.096856
42064.7 2.99713 0.0945019
56108.3 2.95019 0.116661
60744.6 2.79763 0.111607
41701.3 2.38141 0.102057
33793 3.14841 0.123532
36685 2.51076 0.129838
23548.1 1.92981 0.136509
34294.2 2.49336 0.119422
34074.4 1.97104 0.130549
21447.2 2.88497 0.128184
20467.9 2.45543 0.119673
20657.5 1.80804 0.128795
17554.9 2.36242 0.123668
19690.9 1.92446 0.104947
22639.3 2.08891 0.132297
17796.4 2.5979 0.122343
17486.9 2.16327 0.119416
21239.2 2.63134 0.119663
16435.9 2.35475 0.150175
13780.6 2.92347 0.127153
15426.8 2.67601 0.110888
12461.1 2.30816 0.117956
13609 2.74449 0.135714
12877.5 2.31452 0.113066
9689.58 2.22297 0.157967
9712.73 2.53772 0.111276
12676.9 2.84486 0.129416
11774.4 2.05644 0.150513
6398.42 3.63348 0.142352
5869.79 2.52996 0.131764
8970.7 2.7845 0.160912
9796.84 3.03204 0.140197
7627.43 3.54933 0.172227
6748.98 3.68901 0.167899
7852.56 3.11916 0.146084
8469.38 3.59753 0.147615
8258.18 3.71708 0.145286
7486.78 2.78504 0.160222
5902.14 2.81863 0.134491
8207.75 2.44042 0.138516
6171.79 3.397 0.126963
5599.6 3.39435 0.200014
6727.28 4.59088 0.256478
8567.47 3.70305 0.221409
6155.33 3.38963 0.185339
5586.17 3.67679 0.137288
5607.24 4.9557 0.212189
5959.87 4.13551 0.203683
6020.51 4.52602 0.206164
5127.4 3.34217 0.182101
4997.99 4.86999 0.231138
5448.29 3.83006 0.193978
5373.37 3.70087 0.209866
4848.24 3.5907 0.212611
5434.57 3.71547 0.223051
3920.2 4.35242 0.188849
6373.26 4.7235 0.208439
4599.37 4.29109 0.210243
5004.83 3.37829 0.20262
3827.07 3.74377 0.17256
4265.11 4.2951 0.240696
3792.94 3.98764 0.195175
3760.65 6.32751 0.346203
3122.75 4.69792 0.243641
3576.13 3.75776 0.198215
3481.32 4.70031 0.271797
2905.31 4.81928 0.237001
2891.41 5.12124 0.307024
3205.11 5.32626 0.292243
2736.63 5.23482 0.330704
2266.71 6.18729 0.414178
2921.31 5.54076 0.283618
2882.99 6.12287 0.36357
2116.82 4.39843 0.268591
2789.71 6.08775 0.395281
3356.32 7.913 0.458356
2292.28 7.27132 0.363317
2701.61 6.47064 0.420534
2467.94 6.0711 0.40945
1641.65 5.0325 0.267332
2297.69 4.93 0.352968
3071.33 5.74661 0.384731
2425.25 6.60505 0.458693
2373.93 8.72957 0.555824
2755.28 4.67838 0.323634
2485.4 5.68262 0.366439
1625.12 6.18425 0.380099
2381.28 5.51751 0.385802
2162.09 5.71249 0.433739
2139.61 5.87703 0.440172
1691.26 6.5983 0.459785
2137.06 8.72382 0.687037
2144.09 7.67603 0.565864
1658.75 7.7089 0.615299
2166.03 8.77137 0.612524
1846.85 6.64788 0.603188
1307.4 8.79511 0.68782
1361.19 6.9926 0.515966
2152.06 7.95218 0.577473
1926.29 9.49136 0.689709
1691.89 9.22018 0.701743
1471.38 6.56196 0.589401
1685.65 9.03257 0.757252
2166.65 6.84104 0.590256
2097.21 6.5618 0.589968
1833.37 9.35921 0.761789
1372.82 7.20087 0.685324
1563.96 8.05469 0.752357
1440.72 8.08494 0.731351
1567.71 8.09925 0.817415
1226.98 9.6568 0.903051
1202.53 10.5789 1.01889
1584.81 9.63012 1.05315
1146.04 9.02441 0.79409
1563.77 8.26849 0.879518
1772.82 10.203 0.992875
1693.66 7.89174 0.791368
1060.17 10.112 1.17984
1122.94 11.8433 1.11464
1519.81 9.73958 1.03303
1333.75 9.74665 1.05394
1314.6 11.7002 1.23836
1071.93 9.43707 0.961697
894.982 11.5781 1.27585
1163.03 11.8396 1.38049
1009.6 8.6615 1.01815
915.656 10.3041 1.19208
1109.72 11.5666 1.36024
1044.6 11.9124 1.3916
1191.64 9.51309 1.14421
963.782 10.4334 1.12072
1019.1 11.8122 1.4528
1444.61 9.06432 1.07226
1258.42 12.228 1.59081
1276.02 11.0776 1.42586
974.194 8.1361 0.999563
1228.1 12.3875 1.61026
923.344 10.0888 1.26098
871.89 8.6576 1.06698
933.267 9.74507 1.18401
1045.47 12.3593 1.61538
865.889 11.1145 1.44619
996.798 10.2781 1.34862
1051.25 11.9283 1.61093
1627.26 12.8018 1.52333
1202.08 12.3355 1.58721
857.583 10.4984 1.49621
922.515 15.3097 2.2046
1106.64 10.175 1.48313
922.179 11.8897 1.81316
1114.12 10.3885 1.52616
638.471 12.6061 1.78303
550.359 11.6163 1.68209
993.145 13.0815 2.05761
903.033 14.0538 2.0996
606.789 10.6382 1.61883
817.36 12.6854 1.74763
919.858 13.9639 2.12575
669.012 11.7536 1.99866
817.35 12.5472 2.00157
878.041 10.5164 1.68975
869.608 12.0395 1.9522
641.729 11.8052 1.79911
729.392 12.5432 2.04275
943.703 12.9211 2.04377
661.524 15.4466 2.36888
782.218 10.6092 1.64017
927.971 13.4087 2.4139
698.327 12.4694 2.25758
499.864 10.1256 1.8097
749.433 14.0501 2.34067
840.378 15.595 2.72397
605.742 11.174 2.05995
909.464 12.5442 2.58093
651.203 12.1579 2.17531
653.995 14.3369 2.71297
640.481 16.4201 3.0568
761.77 17.2048 3.30862
494.245 13.4777 2.7893
565.858 14.1519 2.73765
577.497 14.5102 2.73967
617.819 16.802 3.21954
569.459 14.0044 3.03971
665.688 14.1942 2.83645
735.699 17.043 3.3162
599.651 15.6345 3.22829
688.15 15.3964 3.23124
635.802 13.694 2.86283
674.14 15.1467 3.21977
782.798 16.479 3.2832
778.86 14.1409 3.05204
774.458 12.7375 2.67313
951.881 14.8028 3.43392
524.496 19.3297 4.12388
659.084 16.1113 3.75286
690.324 14.9606 3.2355
662.575 16.0956 3.54516
662.393 17.9427 4.24867
526.314 12.692 2.89114
707.265 16.6307 3.87352
661.642 17.2515 4.00347
536.422 12.5529 3.04559
638.17 19.6594 4.95183
575.996 12.2464 3.00893
576.187 16.5293 3.87142
660.75 16.0192 4.08341
651.017 14.8978 3.44561
442.317 15.4738 3.58131
531.091 19.5492 4.62633
581.788 16.7025 4.23954
431.825 13.0683 3.36568
517.739 14.5582 3.85973
553.133 16.3826 3.77652
566.152 16.9697 4.40419
476.657 15.106 3.93484
458.77 16.3626 4.21951
487.557 15.2279 4.12814
500.795 15.6388 4.23957
449.968 21.1251 5.38288
342.308 17.8749 4.8595
374.536 17.5267 4.3477
508.678 17.245 4.73281
522.992 16.7956 4.50696
375.744 14.5284 4.17226
405.732 14.1145 4.11637
501.101 21.194 6.00398
485.82 20.2892 5.78271
419.735 19.3198 5.43931
455.936 14.1491 4.15022
527.427 19.926 5.69559
529.072 13.5288 3.88827
545.527 17.6765 5.52888
443.873 17.4658 5.16643
382 23.5672 7.28206
539.234 23.9381 6.91021
411.429 19.0941 5.98744
443.513 18.5592 5.75226
425.075 15.9032 5.35459
333.962 15.4067 4.70533
374.891 14.4321 4.81273
536.917 16.1019 5.16769
391.322 17.2193 5.3507
285.885 13.8049 4.73013
385.351 16.999 5.9034
375.034 19.6336 5.79846
400.823 15.2746 4.93387
442.881 17.4248 5.77271
388.791 18.7683 6.92327
261.843 19.7862 7.08467
388.908 22.5267 7.34329
544.842 22.895 7.9815
384.313 19.3135 6.83526
373.608 15.772 5.47025
251.436 14.0963 5.20765
404.147 21.655 7.3932
362.537 16.3683 5.51231
314.736 20.2275 7.17639
423.853 20.8605 7.83747
359.121 19.0302 6.28
272.292 16.7703 6.04965
318.992 19.5651 6.99478
336.572 18.5645 6.82451
339.52 17.7311 6.62477
361.281 20.7944 7.34583
245.227 20.6383 8.08526
133.492 19.5062 7.37519
197.537 21.3778 8.0701
358.208 18.479 7.80131
187.317 21.7131 8.04915
247.984 21.9624 8.61179
277.174 20.4757 7.65364
220.063 18.5081 7.496
308.268 26.8549 11.411
391.743 23.2206 8.92749
312.804 22.1733 8.94267
326.073 19.5694 6.97123
290.416 19.1488 8.04833
290.224 16.4222 6.23455
262.717 21.3392 9.14048
373.862 19.0161 7.25218
312.54 18.6108 7.38912
356.398 13.2329 6.0112
286.07 18.6561 8.13686
219.744 18.6 7.79154
311.322 20.8328 9.24714
357.384 23.3849 9.93967
287.702 16.4527 6.97895
230.913 20.1289 8.97077
214.81 17.9072 7.09582
324.994 21.0248 9.52452
392.691 16.8217 7.23761
243.376 21.396 9.5422
257.706 22.8062 10.4471
270.933 17.7469 9.23447
188.509 24.7714 11.1776
291.621 16.5751 8.28771
290.478 21.001 9.02349
205.498 19.8412 9.64445
190.933 12.5272 6.00736
271.842 22.0684 11.3079
259.941 26.7285 11.724
250.554 19.2755 9.46369
288.292 21.1082 10.3196
272.476 21.6074 10.0005
249.477 18.1998 8.73903
287.71 18.7609 9.12954
259.177 17.5163 9.62886
219.952 25.2333 11.4227
277.152 22.2473 11.3385
240.813 21.5451 10.0214
205.019 18.2919 9.09173
239.136 27.7799 13.5794
214.185 15.6909 8.06704
225.988 25.5837 13.8259
263.02 19.4846 9.79556
315.499 26.4192 14.5159
184.996 25.0998 13.415
142.353 20.6828 10.339
220.222 20.3954 10.9251
321.118 22.0705 11.3437
199.547 19.4995 11.2088
216.743 24.1703 12.5218
241.555 20.0138 9.71558
246.454 15.441 8.82783
262.336 24.0454 12.5729
251.6 18.9186 10.5349
229.888 16.086 8.35051
264.857 21.8333 11.6466
244.85 19.751 11.6067
242.847 23.0026 11.9588
262.953 22.9491 12.422
334.263 28.0808 14.8878
232.521 33.3197 21.5975
250.511 24.2651 12.9938
278.926 28.9456 16.9354
347.194 28.4615 15.4344
244.809 24.9246 14.219
248.14 31.7907 16.4671
249.986 20.7946 13.0856
253.668 21.5605 12.2387
248.936 23.1711 14.5096
205.894 25.3779 14.3204
296.463 29.3734 17.1109
203.673 21.7252 12.5862
292.891 21.663 12.9921
180.61 18.1645 11.5976
239.454 19.5514 11.3287
203.753 16.4919 10.5029
267.62 23.6443 13.8391
209.466 22.9693 13.6801
178.978 19.5339 12.0902
195.179 19.004 12.2311
251.551 22.3259 14.0415
239.137 25.0458 16.2037
173.272 22.5933 13.4348
192.861 20.3977 12.7795
238.341 20.9297 13.5153
229.797 24.2701 15.0518
178.437 25.9254 17.5921
194.7 17.5873 11.6429
256.343 23.0425 16.2248
167.477 22.8746 13.4609
215.185 21.8927 15.3877
230.186 22.0239 14.1478
170.925 25.8159 16.6287
187.352 18.5079 13.0549
203.88 21.1106 13.7316
165.511 20.2663 12.947
233.848 28.0911 19.4552
260.776 19.363 12.237
211.253 19.969 14.6417
208.211 22.8954 15.6685
229.406 24.4444 16.8536
208.95 25.1635 17.2294
160.116 20.049 14.7706
184.015 21.984 15.8551
174.859 20.6223 14.2003
163.714 19.0161 13.9657
188.932 27.0475 18.7528
169.376 22.4228 16.943
199.861 20.3419 14.4318
183.062 23.8947 17.6192
148.759 25.1315 19.3104
153.36 17.5293 12.3813
180.795 22.9007 15.969
148.352 22.6484 15.8742
189.881 22.8929 16.5113
189.7 19.6922 14.8011
155.564 24.3201 17.476
151.664 21.5227 16.6304
185.039 22.9337 18.3212
196.437 18.9415 15.4493
198.12 21.2594 14.4159
193.743 22.3642 16.2591
166.226 21.9253 17.598
162.695 21.6125 16.7276
179.134 16.238 13.077
213.33 19.0084 14.9833
128.695 19.2316 13.9539
163.071 24.6632 20.3186
156.785 29.3847 22.6409
166.358 24.2465 18.9758
146.348 20.5781 15.0724
197.73 24.1468 20.0105
208.188 26.8507 22.4608
142.756 22.9157 16.767
130.44 24.804 20.1195
179.061 20.5799 16.1095
145.097 19.9068 15.8515
142.957 19.5441 17.9659
141.646 22.6523 19.0204
143.343 16.8613 13.714
134.308 26.0133 20.7699
134.967 28.3288 24.1269
164.037 21.7186 20.3659
149.896 22.3841 17.0406
168.936 24.9849 19.671
164.825 21.7963 18.6837
170.347 27.1327 22.0199
145.598 23.486 18.8782
201.859 22.1532 17.3644
180.368 20.6899 17.6306
180.426 19.6762 18.0495
157.134 23.1525 20.062
146.439 24.7131 20.0889
127.418 20.14 18.3935
116.316 22.086 20.0239
147.063 25.1297 21.0171
147.721 23.0986 19.9913
112.439 29.1372 25.0882
144.855 21.6152 20.1049
178.463 17.6681 15.8886
268.693 24.7226 21.6902
170.059 25.2721 24.855
142.23 25.4317 22.7088
146.995 18.2006 14.8538
209.297 24.4106 21.5055
145.035 20.7951 21.0837
177.968 25.0332 23.5056
107.662 18.8376 16.4332
99.8142 21.6917 19.4053
166.642 24.627 24.1779
158.852 21.7031 20.7037
95.1462 18.2929 18.3616
122.424 22.8043 20.7452
172.005 19.3892 16.4914
158.256 27.4633 26.0184
134.02 23.1788 21.2266
153.55 23.9508 25.0564
190.291 19.7473 19.1453
114.239 23.6197 22.2478
142.001 22.6085 22.2077
165.856 21.7165 20.5331
135.405 28.7415 28.1423
138.011 21.3133 19.8884
137.618 18.0391 18.995
103.017 19.5175 17.914
94.1891 21.8437 20.706
154.719 19.9295 19.8073
165.747 21.6904 21.1696
104.752 23.0645 24.6987
133.186 20.2298 19.4347
138.483 23.4417 24.7523
124.179 23.087 25.2874
123.354 32.8662 34.1092
159.156 27.344 25.9843
113.128 22.072 23.4775
114.576 20.9533 23.2434
124.156 18.7714 18.457
124.372 17.8816 19.5882
120.145 24.9305 27.0187
144.78 27.7572 28.5622
159.824 24.742 23.7243
114.638 24.8264 25.4909
128.349 24.0999 28.5485
152.706 28.9129 27.6595
139.277 24.0195 26.5881
163.159 23.909 23.9688
144.349 19.4344 19.1199
131.611 21.3798 25.308
165.372 17.3249 19.6722
140.538 22.7807 24.933
140.373 24.4808 26.3994
143.365 24.4563 27.4503
153.071 21.4927 22.1512
121.942 24.086 29.3027
158.723 32.0713 33.2451
142.165 18.4365 20.4217
125.247 23.9767 26.8316
95.8349 16.7741 16.9056
117.508 16.6017 18.6761
131.708 24.4314 26.8241
113.463 22.8476 26.2054
133.102 18.6804 24.2379
133.406 22.6485 23.2491
97.025 24.0212 26.6949
99.0923 24.0932 25.429
120.733 29.7559 36.6288
91.061 19.782 23.249
126.433 30.7154 30.7955
128.291 21.3247 26.9888
148.096 21.3111 24.1388
93.1602 27.1329 32.5891
106.081 21.5286 26.5083
119.479 28.2965 30.8909
128.659 18.267 23.1569
81.6721 15.5612 18.6205
106.188 20.1821 23.6366
118.936 26.8394 33.88
122.35 20.0765 24.1601
138.057 30.4481 35.5677
112.275 24.1755 28.0781
112.081 21.6599 28.1314
138.816 21.2324 24.9946
130.751 21.1974 26.9686
103.806 23.6689 26.402
123.134 21.9243 25.238
159.979 20.877 27.5126
127.498 20.9803 23.8619
138.995 23.4891 29.3216
96.7589 22.026 26.9742
114.168 19.3681 24.0814
131.827 21.2367 27.1477
102.05 24.3761 30.169
107.601 22.5697 29.0952
132.973 19.732 22.6442
113.147 22.8732 30.6631
118.955 24.5207 29.9689
145.467 17.1008 22.2151
101.087 15.3109 19.0642
95.7629 21.9032 27.1688
111.666 23.6432 31.3509
96.9604 24.0654 28.6979
93.3565 21.1679 29.1678
126.269 19.0791 21.1666
110.533 26.0363 34.8482
89.683 33.3448 44.898
114.517 28.6728 35.4293
123.385 21.699 29.5352
107.366 21.7835 25.3717
80.8336 19.5532 26.6777
75.1086 19.5782 26.4893
110.128 22.9541 33.5042
114.588 23.2241 30.5284
119.521 23.5306 31.2555
117.364 20.8087 27.5637
96.6553 17.7969 25.0216
74.3905 19.1791 24.1115
94.2658 24.5754 31.019
128.98 25.022 38.196
121.232 25.8251 30.8401
77.4925 24.6411 34.214
87.1133 21.5964 29.919
67.2346 23.0365 31.9043
105.519 26.0629 34.4563
127.453 19.1276 25.2878
83.0181 22.7433 30.4414
70.9335 21.4055 32.9305
102.004 20.3549 26.4349
101.769 24.1757 32.8245
115.654 20.6325 30.8296
117.422 16.4736 24.3469
125.645 23.7129 28.1091
104.404 29.4469 41.8497
98.9005 25.9191 34.7783
89.1204 19.8385 32.6699
99.4625 21.6785 29.0701
73.5444 23.2907 33.1056
79.5823 27.0925 39.5633
99.9807 26.017 37.2034
95.8609 20.6219 28.4886
93.4923 39.2726 57.0205
100.924 20.2217 31.6326
125.145 28.4391 38.1902
78.8405 27.598 38.8575
77.1398 20.3176 34.7149
76.4511 24.6478 33.7213
106.529 24.0402 35.7338
100.339 20.9961 27.9515
84.5733 24.5626 37.8216
79.983 25.2387 37.3017
64.4552 23.4573 39.0997
77.1412 24.8646 36.5345
84.7629 18.3277 25.688
84.3852 16.3478 21.0467
62.7652 28.2613 42.9625
46.1364 20.3539 33.0851
76.3889 26.0142 39.9659
83.372 21.0748 30.4713
84.2452 19.6209 31.1219
79.6892 18.1671 27.6822
84.9551 21.0934 31.095
78.0434 16.8968 28.3472
102.396 16.9112 27.844
91.6454 24.7627 40.0577
50.5233 20.9818 32.5317
100.876 23.5041 31.835
72.2582 15.4894 23.3686
69.7622 18.5753 25.5178
67.7172 22.6791 38.3532
63.1929 15.514 31.6643
108.656 25.3062 35.0576
81.5723 22.4763 36.3993
81.8074 15.6125 23.1823
71.2351 24.4462 38.3484
78.4921 24.7792 35.0447
86.0557 19.1549 30.854
102.461 17.7218 28.7673
67.2441 21.5695 32.3057
72.3002 18.2734 29.6025
87.2137 18.0549 29.8856
85.8829 22.567 35.8389
79.1694 21.5574 34.8582
82.7765 21.007 36.4106
95.0776 25.1931 37.3156
100.987 24.2814 43.5021
84.3193 22.9077 34.1932
75.1129 22.3928 36.4894
90.021 22.5911 37.2109
91.4343 16.717 35.7159
72.69 19.5558 31.4397
69.3878 20.3421 31.4413
71.7557 17.7438 30.6066
90.2002 21.9335 34.8984
84.1601 22.3078 35.7667
81.1687 22.9026 41.5325
65.5104 21.1771 32.6037
84.3701 16.5664 27.1031
78.7105 20.1345 29.5609
62.1132 23.0609 43.6169
82.0272 21.4952 38.8528
76.251 20.0993 33.5217
91.6944 24.7413 39.5685
59.0967 22.8652 39.2587
83.8062 17.9878 37.2477
71.0545 23.0373 43.9359
89.8491 18.5231 27.0267
65.9298 18.5545 32.793
86.3499 25.9611 43.3357
72.001 22.4359 39.7384
75.4294 17.5343 27.9041
81.9627 17.4498 30.5807
71.5778 20.4056 36.7678
77.9516 17.3025 27.7327
82.8512 20.6421 31.1125
79.8945 18.0727 33.8584
73.0969 21.6279 34.1924
87.8744 18.7416 33.2636
93.2785 17.2206 33.1427
60.4905 22.9296 39.5937
98.9358 18.2142 36.5279
87.3475 25.353 44.3495
68.3381 18.0058 33.6544
51.6552 18.3921 29.638
77.6278 25.6724 46.9446
61.2926 20.6008 34.1966
79.6163 18.3536 39.7197
85.7933 22.5054 35.7834
61.6643 16.0773 27.7248
67.3932 14.0299 33.5646
91.9197 25.7238 44.1702
79.1075 23.9337 36.6311
47.1318 21.7367 37.0012
57.2066 24.5356 43.221
60.5446 14.4358 31.5325
64.6756 13.958 27.1836
70.8968 20.4539 40.6624
69.611 24.5175 42.8622
85.5559 22.2205 45.646
73.0336 16.3637 28.7779
73.6355 19.6655 38.592
47.9533 24.254 45.1427
64.0306 19.7631 32.9933
72.1521 18.1324 30.5769
76.3437 25.6848 51.0124
73.159 19.9221 34.3131
60.6843 18.9442 37.3117
61.6187 21.2935 37.9762
69.0298 16.3678 32.4772
75.7283 23.2958 48.5922
68.1307 15.844 29.7051
67.8295 16.7284 31.0185
70.4298 17.7444 33.3203
76.9604 23.4312 46.5715
74.8244 25.1617 45.3587
90.2925 22.6181 45.7294
81.1047 21.9326 39.0462
71.7873 26.2169 58.6174
70.1914 23.6737 36.9147
77.5843 20.0249 39.7792
66.3788 27.0287 48.8198
72.4212 30.7991 66.537
60.2776 20.8007 32.7842
45.1005 21.8805 52.7303
62.045 26.6811 42.5469
80.2811 18.1318 34.9969
69.6675 18.4807 35.2213
66.969 16.5952 34.7374
50.1686 15.6297 34.7751
60.0426 18.4695 43.5644
67.709 19.2155 41.9617
64.7124 16.9188 32.7783
63.5495 14.9689 32.5027
43.2325 17.6378 35.8172
67.4934 19.3063 35.6646
61.6717 15.7593 27.3187
65.4031 25.1431 49.3583
57.2785 19.0196 38.0465
78.1596 20.9393 46.4099
67.8313 23.4586 41.4582
65.2751 15.5827 34.0791
68.1987 22.1712 39.7474
71.5234 18.2794 39.0081
49.6215 18.2336 39.4944
63.6754 14.7232 30.8544
58.4487 20.7816 41.4285
62.9014 15.3912 33.169
51.2632 16.7507 35.4073
65.0716 20.387 38.5871
59.7655 17.0763 37.1273
98.4644 21.3099 46.329
73.9824 25.9038 48.1452
51.0806 18.3132 39.7482
72.8545 20.9699 43.4682
84.8719 20.0732 44.5332
65.2793 19.3765 41.2441
63.9475 15.5562 31.7718
53.8106 18.2998 38.4886
52.4506 23.4134 52.7925
58.1976 19.7504 41.028
75.0901 15.9166 34.955
51.3809 20.7575 40.898
54.7939 25.7027 54.7541
77.8595 17.6356 34.5934
74.5359 16.436 36.0603
51.8049 17.8828 37.7484
75.0847 19.6205 39.4196
69.6884 22.9771 53.3246
47.1102 13.0527 30.2417
41.5418 21.7644 50.2202
71.2041 17.507 30.7633
60.1845 21.3394 49.0168
53.7536 15.8815 36.7301
47.3136 18.7419 36.8533
55.8257 16.2904 37.3135
51.6518 11.9913 29.0287
59.628 16.3015 31.2805
64.9542 18.0542 43.5341
50.1762 14.9794 34.018
65.8093 16.3871 34.5489
57.7529 16.6696 36.5935
52.8928 16.6176 35.8872
51.2491 17.6363 39.752
72.9628 19.2402 43.569
68.024 17.7047 34.8575
55.5805 22.3982 47.387
51.4214 21.5529 52.8854
56.9372 18.3185 43.2617
53.627 17.054 45.7168
60.2813 20.8619 53.3865
54.8114 16.9537 31.2126
51.5059 15.3866 40.1947
56.9847 14.049 33.7573
62.1593 16.4768 36.0765
57.5956 19.7493 45.9737
85.9672 21.2975 45.5637
76.3458 17.2441 37.8963
83.9014 19.134 44.1655
74.8491 18.4786 43.5273
56.9305 19.4156 45.1723
55.8314 20.5879 38.4894
56.5087 16.7501 40.0126
58.9307 17.3343 41.6255
53.121 19.6616 42.0274
59.766 16.4206 41.1437
69.7351 13.8445 33.3064
50.2724 18.7979 40.9292
44.1234 16.6091 39.8867
59.1392 20.0532 48.1688
49.3206 20.1205 44.4922
38.5354 18.0255 39.949
58.6385 18.9552 45.5402
65.7464 17.2263 45.0098
42.3798 18.4504 37.9781
51.3876 17.3926 48.3411
72.8012 22.4312 42.4388
49.2091 14.4985 37.9394
42.9378 15.9184 42.1076
60.0323 15.2587 42.8901
73.5797 19.9399 40.9741
49.0221 22.0052 51.224
62.2109 15.1074 34.3812
61.7044 16.6751 40.2829
71.9761 15.9587 36.4936
43.8636 16.6477 41.5943
48.6021 19.192 46.6766
59.9572 21.4128 49.7456
57.1435 19.8236 48.4949
55.4646 16.7134 40.0031
55.9648 17.844 49.6458
46.7353 16.4003 33.1307
59.4736 12.6534 27.6106
71.8754 15.8385 42.2324
58.6594 21.7004 48.0242
56.528 18.1379 47.6114
72.6826 14.1743 38.6906
58.7511 20.2373 44.9374
67.6952 14.9373 39.9553
54.1458 12.8589 35.7781
61.1428 18.5011 45.3787
