# pn-170911/RbIIA-27-RbII-1280-1959.psd
# Power spectrum* (dif=0,1,2) (really just |FT|^2)
# NOTE: only the first half! (symmetric)
# weeks: 1280-1959
# 166 clock-days, 50 excluded
# PSD: 1441
6265.75 0.172552 0.0203257
301157 5.74269 0.0408333
1.35488e+06 28.9298 0.0402755
333344 12.0298 0.0399173
211023 13.7616 0.0447572
96189.8 8.84163 0.0430897
79334.5 10.4702 0.045361
62432.9 10.9574 0.042397
45777.5 10.7237 0.0496974
33190.2 10.5217 0.0541891
28892.3 10.1723 0.0526739
25712 12.1481 0.0470971
20186.7 10.7749 0.0551382
14810.4 9.13063 0.0527397
14098.6 10.7985 0.0615447
15369.5 12.3471 0.0543167
9963.88 10.181 0.0601488
9720.08 11.0478 0.0621717
8849.17 9.58865 0.065829
6819.71 9.10657 0.0599448
6438.33 9.44819 0.0660756
7243.47 11.5833 0.0671752
6073.57 10.2745 0.076345
4851.52 9.70128 0.0663991
4905.97 10.1464 0.0618745
4553.53 10.9899 0.0704657
4884.26 11.5747 0.0954719
3542.61 8.69705 0.0741558
3806.97 10.7215 0.0816018
3613.82 11.1903 0.0956905
3253.9 9.76317 0.0912999
2861.83 10.6838 0.0951482
3067.46 11.4767 0.0934313
2663.05 10.6493 0.099049
2325.32 10.0231 0.0959603
2244.48 10.1295 0.0982176
1951.07 9.65406 0.102897
2171.51 11.8829 0.111115
1970.96 10.9968 0.113583
1853.6 11.0877 0.139137
1610.98 9.31614 0.13807
1850.24 11.6671 0.121773
1613.13 10.8945 0.129473
1413.93 10.1907 0.158868
1376.04 10.0441 0.145886
1489.92 11.7416 0.153234
1170.76 8.7162 0.116908
1405.28 12.0646 0.179591
1165.75 10.7712 0.172046
1114.69 9.95929 0.158299
965.065 9.06372 0.156621
943.168 8.79199 0.150878
1058.1 10.556 0.189339
1071.04 10.4675 0.211564
803.226 8.80856 0.164255
822.388 9.17833 0.169361
916.669 11.0642 0.233129
868.753 10.6087 0.225106
826.376 10.1081 0.19684
860.418 11.1368 0.246965
772.668 9.60768 0.197026
756.324 10.1901 0.226788
675.691 8.80395 0.230886
696.946 10.2128 0.253018
829.606 12.1605 0.325277
721.992 10.4653 0.264794
690.023 10.4616 0.351156
729.285 10.9516 0.309466
631.859 10.3003 0.326447
597.941 9.88757 0.272438
637.471 10.8833 0.352032
610.291 10.5834 0.346549
487.173 9.95152 0.324137
517.301 10.3242 0.351346
490.917 9.90603 0.335209
544.997 10.8207 0.361985
537.549 11.6194 0.379466
478.98 10.2081 0.373765
470.96 10.2195 0.374617
479.777 10.3254 0.384169
476.214 9.53263 0.371745
400.817 10.1389 0.388758
430.178 11.2051 0.46322
439.213 10.3804 0.461841
375.614 9.979 0.38416
444.105 10.6814 0.389642
376.481 10.7894 0.445726
370.334 11.1967 0.536524
348.792 10.2778 0.402453
323.967 9.24994 0.411404
318.809 9.99186 0.429015
293.819 9.10845 0.456404
361.678 11.6409 0.517634
319.79 9.49278 0.423962
318.454 9.1017 0.463717
341.413 10.5298 0.552699
309.62 9.86693 0.470685
295.489 10.9166 0.538426
337.702 11.0179 0.571386
322.389 10.8021 0.577447
319.348 9.69924 0.516631
296.577 11.5483 0.683105
250.858 9.31796 0.503895
273.208 10.4315 0.536236
286.425 11.4041 0.60981
224.939 9.78577 0.548579
224.667 9.36563 0.553494
231.507 9.10869 0.504828
231.097 9.57723 0.551086
226.386 9.84421 0.624152
247.725 11.0436 0.725998
226.926 10.6504 0.646357
255.86 9.93322 0.624328
214.652 9.57559 0.666711
244.817 10.3046 0.701108
202.484 9.77182 0.660976
219.176 10.6238 0.729396
208.629 11.4192 0.787617
198.936 10.1221 0.69009
159.69 9.22983 0.665565
213.54 11.5341 0.80762
202.796 10.5913 0.745489
201.642 10.5957 0.795521
181.05 9.28341 0.723321
198.014 12.1778 0.887387
179.504 10.4989 0.818059
180.62 10.066 0.77634
165.855 9.55673 0.780922
173.238 9.54871 0.770978
167.103 10.3077 0.858512
168.494 10.6119 0.909549
189.483 10.8766 0.955191
148.65 10.3178 1.00848
148.109 9.33224 0.834013
150.672 9.36387 0.818532
155.61 11.941 1.02973
141.316 10.1727 0.940132
179.813 11.1778 1.02025
134.78 10.6838 0.951363
142.442 9.68805 0.925398
140.26 9.46826 0.994824
124.068 8.77751 0.88891
127.187 8.787 0.896158
134.847 9.74233 1.02849
140.142 9.72554 1.04526
159.467 10.9646 1.17241
128.422 8.73294 0.951883
145.257 10.997 1.22314
148.696 10.4569 1.13176
117.018 9.43172 1.048
138.27 10.8469 1.16533
141.381 10.7096 1.22748
133.732 12.1858 1.36498
157.758 13.4321 1.50578
114.474 10.1007 1.18567
133.212 10.5211 1.22355
119.142 10.2869 1.15292
112.714 10.1492 1.18285
110.632 11.0929 1.32121
124.707 10.3105 1.34682
107.746 9.35111 1.18414
121.751 10.3736 1.32884
101.888 9.05331 1.12205
103.418 9.86258 1.31738
124.607 11.3564 1.454
92.1109 9.91404 1.33017
134.465 12.502 1.52198
97.4848 9.80566 1.31311
103.482 8.65872 1.14571
107.695 10.8844 1.40832
91.3278 8.98967 1.16817
102.984 10.7911 1.54365
109.713 11.5413 1.56133
99.752 11.2443 1.59109
97.3834 9.74234 1.35594
98.7157 10.4632 1.5557
91.3568 9.40326 1.38336
92.2932 10.4187 1.60711
111.067 12.1843 1.87819
75.8576 9.35603 1.47024
90.2627 11.7506 1.8014
96.3956 11.6484 1.9508
76.4362 8.86685 1.3687
102.149 12.0065 1.89363
97.5484 9.9403 1.65003
97.6555 10.8236 1.75328
89.4028 10.4289 1.66425
78.2147 9.85406 1.68301
79.3899 9.9743 1.63772
82.2642 9.42975 1.59519
83.6869 10.0693 1.76946
94.5017 11.4653 1.93183
80.1008 11.2094 1.90491
89.7982 12.1262 2.06524
88.6418 10.8232 1.92973
92.1425 11.3043 1.96203
74.2822 8.38493 1.5387
81.1841 11.0281 2.02075
72.1887 9.71021 1.75039
82.4749 10.4756 1.89637
84.6549 10.8764 2.01832
77.1472 11.6771 2.22324
73.246 9.90301 1.97687
65.7274 11.0221 2.20695
75.3537 10.1332 1.93601
68.5225 9.7299 1.90993
71.9961 10.8431 2.1285
72.649 9.76672 1.95892
69.4271 10.9907 2.32591
76.7607 10.5973 2.14922
69.2413 11.5395 2.40492
68.7073 10.3384 2.06955
61.4528 9.89582 2.03375
70.8832 11.4396 2.41283
71.2313 10.4109 2.25101
80.2531 11.5549 2.60305
56.2019 9.40477 2.04455
69.9379 10.2768 2.22327
55.5812 10.1051 2.29812
62.5286 9.95229 2.27838
54.6966 9.94397 2.38431
60.7422 9.69452 2.28986
65.1375 10.131 2.41975
67.1396 11.2872 2.6476
67.858 9.89709 2.37776
58.3142 12.0143 2.96051
59.7435 8.85902 2.1415
62.0283 10.6404 2.60751
64.4645 9.40607 2.45526
65.0656 11.0198 2.56263
58.6491 9.00437 2.2632
54.6068 9.8483 2.61248
62.3739 11.2318 2.9879
62.4817 10.8565 2.76732
55.0096 9.60597 2.55673
60.7803 9.62515 2.44704
65.2937 10.6397 2.80198
53.0957 10.0214 2.52232
52.7429 9.93465 2.73906
59.7137 9.81491 2.63417
50.6961 10.3121 2.79058
54.5532 10.2729 2.90551
52.6116 9.23419 2.41734
59.5204 10.6359 2.86061
58.9059 10.9194 2.98154
50.7429 10.122 2.87565
54.1741 10.1796 3.07693
56.0897 11.2859 3.14717
55.376 11.2626 3.1593
55.4839 11.4906 3.24596
51.4503 9.34797 2.72231
68.797 11.8714 3.66733
57.4835 11.9251 3.49999
56.4199 11.7074 3.66869
61.7225 11.3378 3.58276
50.832 9.01792 2.76106
40.4407 7.97159 2.53101
59.6657 10.5656 3.35665
62.0146 10.9001 3.31683
45.712 10.6177 3.4033
56.7787 12.0617 3.74634
54.5796 10.121 3.2406
51.2583 9.64052 3.0921
53.4906 12.2102 3.89066
51.2819 10.6056 3.47255
48.2392 10.7182 3.49184
47.2304 8.81808 2.83081
45.5178 11.1556 3.49984
47.0202 11.1641 3.71435
47.5952 10.7397 3.67638
43.6716 10.7655 3.73848
54.2607 11.7382 3.96125
50.5193 10.2879 3.57837
38.2561 8.77437 3.19773
41.5561 9.75089 3.39395
37.4458 8.15005 2.93464
40.249 10.5312 3.52009
45.2848 10.8091 3.99857
42.003 10.2276 3.65267
43.2532 10.8391 3.99824
41.2371 8.86342 3.29533
41.3293 10.1504 3.75789
38.0218 8.72534 3.29029
42.1871 10.3175 3.9433
42.5975 10.0575 3.87364
42.5683 10.0161 3.87307
38.7609 9.72955 3.73854
45.1469 11.1477 4.38121
41.1052 9.73428 3.85849
42.3399 11.0776 4.24934
47.1281 12.0624 4.50519
35.9873 9.29331 3.5926
46.0411 11.131 4.28195
32.1753 9.4743 3.80891
35.8675 9.33571 3.87339
39.3682 9.88309 3.83894
47.2612 14.3961 6.00215
35.3806 9.64393 4.02444
45.2229 11.6443 4.70549
37.8979 8.83616 3.62512
39.7629 10.7719 4.56301
36.9923 10.3743 4.19465
38.6452 9.20481 3.97764
35.5768 10.1021 4.03481
41.0904 10.4984 4.38837
34.8294 9.2433 4.04324
39.8586 11.0942 4.92571
36.9648 9.90143 4.10836
39.9292 11.524 4.73985
36.4535 9.97015 4.44982
38.2507 10.5665 4.68423
35.9789 9.96287 4.46208
28.1672 9.50717 4.02978
37.7719 11.7063 5.35344
33.9033 10.4901 4.8885
32.7778 10.8752 4.81078
33.4949 10.8382 5.14699
29.7873 9.3061 4.56565
33.7129 9.25533 4.59716
29.2273 9.45886 4.39793
34.8595 11.0775 5.27644
31.8785 10.169 4.93563
28.4445 10.2597 4.993
28.3946 9.87814 5.13529
33.8486 10.4735 4.83834
32.4385 9.84901 4.71459
32.6127 11.2185 5.51975
30.4491 11.2679 5.67204
30.0329 10.446 5.43808
30.3318 10.3618 4.93805
26.9594 11.0976 5.60467
29.9766 11.6537 5.89782
32.0403 11.505 5.33161
25.8456 10.1992 5.34468
28.5674 12.2322 6.13188
27.3416 10.1762 5.43655
26.5189 9.48657 4.86731
26.8911 9.79193 5.03586
29.7232 10.895 5.62959
26.5395 8.88883 4.74948
25.1521 9.3947 5.0731
25.1444 9.87532 5.06719
30.7612 11.3303 6.13279
27.1307 11.7007 6.30787
29.4857 9.28625 4.83781
26.1478 10.3411 5.44384
25.8539 8.89904 4.87228
26.0958 10.0328 5.55395
25.6589 11.0137 6.21135
24.0973 9.06405 5.20121
27.1672 9.90303 5.52847
26.3804 9.45108 5.46954
28.015 10.5136 5.77464
28.9508 11.6202 6.65125
26.0552 9.69181 5.61847
31.3816 12.8185 7.42609
27.3443 11.905 6.76149
21.5785 8.5161 5.31231
22.4225 9.97844 5.69337
26.5141 10.3555 6.29574
24.5356 11.4964 6.31314
23.0359 9.74017 5.67859
24.8967 9.60893 5.62698
27.0408 10.3228 6.28486
24.5096 10.5323 5.99157
22.0873 9.34711 5.39865
25.5564 11.5841 6.96504
24.3326 10.523 6.48951
23.0813 10.2789 6.39239
24.027 12.1941 7.42567
22.3262 9.0593 5.54246
21.1805 10.3125 6.73688
23.1227 10.4962 6.55454
21.6413 9.59119 5.87515
22.15 10.4797 6.69705
23.2613 10.5341 6.699
26.5281 11.5525 6.99708
24.753 10.7294 6.98798
26.0287 11.7907 7.33945
20.9629 10.3993 6.6709
25.1403 11.8223 7.23058
23.2169 10.2935 6.83468
21.3862 9.82616 6.76488
22.3936 10.3035 6.6008
18.8728 10.8179 7.29462
21.565 10.6515 7.12293
21.1013 10.4303 6.49888
17.5128 9.75717 6.79325
19.2409 9.94136 6.79222
22.9154 10.5354 7.1166
20.3236 10.2866 7.39866
22.9242 11.3377 7.8988
17.3852 8.58902 5.54889
19.9803 10.8871 7.70264
20.0029 12.0534 8.72689
20.8324 10.6576 7.73548
17.3089 8.23197 5.82095
21.6543 10.1774 7.7995
22.1663 11.2869 8.04283
21.0502 11.0417 7.86414
17.1663 9.07675 6.76298
17.7515 9.92338 7.9168
21.4937 10.244 7.11796
23.9798 11.1874 8.03518
18.9079 10.9959 7.96885
18.8614 11.6305 8.55895
22.8003 11.1895 7.91214
20.9926 10.8089 8.04163
20.321 10.9998 8.43812
19.8066 9.21227 7.06697
21.1718 11.2677 8.22511
21.8588 10.251 8.0755
17.5635 10.8152 8.07358
17.9982 8.7643 6.73605
17.4816 9.32038 7.21303
16.7403 9.50177 7.30439
17.8588 9.84593 7.67169
19.775 10.3095 8.181
15.5665 8.83256 7.0452
17.6207 10.7975 8.13515
16.8313 10.9415 8.45653
18.2979 10.9681 8.34794
15.5744 9.22033 8.22857
16.7105 10.8628 8.41808
15.8828 9.96295 7.64021
17.9655 9.3124 7.6453
18.1136 12.0452 9.2284
16.7214 10.6135 8.85047
16.7355 9.46951 7.91798
15.1515 9.48024 7.4204
16.5213 10.3611 8.62889
15.3684 9.76284 8.54301
20.5958 11.5161 9.45811
18.3697 11.7808 9.59137
16.4501 10.0484 8.39994
18.839 12.1365 9.65123
16.9197 9.04094 7.76209
14.0972 9.17837 8.23116
15.7466 8.79459 7.066
19.6288 12.9708 11.8139
16.1909 8.8903 7.16835
15.6773 11.5958 10.3037
16.8081 10.8047 8.8379
19.6293 12.9064 10.5258
17.4354 10.583 9.49681
16.3453 11.6178 10.1174
16.5255 10.0473 8.89477
16.0465 10.7026 9.55569
16.5904 11.084 9.81256
14.9745 10.0808 9.00587
17.1998 11.77 10.0301
14.9696 10.3853 9.22238
16.2531 12.7941 11.7632
15.0347 9.5263 8.68104
17.1882 11.5271 10.3073
17.1682 12.3394 11.3642
18.4901 12.56 11.5694
15.3656 11.4422 10.0216
17.9049 11.7086 10.7178
17.3567 12.4254 10.717
16.2499 12.3093 11.6121
14.2629 9.63881 8.876
14.3138 10.1346 9.29238
12.4412 9.53653 9.35002
14.1554 10.3276 9.74588
12.3229 9.10606 8.37501
13.8315 10.2215 9.88207
13.7694 11.3154 10.7206
16.4851 11.858 11.0302
14.1783 11.2044 10.3691
13.8167 9.44699 9.22052
14.4127 11.7709 11.7023
14.7315 10.5141 10.03
13.9995 11.0124 10.6976
15.9193 10.2395 9.77609
14.4636 10.7988 10.2763
14.5114 10.5936 9.93037
13.8367 11.1648 11.4048
15.1782 11.4037 11.3298
13.72 10.4036 11.1048
13.9065 11.0101 10.7544
13.2405 10.3995 10.2799
14.2565 10.3503 11.2877
14.4302 10.7371 10.9946
14.7633 10.5745 10.6975
13.9484 11.1607 11.1654
13.8452 10.8757 10.563
12.6686 11.0901 11.9353
16.8157 12.6072 12.2339
13.311 9.42344 10.6813
14.6045 11.5198 11.1916
10.8117 9.4525 10.5443
12.9541 9.73847 10.191
13.0657 11.5648 12.4718
12.7237 10.4234 10.616
10.7312 8.55077 8.90625
12.5572 9.94352 11.2126
14.183 13.1443 13.5239
11.7839 10.8199 12.316
14.4463 11.4643 11.7093
12.7873 10.1715 12.0958
14.0478 11.6674 12.4118
14.5396 12.6803 13.3652
13.2656 12.2674 13.3384
13.0798 9.05007 10.5285
12.0599 10.2329 10.73
10.101 8.76015 10.1163
12.1048 10.8362 12.027
13.9664 11.8646 13.6786
13.3644 11.0024 11.4588
13.268 11.1284 13.2599
13.1477 11.0775 12.0072
13.7176 10.9633 12.2682
11.778 11.6839 13.6632
12.8906 10.9856 12.3957
14.3966 10.8789 12.1752
14.1085 10.8626 12.7882
12.983 11.3361 12.9666
13.0425 11.4897 12.9129
11.4423 10.191 11.7879
11.9431 10.4274 12.3073
13.1137 11.0862 12.4332
13.854 11.4318 13.4409
11.7497 9.60577 11.7604
11.9336 11.4254 13.8469
11.8439 10.4159 12.1646
12.6457 10.7052 12.0764
11.3715 9.96052 11.7963
12.7024 10.4727 12.4751
11.8682 10.8776 12.8789
12.3157 9.36045 11.845
14.8575 11.7991 13.141
11.6575 11.5674 13.8072
12.2345 11.3684 14.1116
12.1478 10.8947 13.9263
14.6721 12.6269 14.4202
12.0312 10.8077 14.4952
12.9964 11.2501 13.9422
12.3181 10.5158 13.1286
12.2492 9.53843 12.261
11.6117 11.0476 13.9212
11.8644 9.33828 10.7922
13.156 12.1539 15.523
11.6998 10.3261 12.9373
9.98133 9.05244 11.4524
12.1785 10.4908 12.7486
12.0152 11.7917 14.3718
14.0713 12.8454 16.7143
12.2247 12.1315 15.6942
11.8332 10.4409 13.5334
11.709 11.0881 13.9282
12.5937 10.3535 12.8642
11.9059 11.5886 15.5105
12.1664 12.7884 16.9305
13.5921 12.4628 14.714
10.8726 9.78427 14.2319
12.1726 10.781 14.1976
12.4791 11.1948 14.2812
13.7516 14.0894 17.9428
11.6431 10.5048 13.4019
10.2634 10.1242 13.3492
11.4821 9.9923 13.1588
11.5531 11.5978 14.7283
9.98415 12.5801 18.1673
11.1929 11.0265 14.8589
14.8728 12.2796 17.0256
15.0656 14.2909 18.5314
11.9039 11.9035 15.9956
11.5558 11.1834 14.5101
11.9973 12.8982 17.831
11.2298 13.2343 19.2025
12.1143 11.5068 16.423
12.5519 12.4134 16.2799
12.2767 13.326 18.9796
10.9864 11.9244 16.7938
12.4725 11.597 14.8608
9.97283 11.8284 16.8352
13.4766 13.0593 17.5511
12.2503 12.6766 17.9655
12.2217 11.5888 16.2781
10.0441 12.8752 18.8842
11.1135 9.98504 13.769
10.8079 11.4405 16.8384
11.1952 10.6437 15.3864
11.9557 12.0586 17.2372
10.824 11.6569 16.204
10.652 10.1765 14.0109
10.3599 10.2183 14.9888
10.3278 10.8062 15.4962
10.8757 11.5128 16.9228
9.56594 10.7035 15.9591
10.3496 11.4778 16.5749
9.49908 10.2318 14.6285
10.4611 11.0061 15.6849
12.0262 12.72 18.7781
12.629 12.2298 17.9951
10.6381 12.5484 18.3681
11.1374 12.0071 17.1934
9.31364 10.6604 15.8679
11.3633 11.6067 17.9266
9.20919 10.5004 15.8299
11.9832 13.2718 19.2403
10.0024 12.0495 17.6752
10.8296 11.5482 17.5187
11.1051 11.958 18.1785
10.7557 10.524 15.1965
8.78674 11.3277 16.6626
10.9446 11.0451 16.2587
10.3335 11.531 17.1618
9.31211 10.1843 15.4628
9.49538 12.6017 21.1441
10.7316 12.6963 18.3877
10.6296 10.3103 16.1242
9.26543 10.0397 17.2095
11.4099 12.0884 18.8378
11.2512 10.8513 15.1233
9.53156 11.2523 17.1759
7.83286 11.0301 17.2443
11.4735 11.9312 18.5777
9.35342 10.9823 16.348
10.35 10.2961 16.5747
8.47456 9.55941 14.3972
9.98405 10.5362 16.0902
9.18963 9.82285 15.318
10.4675 11.2638 18.0211
9.21951 11.2487 16.486
9.10095 11.634 19.605
10.4067 10.7093 18.7868
10.5798 13.4159 21.2549
9.93965 11.8325 17.9706
9.67443 11.0359 18.3037
10.4384 11.261 18.4134
9.8955 11.284 17.9903
8.48905 11.246 18.5338
10.5385 11.3542 18.2498
10.6185 13.2493 21.923
10.103 13.2987 20.3759
8.82551 10.3647 16.7433
8.88267 10.0506 17.2313
8.52184 11.8582 20.0337
8.39282 9.13765 15.0341
8.29484 10.1272 16.4406
9.57352 10.3096 18.3826
8.80446 9.46092 16.3381
10.4865 11.9089 19.4821
9.64939 11.9308 20.0855
11.3095 12.2797 18.1093
7.95711 11.0935 20.6754
10.0823 10.5324 19.1486
9.05112 10.4522 17.5955
10.2467 11.4957 18.8967
9.26073 11.5978 20.0272
9.57963 10.4354 18.3
7.60991 10.1363 19.897
11.5874 12.445 20.8918
8.79019 11.9637 19.9333
10.9561 10.7834 19.1636
9.4613 10.6691 18.119
9.86335 10.1761 16.7987
9.47392 13.4793 23.3115
10.1671 11.0822 17.9162
8.54847 11.2622 20.0219
9.04999 10.1615 18.3839
10.9982 14.2168 22.6226
9.48457 12.7812 22.2258
8.59844 10.0136 16.2019
7.88975 11.4003 21.3879
9.91833 11.2276 20.0535
8.72078 12.0384 21.0485
9.02342 12.3414 23.2696
8.49355 11.5277 22.099
9.75791 12.3112 19.2883
8.72747 12.5027 22.0664
10.3659 12.1987 19.9054
8.47302 11.1542 20.4471
9.48616 10.5559 19.3473
9.12979 10.7386 18.6287
8.43658 8.87886 16.9846
9.92765 10.879 18.5204
7.48518 9.75015 19.3882
9.47105 11.7499 20.2671
7.60518 10.8184 19.5178
7.96968 8.89181 15.0363
8.73353 10.6706 19.0966
9.29073 11.2835 21.3821
7.93707 11.6868 24.2029
7.81067 11.3443 20.763
8.77201 11.2515 21.9456
11.6312 14.6992 26.1452
8.23365 11.0473 18.8943
8.64065 11.6589 22.2147
7.62571 10.484 21.2711
9.39965 11.9691 20.2961
7.16305 11.8915 21.6885
9.03401 12.8515 25.0448
8.73346 12.3849 23.2665
8.24817 10.7222 21.4249
8.70936 12.3267 21.3676
7.86609 10.8485 20.85
7.37308 11.3215 22.6964
7.03602 8.94786 17.4769
7.08914 10.5099 21.0563
8.4139 12.9369 23.6587
7.44813 10.0901 18.7194
7.88959 12.3533 23.0762
7.76889 11.0453 22.9121
7.61571 11.99 22.7347
8.47728 12.8343 25.5051
7.57212 12.363 22.3045
7.29116 10.2017 20.0559
7.30436 11.2357 20.6285
7.37874 11.871 24.3608
8.04684 12.461 22.9445
5.93898 9.34645 19.6619
7.20904 10.929 22.6269
8.08684 12.3388 23.7398
6.70399 10.966 21.6933
8.46651 12.5864 25.5937
8.15151 10.6549 22.7636
7.36175 11.6061 22.8944
8.7832 15.4272 28.5726
8.18801 12.6317 23.3112
7.39169 11.2131 24.6723
8.73089 12.5458 24.6919
7.57019 12.4011 22.5048
7.27341 12.4894 25.1328
7.78776 11.6086 23.1222
7.16925 10.2622 21.8148
9.49966 14.1597 25.9916
7.16045 11.945 24.9963
7.553 10.6124 21.7567
7.91562 11.1692 20.932
7.99618 12.0617 27.6883
7.97143 11.2566 22.7981
8.34579 11.2059 23.5751
8.51084 13.2775 27.3272
8.12879 11.8816 23.0922
6.6646 10.8888 24.7736
7.85229 11.3031 25.0427
8.13961 12.629 26.0759
8.63327 12.4983 24.7793
7.87995 11.2943 23.5611
8.28347 12.3158 23.2139
7.31538 13.3201 27.457
6.72579 11.4526 24.6208
7.29151 10.9762 25.3095
8.5437 14.9358 25.8786
6.3194 11.7208 26.5828
6.71761 11.6367 25.2738
7.29898 11.9143 25.5154
7.24283 11.8831 24.033
7.17089 12.6347 28.037
7.58888 12.6136 27.6778
7.47095 11.7088 25.368
7.85733 13.2977 26.8109
7.83341 11.7978 24.4149
6.04343 10.5829 25.4062
7.16866 13.0379 29.3461
7.43084 12.0771 23.6649
6.90349 11.6975 23.9675
6.20703 12.5948 29.5309
7.48285 11.4666 24.2191
6.69939 9.72902 22.6718
7.89548 13.5431 27.3269
5.89077 9.08413 19.4247
6.88109 11.2162 23.1101
5.75426 9.80434 22.0467
8.35279 13.5581 26.4366
6.08551 11.5626 25.8759
5.99092 11.3027 25.7955
7.3372 12.7411 31.2909
7.56684 11.4387 23.7225
7.27791 12.4994 26.35
5.90937 10.535 26.4678
7.63479 11.7601 26.4435
6.91264 10.9735 22.3999
6.0421 10.2993 24.1612
7.63067 13.6825 31.3408
7.17289 11.7142 23.9755
5.73704 11.0134 27.8991
6.39146 11.9964 25.5648
5.98981 9.8039 22.0443
6.47759 10.5926 23.4858
6.87964 12.5574 26.9983
6.40971 10.5528 24.2405
6.43979 10.9462 26.5873
6.44982 11.7567 26.5294
5.96951 10.2107 24.8114
6.51547 12.5544 26.3407
6.17312 11.2509 25.7024
6.57253 10.7073 25.9252
7.30554 11.4711 25.0435
6.82927 9.87132 21.5483
6.75978 13.0923 30.2481
5.9657 10.2156 22.755
5.8397 10.6355 26.4351
6.13777 9.57931 26.2398
7.39115 11.8424 27.5601
6.82674 11.1344 24.1338
6.11981 11.0577 25.5975
6.61921 12.2082 27.9531
6.58661 13.8764 34.4168
7.02459 11.497 24.2265
5.49909 11.0169 27.3217
6.08632 11.0482 27.7476
8.02678 12.7923 28.3845
6.75472 12.2116 29.4256
6.17047 8.92176 23.0887
6.62873 11.9383 28.4685
6.66677 11.4076 25.1289
5.98847 11.196 26.2414
6.5574 10.0243 22.509
5.33556 10.3493 28.2536
6.63742 10.9715 26.2897
7.74027 12.9892 30.5156
6.7122 10.6571 24.9688
6.89192 12.9235 28.7523
6.26068 9.81399 25.1679
7.06998 10.8887 27.098
5.78473 9.76235 27.0069
6.50509 12.079 27.3938
6.13779 10.559 24.3926
6.23943 10.4684 25.5984
5.37243 10.5715 25.6149
5.82293 10.3079 27.2459
6.49376 12.3985 31.5656
7.29658 12.6956 29.6085
5.76354 11.2993 27.0373
