# pn-170911/RbIIR-52-USN3-1280-1959.psd
# Power spectrum* (dif=0,1,2) (really just |FT|^2)
# NOTE: only the first half! (symmetric)
# weeks: 1280-1959
# 2808 clock-days, 15 excluded
# PSD: 1441
544.028 0.0572242 0.0187354
36172.9 0.926966 0.00905935
102254 1.89076 0.0091504
24595.6 0.728443 0.00905279
46081 3.25596 0.00931662
8387.58 0.560269 0.00912853
6563.5 0.736235 0.00921615
3512.05 0.560791 0.00922119
5901.52 1.44545 0.00948811
2439.83 0.576423 0.00930575
2213.33 0.700188 0.00935344
1687.53 0.587433 0.00950004
1631.85 0.739833 0.00965234
1118.55 0.591326 0.00967262
1098.19 0.713413 0.00981595
922.854 0.647734 0.00986558
956.329 0.811931 0.0101426
744.358 0.660692 0.00998005
713.979 0.748326 0.0103731
615.093 0.720683 0.0105474
565.576 0.776544 0.0107098
536.721 0.773267 0.0108444
507.918 0.812481 0.0110152
463.269 0.814195 0.0113125
455.403 0.862039 0.011472
402.984 0.874056 0.0119003
380.145 0.890765 0.01216
364.803 0.930375 0.012519
350.534 0.961988 0.0129019
340.035 0.988773 0.0131871
334.41 1.06925 0.0140975
314.042 1.06166 0.0138673
293.224 1.08487 0.014691
278.283 1.09234 0.0146744
270.463 1.15538 0.0157029
273.037 1.23887 0.0165254
267.634 1.27649 0.0168329
248.292 1.28053 0.017901
254.328 1.41511 0.0193503
237.914 1.40119 0.0191906
240.816 1.46868 0.0204251
226.139 1.47072 0.0214398
225.036 1.51955 0.0219212
228.783 1.65589 0.0239467
221.649 1.67677 0.0246878
215.794 1.72419 0.0256187
203.322 1.71564 0.0263034
206.193 1.78202 0.0281007
215.002 1.97693 0.0303172
201.834 1.96924 0.0323907
195.591 1.97098 0.0324803
194.117 2.06382 0.0349726
197.354 2.22521 0.0379643
202.781 2.33616 0.040885
185.541 2.22498 0.0417375
185.657 2.33568 0.0434641
185.222 2.43321 0.0464106
187.761 2.50104 0.0482042
180.596 2.55343 0.050343
176.535 2.54949 0.0515181
177.248 2.62531 0.0543501
177.946 2.79409 0.059966
182.384 2.98235 0.0642981
173.558 2.86968 0.063886
169.799 2.94775 0.0669695
167.371 3.01473 0.0706756
172.568 3.20705 0.0759622
171.369 3.30965 0.0800913
160.997 3.19659 0.0800786
162.93 3.3629 0.0872581
158.614 3.36376 0.0881936
159.26 3.49215 0.0932529
156.516 3.46958 0.0950389
157.215 3.62565 0.103161
158.712 3.78895 0.108689
155.548 3.80735 0.112266
151.777 3.79778 0.11373
151.536 3.89419 0.118675
149.807 3.96624 0.125033
147.287 4.04225 0.130337
150.87 4.20415 0.138
147.888 4.27807 0.142951
153.827 4.59603 0.158827
146.252 4.41588 0.154332
141.574 4.41638 0.158079
146.197 4.65931 0.170193
140.12 4.58894 0.172676
145.171 4.84857 0.184685
137.033 4.71334 0.183404
141.342 4.88559 0.19182
139.805 5.04587 0.204166
143.138 5.23695 0.214865
139.782 5.27586 0.222592
135.992 5.23898 0.223089
135.086 5.30158 0.233532
139.437 5.56795 0.247894
185.907 7.82536 0.350374
136.766 5.67261 0.264799
133.115 5.73266 0.271546
124.508 5.45571 0.262558
127.969 5.70809 0.282056
135.486 6.21835 0.309582
134.888 6.31327 0.321369
132.491 6.30287 0.330799
133.318 6.45988 0.34132
129.643 6.43455 0.348599
128.769 6.51315 0.357778
119.421 6.12425 0.340521
117.891 6.15014 0.348183
124.782 6.68875 0.38888
127.672 6.91524 0.406864
121.302 6.79538 0.406378
117.474 6.66708 0.408783
120.314 6.91271 0.427647
127.798 7.57955 0.479228
120.229 7.16311 0.462265
123.135 7.42343 0.483769
115.038 7.04802 0.46819
121.046 7.63253 0.516408
120.217 7.67336 0.52572
119.089 7.85714 0.547756
119.752 7.86691 0.553086
117.875 7.89639 0.568497
116.347 8.11131 0.597473
112.494 7.79009 0.576453
113.796 8.0341 0.605534
116.276 8.37016 0.641817
113.442 8.17467 0.634448
112.654 8.33682 0.659045
111.39 8.43223 0.669406
108.236 8.28116 0.674388
112.913 8.7589 0.721784
111.791 8.8373 0.737483
109.412 8.81005 0.744769
110.283 8.94916 0.77239
109.81 9.19107 0.801489
107.602 9.14905 0.812531
103.336 8.83027 0.795255
104.341 9.03187 0.822536
104.779 9.22282 0.854309
109.599 9.77417 0.917348
103.442 9.3613 0.889397
105.068 9.55058 0.924529
107.21 9.89419 0.963991
107.679 10.0746 0.990151
100.31 9.65932 0.972031
102.748 9.99209 1.01325
101.434 10.1675 1.05652
105.474 10.4238 1.08284
101.585 10.3045 1.09194
95.8076 9.79388 1.05407
102.565 10.6597 1.15551
101.735 10.6773 1.17709
97.0929 10.4327 1.17222
97.3656 10.5055 1.18147
97.1034 10.6709 1.22542
100.041 11.0012 1.27502
96.2967 10.9016 1.28435
97.3417 11.1243 1.32786
95.7715 11.002 1.32146
94.2807 10.9086 1.3277
94.3195 11.2638 1.39176
93.6333 11.2672 1.40843
93.3651 11.3903 1.43817
96.3342 11.8487 1.51644
97.8169 12.0971 1.55909
92.6285 11.6846 1.52801
99.5329 12.8053 1.69121
89.6233 11.5377 1.55385
92.7928 12.2084 1.65481
88.8154 11.7617 1.61425
93.1629 12.3088 1.70185
91.4823 12.3742 1.74075
86.4858 11.892 1.68762
86.6641 11.9403 1.71044
88.542 12.3811 1.79184
84.8992 12.0349 1.76126
88.9813 12.7139 1.89266
85.91 12.3945 1.85543
85.7242 12.6833 1.92803
87.2798 12.9515 1.97329
83.1026 12.5897 1.97315
84.0193 12.5691 1.96562
88.6722 13.6483 2.17606
84.2348 12.8304 2.03333
89.3685 13.9112 2.25151
83.0383 13.0697 2.13691
80.5922 12.8417 2.12988
81.6914 13.167 2.18656
80.56 13.2206 2.23687
82.8843 13.6263 2.31874
81.5613 13.747 2.39435
120.152 20.2593 3.46516
79.405 13.586 2.40574
78.0354 13.4449 2.37938
80.1177 13.9235 2.49625
81.4325 14.2192 2.57548
77.365 13.6523 2.49228
76.1118 13.6116 2.52624
77.8445 14.1302 2.65038
77.492 14.0695 2.63635
75.2479 13.8182 2.62892
79.274 14.8854 2.8578
78.468 14.6532 2.83892
76.8341 14.5953 2.85379
76.3089 14.7242 2.92772
73.3545 14.1105 2.81535
73.8214 14.5727 2.95988
75.4049 14.7519 2.97728
74.8403 14.967 3.07266
74.1538 14.8602 3.03583
72.9495 14.8892 3.14112
73.3471 15.0563 3.17479
72.8216 14.9117 3.1632
73.7064 15.4532 3.31847
73.9663 15.6277 3.40869
72.092 15.371 3.35172
68.8662 14.7248 3.2743
70.7424 15.337 3.40297
72.2409 15.864 3.57515
69.7298 15.3435 3.49166
70.2052 15.5502 3.55218
69.3572 15.4485 3.55697
67.6952 15.2701 3.55767
68.1175 15.5121 3.63772
69.2749 16.1079 3.83007
68.4409 15.9818 3.81969
69.8224 16.2888 3.90528
68.1975 16.2149 3.95491
67.9899 16.2567 3.97965
66.9086 16.0702 3.98112
68.1926 16.4581 4.0873
65.281 16.1781 4.1107
66.1726 16.2977 4.13663
68.0668 16.9301 4.3303
64.1465 16.1978 4.17581
63.9719 16.1237 4.17386
63.628 16.12 4.21632
65.4938 17.0293 4.52364
64.3559 16.6895 4.43844
64.0226 16.7427 4.49043
62.8215 16.6179 4.48883
59.6763 15.9063 4.36884
61.5479 16.4826 4.53772
61.5269 16.615 4.62584
62.277 17.0822 4.77865
63.1975 17.2719 4.84026
61.3786 16.9632 4.8207
58.983 16.3567 4.70424
59.5138 16.6627 4.80054
60.0762 17.0284 4.9495
58.5435 16.6981 4.89096
58.8821 17.0238 5.04089
58.8334 17.155 5.12254
59.5803 17.458 5.25439
59.3201 17.579 5.32876
58.1499 17.2269 5.21244
57.8965 17.3663 5.35816
58.5542 17.5552 5.42722
58.2817 17.7783 5.55221
57.7353 17.4873 5.4515
57.2619 17.5567 5.54437
54.2723 17.0159 5.43487
55.4251 17.4066 5.58607
56.6091 17.8803 5.77633
56.506 17.994 5.8376
55.9005 17.959 5.91469
53.7986 17.4446 5.77054
53.1464 17.4355 5.86685
54.6624 18.0395 6.0635
55.8468 18.2252 6.12627
54.4411 18.085 6.10995
53.9471 17.902 6.11089
52.4216 17.7431 6.10745
54.3157 18.4162 6.42152
55.5357 19.1187 6.69834
51.8494 17.9435 6.36366
54.0487 18.6208 6.58536
53.2051 18.4171 6.54889
50.4476 17.9501 6.53482
53.4095 18.7725 6.72209
52.4915 18.6775 6.79099
49.6827 17.7553 6.49504
51.501 18.6713 6.93171
49.3145 18.0409 6.7373
49.9391 18.4024 6.88121
48.7328 18.2057 6.91336
49.9378 18.8299 7.36817
76.4445 28.5906 10.62
49.8852 18.7954 7.26838
47.3121 18.1579 7.13042
48.8373 18.6503 7.28219
48.832 18.6859 7.35268
48.2903 18.6882 7.38331
47.7446 18.7178 7.46955
47.0203 18.6164 7.49848
48.2198 18.8437 7.54792
47.7121 18.9054 7.65601
47.365 19.0722 7.77276
47.2411 19.0356 7.87524
47.2379 19.3523 8.06555
47.7345 19.4692 8.1166
47.4337 19.5121 8.18436
46.1525 19.033 8.02282
45.6099 18.8624 7.97886
45.3653 19.0913 8.18549
46.6465 19.8077 8.56432
44.7411 18.9595 8.19437
44.1676 18.8219 8.18684
43.4392 18.7273 8.20496
42.885 18.4628 8.16758
43.7548 18.8344 8.27775
43.8572 19.3135 8.66361
42.8042 18.9159 8.55049
44.5569 19.632 8.87843
42.3585 18.5606 8.31254
41.7479 18.697 8.58056
43.5314 19.6108 9.00375
42.6358 19.4776 9.17893
43.5298 19.4185 8.96325
43.1224 19.6328 9.15981
41.5105 18.9652 8.84637
42.1608 19.6055 9.2879
41.1418 19.5427 9.44805
41.1418 19.0323 9.02495
39.6924 18.8812 9.16761
41.2163 19.6715 9.52983
39.4468 18.9981 9.31741
40.9928 19.8703 9.8022
39.0756 18.8947 9.43769
41.4758 20.0001 9.88981
40.1098 19.4632 9.59735
39.4377 19.4883 9.80561
39.8352 19.5289 9.82615
37.227 18.5833 9.47503
37.8085 19.1167 9.8693
37.9185 19.0603 9.83243
41.0814 20.745 10.6657
37.9667 19.3116 10.0552
37.8708 19.51 10.2377
37.3333 19.2513 10.1202
38.9297 20.2615 10.7583
37.6884 19.6528 10.588
39.0665 20.3721 10.7861
36.8994 19.5424 10.5147
38.3562 20.4335 11.0802
37.0867 19.5921 10.6191
37.8099 20.2941 11.1107
36.4779 19.5657 10.7921
35.982 19.5589 10.7857
36.4078 20.0594 11.2425
36.3298 19.8077 11.1193
36.8489 20.3089 11.4638
35.9446 19.7681 11.1339
35.9324 19.982 11.3175
36.4125 20.1877 11.3847
35.3316 19.8692 11.4091
35.3776 20.0391 11.567
35.1339 19.9712 11.6143
34.5768 19.6724 11.4301
33.4547 19.4958 11.59
34.931 20.1152 11.8354
33.1815 19.4308 11.5197
33.9265 19.8617 11.8157
33.1374 19.3984 11.6048
34.6403 20.2794 12.1451
33.4123 19.924 12.0798
33.5253 20.0339 12.1962
34.0835 20.3064 12.3128
33.4302 20.0832 12.3807
32.9747 20.2468 12.6493
33.6977 20.2522 12.4934
32.2962 20.053 12.6517
32.8852 19.885 12.307
31.5745 19.6566 12.4794
31.9435 19.7681 12.469
31.8917 19.9356 12.8026
31.544 19.6216 12.5289
31.835 20.1965 13.125
31.8616 20.0681 12.9849
31.6633 20.2323 13.168
31.802 20.1636 13.1022
32.4255 20.8779 13.7297
31.8557 21.2486 14.8425
50.2115 31.527 19.3659
30.3866 20.328 13.8068
31.3523 20.8331 14.1669
30.3797 19.7409 13.1689
31.2264 20.558 13.777
30.2571 20.278 13.8578
30.1178 20.1549 13.8012
30.1971 20.2166 13.7328
30.4244 20.556 14.1556
29.9903 20.4698 14.2504
29.2908 19.9039 13.8597
28.2023 19.2258 13.5357
29.7553 20.2877 14.12
29.6423 20.4256 14.5183
29.4443 20.3562 14.3903
29.1673 20.2401 14.303
28.8329 20.2433 14.5124
28.4367 19.8324 14.128
28.9751 20.6347 14.8574
27.9894 20.0318 14.5675
28.1095 20.0149 14.5235
27.5426 19.8307 14.6617
27.7681 20.1046 14.8594
27.6737 19.9161 14.6606
28.5358 20.8356 15.475
27.7409 20.1588 14.8919
27.2751 20.2392 15.2705
27.4375 20.4044 15.5395
28.0425 20.6954 15.6517
27.9705 20.7559 15.6363
26.9071 20.2664 15.6251
27.5864 20.6024 15.7964
28.0172 21.0805 16.1242
27.1835 20.543 15.8361
27.1261 20.5403 15.8517
26.9882 20.7845 16.2434
25.9774 19.9276 15.7623
26.1726 19.967 15.6437
25.2636 19.5207 15.3147
25.7339 20.4131 16.4325
25.6129 19.8228 15.7769
26.5537 21.0529 17.0174
26.465 20.7576 16.5698
25.643 20.3108 16.34
24.9339 20.0205 16.4067
25.6838 20.4642 16.7541
26.2103 20.7899 16.8952
25.4197 20.3052 16.5739
25.2416 20.3252 16.8026
24.961 20.0231 16.4266
24.869 20.3237 16.8923
24.6663 20.59 17.4982
25.1717 20.4644 16.9537
24.1469 19.832 16.6263
24.1537 20.2899 17.2311
24.3058 20.3614 17.3971
23.709 19.6722 16.7889
24.0762 20.1657 17.2218
23.788 20.227 17.4626
23.8771 20.0897 17.4856
24.2215 20.6209 17.711
23.4234 20.3653 18.0369
24.1308 20.4694 17.738
23.4016 20.1183 17.7902
23.9256 20.5582 17.985
23.2032 20.5553 18.6555
23.9519 20.4191 18.0243
23.1044 19.8587 17.4648
22.6383 19.8839 17.9123
22.8944 20.2908 18.4261
23.1213 20.6556 18.8106
22.5006 19.8758 18.0321
22.4698 20.1483 18.3986
22.5794 20.1162 18.4104
22.7927 20.4788 18.7949
22.4498 20.0308 18.3606
22.645 20.6333 19.0451
22.1299 20.0302 18.5477
21.607 19.9189 18.7352
22.7357 20.8039 19.307
22.0107 20.4193 19.2418
21.8268 20.3232 19.2353
21.2358 19.5916 18.6583
21.7344 20.1434 19.1931
21.8711 20.512 19.4429
20.9797 19.5176 18.5896
20.606 19.7562 19.1404
20.993 19.9541 19.3511
20.4724 19.4839 19.0609
21.3568 20.2631 19.6899
20.9352 20.2318 19.8818
21.2337 20.4115 20.0431
20.2301 19.572 19.3704
20.268 19.6943 19.6311
20.5153 20.0034 20.0223
20.4203 20.3964 22.0131
33.5372 32.1917 29.3756
20.5583 20.2006 20.3738
19.9485 19.8534 20.0812
19.996 19.9481 20.1544
19.7273 19.7299 20.111
20.1282 20.1479 20.5461
20.3217 20.4434 20.7615
19.4943 19.8759 20.5211
18.8425 18.9987 19.8611
19.2336 19.5571 20.4742
19.4471 19.4338 19.9934
19.9856 20.684 21.6021
19.7092 20.0217 20.6357
18.9396 19.7609 21.1235
19.8801 20.1544 20.8875
19.1868 19.9817 21.0441
19.4689 20.3601 21.6295
19.0395 19.804 20.9906
18.7827 20.0753 21.8572
19.2135 20.1857 21.8295
18.8728 19.4841 20.8259
18.7542 19.852 21.5396
18.5468 19.5496 21.0571
19.0674 20.6421 22.6072
18.898 19.9859 21.6415
18.2906 19.4745 21.2288
18.4712 20.317 22.6068
18.3154 19.5525 21.5055
18.2746 20.1238 22.7109
18.7165 20.0451 21.9178
18.0075 19.8731 22.2661
17.8392 19.4989 21.9092
17.7677 19.2962 21.5997
17.6127 19.6079 22.3172
18.2321 20.0721 22.5663
17.6362 19.5686 22.1412
17.5943 19.7807 22.5615
17.576 19.6354 22.3979
17.3674 19.5266 22.4863
17.9186 20.012 22.6676
17.1669 19.8773 23.3406
17.637 20.0363 23.3271
17.7937 20.142 23.0702
17.0249 19.4971 22.7418
16.7704 19.1149 22.454
17.2276 19.8129 23.0194
16.831 19.8416 23.6851
16.8473 19.5113 23.0209
16.0731 18.729 22.8768
17.0767 19.3792 22.5392
16.1635 19.0212 22.8715
16.4686 19.3213 23.1667
16.863 20.0716 24.3833
16.3946 18.9975 22.7236
16.636 19.7545 23.8848
15.9782 18.8553 22.9987
16.3822 19.6492 24.0402
16.5211 19.8875 24.2036
16.2557 19.1989 23.3493
15.8672 19.1862 23.5425
16.0289 19.6307 24.377
15.9186 19.3935 24.1798
15.9501 19.2365 23.7828
16.2175 19.857 24.45
15.4842 19.1636 24.3038
15.8831 19.44 24.214
15.4877 19.4606 24.688
15.8766 19.8604 25.5295
15.7394 18.9104 23.6769
15.4955 19.5383 25.0261
15.2394 18.7938 24.1318
15.5759 19.3061 24.4825
15.107 19.0608 24.5465
15.229 19.0462 24.2186
15.3029 19.3643 25.027
15.249 19.3249 24.8514
15.5024 20.0623 25.9521
15.153 19.4553 25.715
14.9372 19.1473 25.3821
15.6577 19.9076 25.6018
14.6774 19.1075 25.2067
14.821 19.1747 25.3873
15.0469 19.6158 26.0468
15.0269 19.3736 25.2363
13.9803 18.3849 24.8783
14.2978 18.7576 25.1077
14.5172 19.1612 25.4107
14.1557 19.1409 26.3929
14.7067 19.464 26.5085
14.9673 19.735 26.632
14.4122 19.1587 26.3906
14.6635 19.149 25.7794
14.1201 18.7806 25.7129
14.5069 19.5213 26.7062
14.6058 19.9459 27.8133
14.5534 20.2914 31.1389
23.2804 30.5284 37.2819
14.3231 19.673 27.5356
13.8506 18.8215 26.4972
14.0931 18.9944 26.3913
14.0403 19.2923 26.7613
13.2257 18.2874 25.9334
13.6899 19.0209 27.158
13.8812 19.1235 27.1775
13.763 18.7192 26.324
13.8272 19.1784 26.8609
13.4493 18.9411 27.1526
13.4859 18.5497 26.34
13.4066 18.9098 27.2146
13.3424 18.8343 26.9493
12.9244 18.29 26.7975
13.6379 19.2117 27.3219
13.0862 18.3233 26.5179
13.296 19.1296 27.6205
12.7856 18.2891 26.9083
13.0085 18.7491 27.5199
13.0054 18.7032 27.6883
12.9022 18.5051 27.5225
12.93 18.2971 26.5349
12.6262 18.6097 27.6326
12.8556 18.6025 27.5039
12.6221 18.659 28.1267
12.5283 17.9103 26.4815
12.2889 18.1916 27.5641
12.6779 18.2645 27.1301
12.4467 18.1926 27.0691
12.1352 18.1718 27.3498
12.2262 18.157 27.456
12.1846 18.2479 28.1554
12.5969 18.558 28.1676
12.7303 18.8373 28.1655
12.2907 18.5838 28.7229
12.3398 18.2838 27.7228
12.0951 18.4598 28.5186
12.2185 18.4887 28.6255
12.1217 18.3535 28.2809
11.8247 18.0144 28.3134
12.1357 18.0569 27.2194
11.5436 18.1205 28.6956
11.4756 17.3956 27.3201
11.7861 18.0077 28.3445
11.8226 17.9371 27.7016
11.4345 18.0611 28.7318
11.6192 17.9828 28.7221
12.1091 18.788 29.7905
11.9034 18.4493 29.122
11.4297 17.6783 28.0321
11.478 18.1209 28.9926
11.4524 17.8732 28.9265
11.5662 17.9421 28.6953
11.8673 18.8311 29.9093
11.2015 17.8104 29.0624
11.0817 17.373 28.5033
11.4497 18.141 29.3325
11.4228 18.3583 30.1037
11.4099 17.8127 28.656
11.4378 18.2736 29.3185
10.9388 18.0598 30.1823
11.0778 17.8253 29.4007
11.0259 17.6844 28.8862
10.8775 17.7362 29.5649
11.0797 17.9034 29.5948
10.6194 17.0062 28.161
10.5557 17.0675 28.2329
10.754 17.6916 29.6041
10.6568 17.6064 29.7541
10.6956 17.655 29.5676
10.3157 16.6143 28.1482
10.602 17.5522 29.3414
10.8812 18.1624 30.7791
10.7334 17.8207 30.2208
10.4868 17.4024 29.6707
10.3053 16.8981 29.1785
10.7204 17.8137 29.8356
10.4532 17.726 30.373
10.5532 17.8276 30.6932
10.1691 17.0295 29.6429
10.3379 17.0927 29.2515
10.348 17.7245 30.6565
10.3723 17.6001 30.5566
10.287 17.2974 29.9024
10.1978 17.4514 30.6693
10.2575 17.4262 30.2804
10.231 17.6602 30.8268
10.3312 17.8952 31.4254
9.91204 17.089 30.1584
10.049 17.5284 31.067
9.94927 17.1312 30.2458
9.57802 16.7103 30.3141
9.9347 17.0393 30.1065
9.79858 17.2103 31.1962
9.78744 18.4234 39.4588
16.9469 27.5538 40.595
9.69679 17.4492 31.5691
9.60072 17.3762 32.2574
9.93272 17.3302 31.1505
9.73257 17.239 31.341
9.62911 16.8621 30.4549
9.6493 17.0208 30.9662
9.63807 17.3226 31.7471
9.66119 17.032 31.0062
9.56711 16.955 30.575
9.51648 17.0593 30.9947
9.34473 16.8578 30.9865
9.25328 16.6653 30.4781
9.15854 16.9534 31.6474
9.18827 16.7187 31.4117
9.53624 17.2023 31.9141
9.19545 16.5055 31.0162
9.32514 16.8417 31.042
9.25808 16.9413 31.6389
9.36356 17.0437 31.2766
9.17449 17.11 31.9469
8.94688 16.5788 31.6929
8.97986 16.5712 31.4063
9.05408 16.7149 31.8728
9.18391 16.8614 31.9949
8.97573 16.5202 31.4196
8.84499 16.1028 30.7192
8.96035 16.6008 31.8696
8.94436 16.3562 30.6125
8.67882 16.5199 31.6105
8.62165 16.3654 31.5253
8.5768 16.1409 31.1675
8.77744 16.5384 31.5379
8.40521 15.8004 30.6649
8.5538 16.3727 31.9281
8.53026 16.0628 31.0288
8.42649 16.0643 31.5657
8.32874 15.7483 31.1034
8.6913 16.3484 31.3972
8.33548 16.2906 32.3756
8.45949 15.8872 30.6116
8.24427 16.1571 32.1096
8.22658 15.6974 31.1616
8.45257 16.3629 32.0985
8.1125 15.7634 31.6194
8.48407 16.399 31.9728
8.16526 15.6143 30.6031
7.95153 16.1203 33.6046
8.76878 16.6301 32.6211
8.05483 15.6831 31.8482
8.20138 16.2001 32.6331
8.15178 15.6641 31.338
8.07423 15.8978 31.9509
8.1549 16.3222 32.964
8.21688 16.3414 32.8705
8.00383 15.9298 32.642
7.9563 15.7728 32.314
7.98727 15.7815 31.9974
7.82885 15.5553 31.9524
7.90607 16.1519 33.6103
8.04578 15.9498 32.5754
7.727 15.2837 31.5214
7.72542 15.3237 31.2186
7.61906 15.4184 32.1373
7.90616 15.749 31.7063
7.69979 16.0629 33.208
7.74735 15.8558 33.4884
7.89755 15.8506 32.8284
7.78276 15.9742 33.4182
7.61251 15.3988 32.6293
7.81023 15.5825 31.8823
7.59705 15.8086 33.3042
7.80504 16.1665 33.66
7.43601 15.3006 32.5639
7.43667 15.4025 32.4501
7.43037 15.4669 33.3198
7.72128 15.9672 33.7299
7.31706 14.9984 32.5384
7.56473 15.6838 32.9827
7.35538 15.2897 32.9014
7.35268 15.1743 32.1518
7.20475 14.8765 31.813
7.34407 15.6082 33.6278
7.36302 15.5671 33.7668
7.34314 15.3971 33.0917
7.25505 15.2136 32.8824
7.27133 15.29 33.2395
7.47691 16.0956 34.6403
7.29331 15.0794 32.2782
7.06314 15.2796 33.2117
6.88907 14.6595 32.6259
7.05516 14.9772 33.0287
7.21234 15.3765 32.954
6.84036 14.8908 33.2178
6.91814 15.2104 34.1686
7.07725 16.5047 46.4577
12.5888 24.8491 42.822
7.12194 15.8617 35.0725
7.05003 15.3897 34.1683
7.02498 15.3429 33.8943
6.88284 15.1698 34.0919
6.99857 15.0334 33.1921
6.79725 15.0574 34.0426
6.86482 14.8746 33.4339
6.80104 14.9975 34.0887
6.93939 14.9979 33.3123
6.70093 14.6879 33.2771
6.80622 14.8597 32.8431
6.44096 14.2855 32.8831
6.80927 14.9507 33.3828
6.54643 14.4121 32.4979
6.43618 14.3976 33.425
6.6251 14.6027 33.2499
6.38721 14.1387 32.6704
6.55096 14.6287 33.4495
6.67375 14.9512 34.3875
6.55405 14.3987 33.2495
6.66523 14.7966 33.776
6.66257 14.8139 33.7276
6.39937 14.4896 33.664
6.52181 14.6771 33.7383
6.38696 14.3117 33.1971
6.30535 14.3752 33.6566
6.38462 14.3996 33.9833
6.58114 14.9796 34.6741
6.4553 14.543 34.0719
6.42737 14.3838 33.2896
6.11876 13.8809 33.1344
6.46013 14.6965 33.8766
6.19684 14.2437 33.4046
6.26448 14.5884 34.8327
6.45824 14.5225 33.2537
6.03411 14.1719 34.3016
6.26683 13.83 32.2463
6.07279 14.1884 33.4892
6.05175 14.0122 33.8082
6.25094 14.2191 32.8863
5.93815 14.0164 33.7887
6.01997 13.98 33.4078
6.06981 13.903 32.6029
5.75811 13.6242 33.1341
6.03487 14.1888 34.11
6.06409 14.1601 33.9849
5.98308 14.1721 33.7707
5.87788 13.92 33.9445
5.95294 13.6966 32.6609
5.78442 13.7712 33.455
6.05232 14.4567 34.7526
5.80719 13.8305 34.2069
5.88823 14.0886 34.7196
5.95089 13.7228 33.7209
6.02963 14.5182 35.1175
5.88547 13.7985 32.9896
