# pn-170911/RbIIR-43-USN3-1280-1959.psd
# Power spectrum* (dif=0,1,2) (really just |FT|^2)
# NOTE: only the first half! (symmetric)
# weeks: 1280-1959
# 3486 clock-days, 106 excluded
# PSD: 1441
462.408 0.102409 0.0310952
23323.1 0.515591 0.0284246
79377.4 1.58474 0.0294422
17940 0.686771 0.0286771
37031.8 2.80243 0.0301164
5895.57 0.594547 0.0282377
6665.57 1.01186 0.027552
3193.17 0.631703 0.0273517
7366.55 2.12943 0.0291053
2290.29 0.777103 0.0275457
6769.8 3.11825 0.0289392
1949.54 1.00551 0.028122
5137.3 3.43345 0.0297038
1628.02 1.1919 0.0288453
5873.66 5.38632 0.0338486
1517.18 1.50472 0.0312841
5871.04 7.04468 0.0360494
1522.28 1.95364 0.030452
4759.09 7.23854 0.0392342
1483.21 2.44574 0.032714
4806.37 9.01697 0.0457725
1278.6 2.56962 0.0347899
4356.68 9.98472 0.0498782
1272.11 3.06065 0.0376232
3942.71 10.7314 0.0570395
1255.83 3.62304 0.0392806
3541.68 11.2336 0.0634276
1187.32 4.02916 0.0418349
3378.27 12.4867 0.0709646
1072.31 4.1485 0.0443729
2610.55 11.0949 0.0714387
1044.81 4.62057 0.0513438
2627.79 12.6346 0.088641
1033.17 5.1995 0.056121
2400.4 13.0581 0.0967965
934.947 5.30375 0.0602607
1934.59 11.8453 0.0994762
878.933 5.52895 0.0670895
1898.72 12.9369 0.111965
833.191 5.8593 0.0715239
1614.3 12.1136 0.117693
788.888 6.14853 0.0783987
1459.65 12.1147 0.126723
747.587 6.35879 0.0845213
1297.54 11.8176 0.136949
661.921 6.18817 0.0877172
1110.63 11.0136 0.137164
669.409 6.80939 0.102289
1025.51 11.151 0.147048
615.974 6.87663 0.108774
901.13 10.5382 0.156316
559.102 6.78141 0.115283
780.059 9.97542 0.156876
530.722 6.96105 0.124254
709.676 9.69631 0.159792
531.022 7.49174 0.139073
673.298 9.91551 0.17319
500.603 7.51556 0.149673
623.987 9.86497 0.18931
459.875 7.40916 0.148922
544.674 9.17006 0.184907
455.004 7.87012 0.164569
513.559 9.20812 0.195694
421.857 7.78026 0.17867
467.497 8.93578 0.203597
396.579 7.80276 0.182068
435.019 8.81829 0.211582
382.701 7.97527 0.198948
421.543 9.03701 0.228696
368 8.09634 0.216558
392.628 8.99149 0.243173
366.375 8.53358 0.234693
361.884 8.74401 0.244831
334.845 8.3355 0.243619
357.925 9.1625 0.266202
318.974 8.37305 0.25329
331.202 8.93892 0.276908
319.054 8.729 0.274509
323.037 9.11595 0.295234
311.185 9.01323 0.295413
310.153 9.2174 0.309238
286.311 8.71717 0.300951
303.924 9.47254 0.33232
284.993 9.15073 0.323855
290.62 9.51766 0.345122
268.775 9.01597 0.33734
270.014 9.33565 0.356638
259.236 9.10989 0.359056
265.234 9.53006 0.38157
254.362 9.43489 0.385287
264.742 10.0332 0.414909
249.203 9.53838 0.394689
254.837 10.0475 0.435133
241.66 9.73066 0.432409
246.321 10.0925 0.449113
242.248 10.1906 0.472305
318.756 13.7354 0.625711
236.118 10.2735 0.485084
234.593 10.567 0.510946
224.085 10.2489 0.511092
215.963 9.99476 0.499205
220.318 10.4751 0.531661
225.257 10.8537 0.563198
217.634 10.7633 0.565212
218.23 11.0042 0.591171
207.611 10.6814 0.586542
204.69 10.6544 0.590738
201.532 10.7465 0.613581
211.045 11.517 0.65826
198.521 11.0126 0.64975
191.269 10.7947 0.654971
194.279 11.2104 0.69108
192.34 11.2638 0.689395
182.784 10.9042 0.68761
191.719 11.646 0.751724
180.926 11.1707 0.726527
179.107 11.1753 0.740639
175.107 11.207 0.758545
179.329 11.6511 0.795835
174.008 11.4066 0.795538
175.932 11.8297 0.83172
173.388 11.7628 0.840596
166.158 11.4731 0.842329
162.161 11.4141 0.848735
167.332 12.0119 0.89886
164.276 11.9945 0.924087
163.759 12.0683 0.938904
158.678 11.8746 0.93261
150.526 11.507 0.921191
152.346 11.8518 0.968334
160.08 12.559 1.02212
151.352 12.1313 1.01287
148.04 11.9429 1.00912
150.133 12.3462 1.0605
145.669 12.2439 1.07363
145.003 12.1956 1.07922
143.221 12.3711 1.10792
140.679 12.2168 1.1124
139.72 12.4043 1.14795
140.116 12.5936 1.17978
136.249 12.3519 1.16491
135.195 12.4849 1.19237
131.924 12.3592 1.20735
136.509 12.9072 1.27229
131.405 12.6953 1.27538
128.607 12.6074 1.28548
130.651 12.9608 1.33841
124.797 12.5591 1.31211
122.27 12.4196 1.30036
127.38 13.0511 1.38948
122.543 12.7816 1.3873
123.392 13.0247 1.42694
123.938 13.3174 1.47527
116.781 12.6951 1.44072
119.358 13.1068 1.49121
116.749 12.9752 1.49831
115.969 13.016 1.51045
121.609 14.0198 1.66001
114.238 13.1551 1.57526
113.268 13.3015 1.6121
111.756 13.2071 1.61816
113.074 13.5552 1.70545
112.396 13.7528 1.74103
112.494 13.921 1.7736
110.247 13.7949 1.76897
106.829 13.5046 1.75415
109.079 13.9941 1.84872
106.632 13.7789 1.83779
106.8 14.0365 1.882
108.664 14.3934 1.96064
102.341 13.6518 1.88894
106.608 14.5568 2.05028
102.895 13.9862 1.97273
103.142 14.3803 2.0635
99.7437 14.0105 2.03085
101.602 14.4805 2.12141
99.2949 14.2384 2.0991
98.6372 14.3904 2.15403
94.8051 13.8514 2.09461
97.2377 14.428 2.21996
100.76 15.1967 2.34625
96.6444 14.6128 2.26028
97.5929 14.8964 2.34423
93.7969 14.5224 2.32284
95.0355 14.9135 2.41578
93.9748 14.9306 2.42909
94.0103 14.9822 2.46327
92.1893 14.9936 2.52035
92.3034 15.0554 2.53408
92.5335 15.1892 2.5805
89.9838 15.1338 2.60534
92.2416 15.6173 2.74308
168.896 28.8694 4.96159
88.7279 15.363 2.73582
91.9314 15.947 2.85072
87.3577 15.3806 2.77426
87.4257 15.4945 2.83069
83.6441 15.0646 2.79849
84.9831 15.36 2.83941
86.4673 15.8055 2.9694
85.8329 15.8679 2.9944
85.4888 15.8348 3.02192
86.5013 16.3213 3.14989
83.3259 15.6593 3.04871
85.3667 16.4788 3.2428
83.6577 16.2516 3.2291
83.2672 16.2809 3.26369
79.5698 15.6378 3.16672
81.6458 16.2832 3.32961
80.7494 16.2802 3.36589
80.4948 16.1727 3.37213
77.329 15.9364 3.35038
77.8344 16.1294 3.43946
78.5556 16.4618 3.51941
76.5754 16.1749 3.52351
78.102 16.6958 3.64737
78.7415 16.9122 3.71013
77.1725 16.5348 3.66566
78.3785 17.1156 3.83753
77.1255 16.9874 3.82492
77.9994 17.4376 3.99273
74.8903 16.838 3.87871
75.8912 17.25 4.00125
72.8839 16.6835 3.92113
75.7671 17.4701 4.13648
74.506 17.3353 4.11918
72.4968 17.0516 4.12387
71.6076 16.9707 4.11893
70.6379 16.9369 4.17283
70.9385 16.9536 4.15862
72.5054 17.5572 4.37732
70.4508 17.2682 4.34386
72.758 18.0701 4.57389
69.1051 17.2144 4.36479
68.0418 17.0809 4.39221
68.2938 17.3573 4.49473
68.9895 17.6409 4.59829
68.8077 17.8329 4.69834
68.1948 17.8948 4.75638
68.6942 17.9971 4.81388
67.8987 17.9543 4.86114
68.8495 18.3394 4.98474
67.571 18.0929 4.96709
66.3812 18.0573 4.99871
68.2361 18.6825 5.21881
65.765 18.1604 5.13026
67.5368 18.7337 5.30227
66.7931 18.7263 5.32619
63.8528 18.0546 5.17653
62.5121 17.7514 5.16775
65.0851 18.6266 5.42322
64.2577 18.6571 5.52571
63.2213 18.2185 5.36755
64.0186 18.8006 5.59974
65.0627 19.2224 5.78578
61.303 18.2628 5.54208
62.2809 18.7077 5.69476
61.4544 18.5449 5.70601
61.7941 18.8553 5.88687
62.1515 19.0288 5.93742
61.5361 19.0256 5.99241
60.9389 18.9726 6.02092
59.3688 18.5935 5.92108
60.5466 19.3653 6.25386
59.7241 19.0845 6.18453
59.6228 19.1689 6.27298
59.7443 19.4215 6.38297
58.9855 19.225 6.39386
59.332 19.3823 6.46292
60.0742 19.6817 6.58745
57.5715 19.2448 6.57205
58.9898 19.6757 6.72398
60.0526 20.4077 7.04066
57.977 19.6753 6.84171
57.2924 19.5955 6.84617
57.6728 19.9988 7.04189
55.8622 19.2615 6.79773
55.5296 19.4749 6.94618
56.3681 19.8437 7.10817
55.6733 19.6641 7.0958
54.9419 19.5994 7.12425
55.6201 20.0803 7.37377
53.6395 19.5586 7.28796
54.2401 19.5408 7.17802
54.1152 20.0089 7.52145
54.1487 20.0444 7.5578
55.7805 20.7365 7.86602
54.3494 20.4211 8.06945
106.677 39.8318 14.6111
54.7938 20.7791 8.08548
53.4341 20.5186 8.04036
53.983 20.9421 8.2483
53.3885 20.5941 8.08531
53.7165 21.1158 8.4139
51.6802 20.1868 8.03866
52.3253 20.4948 8.23842
50.8205 20.4208 8.33495
53.2325 21.1322 8.53164
50.6819 20.5296 8.46017
51.6539 20.8069 8.56327
50.1223 20.3132 8.41772
50.8754 20.8567 8.69335
50.2871 20.7131 8.67579
50.518 20.9559 8.79971
50.1942 21.178 9.01768
49.9835 21.1816 9.12899
50.4827 21.3551 9.21507
48.3559 20.6051 8.92084
49.208 21.1664 9.25646
48.1816 20.9065 9.29099
49.2587 21.4243 9.47018
48.8425 21.1484 9.39
47.4212 20.8836 9.33148
47.465 20.864 9.33689
47.4325 21.015 9.48878
46.9624 21.2016 9.64926
45.7665 20.7854 9.63076
46.3881 20.8576 9.55853
48.033 21.8392 10.069
45.3449 20.9398 9.85107
47.1933 21.9 10.2671
44.9763 20.8679 9.89283
45.6785 21.1526 9.9317
44.7583 21.1563 10.1987
46.1855 21.7893 10.4393
45.2972 21.5713 10.4566
46.2577 22.0875 10.656
45.4991 21.9482 10.7941
45.4539 22.0403 10.8437
44.6021 21.7175 10.7486
45.106 22.157 11.0493
44.0674 21.5516 10.7767
44.5052 21.9767 11.0352
43.8516 21.91 11.1305
44.4962 22.1655 11.2001
42.378 21.4795 11.0617
42.5155 21.5161 11.0872
43.1627 21.9862 11.3852
43.2857 22.1243 11.4917
41.1925 21.3593 11.2552
42.1412 21.8698 11.5273
43.7092 22.6208 11.9257
43.4336 22.9618 12.2446
40.1966 21.3133 11.4861
41.2062 22.1892 12.0896
41.4126 21.704 11.6582
42.1871 22.4558 12.172
39.8373 21.5827 11.8845
39.874 21.4868 11.7728
40.9448 22.6063 12.6511
39.8339 21.8438 12.2167
40.1566 21.9413 12.1383
40.1111 22.4458 12.707
39.7846 22.372 12.8013
40.4159 22.3992 12.6071
38.5776 21.7199 12.4501
40.251 22.8132 13.0663
39.3149 22.3087 12.8843
38.5685 22.1315 12.9195
39.7167 22.8663 13.3572
39.0308 22.4905 13.0718
39.1972 22.8897 13.6365
38.3873 22.4727 13.4453
38.5062 22.4092 13.2955
37.1886 22.0709 13.32
38.548 22.7391 13.6722
37.5373 22.4239 13.6898
37.7339 22.3462 13.5354
37.2995 22.4979 13.8232
37.504 22.7737 14.0274
37.785 22.976 14.185
36.8453 22.6385 14.1051
36.9909 22.8076 14.2519
35.4664 21.9985 13.8951
35.9068 22.333 14.1525
36.633 22.8682 14.521
35.9418 22.4602 14.3203
36.3887 23.0417 14.8499
35.094 21.9876 14.1133
36.1044 22.9532 14.7536
35.641 22.9826 15.0878
35.2663 22.6834 14.9424
34.9131 22.5538 15.029
35.1503 23.4075 16.8799
74.1224 47.2682 28.5174
33.9595 22.7325 15.6111
34.2283 22.8537 15.4058
33.319 22.1734 15.0706
34.3535 22.908 15.5694
34.5568 23.057 15.7161
34.08 22.5762 15.1621
33.8883 23.0976 15.9535
34.1446 23.1575 15.9226
33.7097 23.0036 15.9077
32.3095 22.0887 15.4189
33.8859 23.4893 16.3319
32.1115 22.0442 15.4141
32.5348 22.8467 16.2516
33.0978 22.989 16.2874
32.7036 22.9412 16.393
32.8813 23.1905 16.5927
32.6015 23.0723 16.5141
32.4517 23.2666 16.8217
31.7984 22.7657 16.6582
32.4515 23.3673 17.0627
31.9545 23.0391 16.8917
32.2734 23.2621 17.1247
31.2452 22.4375 16.4136
31.6075 23.209 17.3335
30.77 22.4767 16.7546
31.3431 23.2833 17.563
31.3475 23.2168 17.4391
31.1501 23.2655 17.6386
30.3888 22.8257 17.3534
31.3114 23.8742 18.4086
30.9126 23.1675 17.6538
30.9046 23.4145 17.9162
30.2868 23.0753 17.8383
30.0407 22.9748 17.8696
29.8138 22.908 17.8872
30.3786 23.3565 18.1122
29.1286 22.811 18.1186
29.6174 23.3157 18.5945
30.0943 23.4195 18.6227
29.5943 23.0341 18.2363
29.1978 23.0688 18.4981
29.6083 23.5995 18.9462
29.5948 23.674 19.1684
28.2449 22.534 18.4223
29.6188 23.4075 18.8272
28.8641 23.3874 19.1253
28.8886 23.4929 19.3726
28.8574 23.5844 19.5086
28.8659 23.6501 19.562
28.2803 23.3269 19.5577
28.0469 23.1559 19.4502
28.4042 23.321 19.4935
27.8723 23.212 19.5351
28.0841 23.3927 19.798
27.9217 23.4833 20.0211
27.554 23.2589 19.8948
27.4022 23.2464 19.9076
27.5074 23.5564 20.3215
28.1615 23.9948 20.6933
27.7711 23.8354 20.8772
27.7898 23.6577 20.5289
27.6753 23.8701 20.7746
26.9551 23.3764 20.5175
27.5049 23.913 21.0721
26.5539 23.3506 20.94
27.5312 23.9573 21.1343
26.4429 23.2427 20.7294
26.0093 23.3673 21.3361
26.8726 23.5669 21.0269
27.3911 24.5296 22.2565
27.0143 24.1063 21.7944
25.9916 23.2161 21.2333
26.8134 24.3367 22.3666
26.2229 23.7336 21.9961
26.6709 23.8606 21.7531
26.3789 24.2724 22.6231
26.7584 24.6338 22.8285
25.5452 23.7305 22.2714
25.8167 23.8232 22.3102
25.7126 23.8468 22.3244
25.2235 23.6033 22.271
24.7108 23.3033 22.2978
24.7956 23.0939 22.0936
25.2594 23.8504 23.0607
25.8105 23.9982 22.6959
24.8214 23.5875 22.7068
24.9543 23.7021 22.6566
24.5926 23.7406 23.2532
24.5367 23.5037 22.9498
24.0741 23.1818 22.7435
24.041 23.4459 23.1535
24.626 23.9447 23.5533
24.2463 23.9348 24.021
24.5902 24.2654 24.7221
24.3798 24.8042 28.1704
49.9385 47.3329 41.5335
23.7978 24.0262 24.947
24.1368 23.7463 23.9768
24.1718 24.3032 24.6321
24.0242 24.237 24.7173
23.7325 23.9768 24.8285
23.608 23.5892 24.1677
23.091 23.5402 24.4319
23.0261 22.9414 23.4356
23.5989 24.0804 24.8706
23.6156 24.1644 24.7728
22.5084 23.2199 24.4346
23.4908 24.5189 25.7688
23.0597 23.6961 24.9653
23.09 23.957 25.1427
23.1985 24.3522 25.8037
23.1443 24.1731 25.5643
22.3149 23.6007 25.3927
22.4085 23.5951 25.3913
23.2251 24.2399 25.6593
22.3885 23.9727 25.8853
22.257 23.525 25.4319
22.4104 24.0849 26.1591
21.8181 23.4625 25.567
21.9962 23.5836 25.5257
21.6298 23.7069 26.1719
21.7121 23.6521 26.0726
21.4028 23.4448 26.2228
22.1096 24.0348 26.4271
21.5599 23.7568 26.4401
22.2128 24.1867 26.6017
21.1138 23.8247 27.1516
22.0934 24.5388 27.5815
21.1128 23.2516 26.3558
21.928 24.3217 27.1462
20.739 23.3927 26.9431
21.3489 23.8142 26.9838
20.4513 23.1638 26.8491
21.0932 23.628 27.1198
21.542 24.4433 28.111
21.0259 23.8625 27.569
21.3133 24.1856 27.8512
21.0196 24.1231 28.001
20.4301 23.2776 27.1159
21.052 24.2429 28.1419
20.5608 23.8223 28.1937
21.0175 24.3163 28.4994
20.0731 23.4147 27.9984
20.6913 24.1288 28.2756
20.1349 24.2734 29.3757
19.8362 22.9544 27.4947
20.2348 23.963 28.7189
20.5039 24.4578 29.3083
19.3842 22.9462 27.9628
19.5921 23.4284 28.5705
20.4701 24.3602 29.4466
19.9497 24.0571 29.5477
19.9391 23.7148 28.8138
19.299 23.4879 29.0082
19.7913 23.8153 29.1378
19.4943 23.7051 29.3225
19.5607 24.0285 30.0322
19.6161 23.8216 29.4434
19.1424 23.623 29.5786
19.5089 23.9175 29.6724
19.2038 24.1109 30.5366
19.4554 24.1413 30.5763
19.8028 24.5156 30.8354
19.5472 24.5022 30.9207
19.2755 23.9659 30.0324
18.4015 23.5293 30.4643
18.6111 23.3245 29.8383
18.8656 24.171 31.3407
19.0664 24.2847 31.5791
19.0109 24.1533 31.2869
18.5917 23.501 30.4581
18.8499 24.338 31.7123
18.2424 23.1162 30.2295
19.0471 24.6631 32.2836
18.7335 24.03 31.5185
18.6432 24.2644 31.8531
18.6029 24.0346 31.467
18.3731 24.1095 31.9783
18.2354 23.6481 31.2691
17.99 23.9152 32.1997
18.3721 24.1161 32.0033
17.88 23.9438 32.6047
18.4268 24.5161 33.0714
18.051 23.7323 31.7476
17.8073 23.847 32.7488
18.09 24.1245 32.973
18.2658 24.3365 33.0854
18.2798 24.3965 33.2669
17.8629 23.9236 32.7705
18.4512 25.4328 35.2061
17.5142 25.9054 43.764
37.0409 47.1077 54.0101
17.6677 24.609 34.5224
17.6075 24.7653 35.1586
17.4356 23.8813 33.3509
17.0773 23.6468 33.3111
17.2433 23.6041 32.7671
17.4555 24.5799 34.4745
17.1253 24.1226 34.2633
16.7564 23.4388 33.6569
16.8633 23.4179 33.3677
17.072 23.9595 34.2188
16.6376 22.8752 32.0521
16.3761 23.386 33.7406
16.7561 23.6364 33.8363
16.4971 23.4715 33.8055
16.5551 23.7996 34.49
16.4902 23.6816 34.6324
16.8913 23.9226 34.721
16.5273 23.4058 33.6879
16.5631 24.1571 35.4924
16.7188 23.8543 34.4699
16.0958 23.5626 34.7089
15.7905 22.9018 33.8976
16.3116 24.0603 36.0498
16.154 23.3972 34.9251
16.2188 23.5523 35.0462
15.8369 22.7267 33.5764
16.0937 23.7355 35.1864
15.7845 23.2976 34.7678
16.1851 24.244 36.0581
15.3589 22.8691 34.7154
15.6803 23.395 35.6362
15.4561 22.7259 33.8386
14.6565 22.2215 34.3915
15.2166 23.0799 35.5665
15.3976 22.875 34.8455
15.3069 22.9265 34.8433
15.133 23.0831 35.7365
14.9927 22.6948 35.0425
14.9526 22.781 35.6328
15.2918 23.1413 35.5695
14.9765 22.9145 35.688
15.352 23.4479 36.064
14.6288 22.8741 36.4458
15.1185 23.0568 36.0175
15.0044 23.1756 36.1778
14.4589 22.5007 36.0478
14.9214 22.8241 35.7361
14.5925 22.7102 36.0395
14.6167 22.9496 36.653
14.9436 23.0727 36.2789
14.3692 22.7365 36.4731
14.4727 22.6674 35.9148
14.1388 22.3164 35.6012
13.998 22.4662 36.5031
14.1014 22.7159 37.2442
14.5505 22.7403 36.1085
13.639 21.9013 35.9494
14.176 22.7965 37.0608
14.1666 22.67 36.7759
13.619 21.8789 36.1228
13.886 22.2571 35.9743
13.3789 21.7988 36.2883
13.48 21.8933 36.3719
14.054 22.5002 36.5284
13.3574 22.0624 36.9745
13.8299 22.72 37.9592
13.7813 22.4837 37.2372
13.5936 22.3399 37.1605
13.4259 22.1589 37.0231
13.5011 22.4308 37.5025
13.1924 21.6929 36.437
13.3543 22.4993 38.3997
13.3448 21.4772 35.7102
12.9934 22.3045 38.437
13.6217 22.4064 37.5376
13.1462 22.2084 37.9864
13.0699 21.9807 38.0275
13.2572 22.1898 37.8214
13.1763 22.1491 37.4973
12.5335 21.3675 37.2676
13.236 22.5959 38.583
12.9353 22.1874 38.8536
13.1365 22.1576 37.8871
12.7424 22.1561 38.9799
12.781 21.6297 37.2577
12.532 21.6786 38.3147
12.9377 22.4239 39.0156
12.4855 21.8652 38.7889
12.4924 21.3619 37.5273
12.6559 22.1982 38.9099
12.1974 21.1234 37.937
12.4538 21.5822 38.4916
12.4425 22.0121 39.6151
12.7114 22.5723 40.8984
12.0405 22.7931 53.3236
26.6249 43.5058 61.0203
12.4395 22.7101 41.929
12.3545 21.7522 39.0921
12.2648 21.7916 39.2752
12.1635 21.6177 38.8237
11.9972 21.5384 39.1192
12.0725 21.8491 39.6096
11.6877 21.1472 39.6642
12.1775 21.4468 38.6877
12.0283 21.8472 39.8043
11.6341 21.0094 38.918
11.8172 21.7055 40.6712
11.9703 21.4811 39.8476
12.1039 21.7236 40.1453
11.8106 21.1073 38.6519
11.4706 21.2358 40.1182
12.0653 21.6635 39.7314
12.006 22.1777 41.1671
11.8126 21.7829 40.4838
11.7837 21.8603 41.167
11.5381 21.1332 39.2141
11.1565 20.6321 39.0845
11.5299 21.7949 41.5753
11.9104 22.0797 41.4043
11.2162 20.7611 39.8427
11.1077 20.6747 39.9766
11.5446 21.3955 40.7056
11.3272 20.9898 40.0831
11.3588 21.2909 40.6123
11.3421 21.185 40.7815
11.2246 20.8756 40.1482
11.043 20.658 39.9918
11.2428 21.338 41.2936
11.3074 21.5539 41.8168
11.435 21.5087 41.3514
11.1806 21.145 40.7371
11.0513 21.2593 41.7503
11.1104 21.1347 41.1006
10.9197 20.9061 41.5992
11.0806 20.9194 40.3116
10.8246 20.9407 41.303
10.7818 20.7239 40.7956
10.9197 21.0959 41.8744
11.0877 21.185 40.9305
10.4712 20.6574 40.8323
10.5182 20.3321 40.3164
10.3933 20.7206 42.2173
10.7916 20.7282 40.9359
10.4849 20.6802 41.6924
10.7688 21.2775 42.826
10.9006 21.6353 43.0304
10.7614 21.222 43.092
10.671 20.8573 42.5045
10.8405 21.5386 43.2828
10.7178 21.2493 43.4349
10.8241 21.5839 43.7205
10.6225 21.2484 44.2762
10.8597 21.4148 43.6047
10.8546 21.8648 44.6837
10.5544 21.0295 42.9043
10.6257 21.1687 43.4081
10.7614 21.9258 45.0395
10.7807 21.7802 44.4985
10.5286 21.1424 43.5745
10.6139 21.8215 45.0455
10.757 22.4499 47.0829
10.8653 21.7574 45.2057
10.472 21.0162 43.3507
10.2809 20.9737 43.7033
10.4493 21.52 44.1684
10.1994 21.2577 44.9868
10.3376 21.3109 44.364
10.1592 21.1584 44.6305
10.0818 20.9664 44.5548
10.1056 20.6857 43.7722
10.1981 21.2181 45.1915
10.234 21.0713 44.014
9.90784 21.0389 45.5567
10.4111 21.7369 46.4852
10.1695 20.8681 43.9541
9.96506 21.1221 45.4415
10.0553 20.8455 44.1519
9.53142 20.2528 44.5766
10.0125 20.8957 45.2912
9.89994 20.3023 43.3717
10.0337 21.3226 45.1428
9.72249 21.2412 46.7105
9.82214 20.3809 43.5098
9.36021 20.0144 44.2047
9.90756 21.3451 46.1659
9.86475 21.0165 45.7895
9.84039 21.3924 47.0338
9.70633 20.8509 46.5983
9.64619 19.989 43.848
9.29779 20.376 46.4064
9.48343 23.2371 72.0986
21.4519 41.0355 64.7456
9.50088 21.4714 47.1869
9.30131 20.6113 45.4948
9.04673 19.9298 45.1572
9.12368 19.8336 44.4349
9.3492 20.2843 45.0815
9.36136 20.6818 45.8728
9.39126 20.3927 44.819
8.88751 19.6918 44.547
9.30102 20.4494 45.5519
8.99699 19.916 44.8706
9.21936 20.6143 46.1238
8.97626 20.0898 45.5372
8.7895 19.703 45.9722
9.37847 20.7915 46.7949
9.15453 20.1485 45.6776
8.89861 20.0424 46.059
8.98525 19.8095 45.4016
9.00113 20.3569 46.6631
8.71328 19.1063 43.8798
8.8031 19.9008 45.9208
8.69367 19.4384 45.4839
8.81253 19.3921 44.107
8.68214 19.6492 45.1075
8.75367 20.0161 45.9369
8.69253 19.6286 45.8098
8.6335 18.8896 43.3377
8.41786 19.419 44.9058
8.35626 18.8889 43.7473
8.27161 18.9009 44.2458
8.44514 19.3968 45.4432
8.4089 19.2069 45.3146
8.63461 20.2662 46.9436
8.4714 19.538 45.9589
8.44307 19.7393 47.5193
8.66767 19.3276 45.057
8.31766 19.2019 44.9168
8.16946 19.0454 45.3267
8.21563 18.9987 45.6991
8.35274 19.0322 44.924
8.18321 19.038 45.2872
8.08411 18.8191 45.1839
8.08848 18.7344 45.4253
8.26472 19.0415 45.3016
8.20904 19.0672 45.9521
8.39673 19.5191 46.1698
8.1383 19.2335 46.5506
8.15601 18.7708 45.2615
8.11736 18.8833 46.0813
8.30574 19.2118 45.2911
7.97318 18.9447 45.2705
7.86453 19.0237 47.4413
8.15232 19.0758 46.157
8.02438 18.8543 45.7703
7.76808 18.4506 45.7542
8.26236 19.6755 47.5965
7.94222 18.6913 46.3219
8.2238 19.4754 47.2143
8.02379 18.897 46.5876
8.07106 19.4067 46.6321
7.75995 18.9848 47.5268
