# pn-170911/RbIIR-61-USNO-1280-1959.psd
# Power spectrum* (dif=0,1,2) (really just |FT|^2)
# NOTE: only the first half! (symmetric)
# weeks: 1280-1959
# 10 clock-days, 1 excluded
# PSD: 1441
138.585 0.0503815 0.0205698
7692.48 0.152149 0.00802133
33900.1 0.712462 0.0138749
16813.6 0.693078 0.00854808
13362.2 0.965023 0.0160156
6450.13 0.813252 0.0104595
5127.93 0.813863 0.0108792
2853.58 0.573782 0.0118798
3067.52 0.773381 0.0103565
2400.03 1.02565 0.0196394
1594.32 0.528661 0.00668025
789.543 0.409676 0.0143932
918.231 0.616075 0.00829975
783.923 0.555848 0.0143141
650.394 0.690333 0.0108766
680.503 0.622237 0.0135093
540.103 0.878707 0.0131559
619.434 0.561801 0.0124704
494.075 0.632814 0.0136794
755.085 1.27926 0.0115606
389.654 0.666747 0.0156772
450.813 0.906891 0.00887614
315.357 0.672616 0.02135
209.479 0.639462 0.00812595
243.03 0.580241 0.0179778
259.75 0.727539 0.00770695
406.566 1.27139 0.0173756
250.924 0.799261 0.0121902
354.762 1.16531 0.0131226
190.885 0.830855 0.0189145
71.2232 0.310069 0.0168229
89.6285 0.3985 0.0157802
161.081 0.89421 0.013255
259.883 1.04206 0.0202285
156.489 0.855475 0.0168107
127.941 0.680684 0.021753
81.8645 0.505696 0.0113562
249.863 1.31745 0.0262965
178.329 0.999868 0.0124898
127.6 0.87083 0.0230967
261.827 1.97634 0.0307575
286.304 1.99259 0.0238139
179.735 1.34145 0.0290039
106.446 1.05019 0.0222489
213.637 1.79763 0.0362165
135.98 1.22099 0.0234084
179.337 1.98856 0.0479263
136.556 1.55843 0.0257053
178.587 2.08726 0.0444861
144.582 1.71943 0.0306832
140.958 1.76901 0.0387409
264.569 3.26691 0.046323
93.1246 1.0108 0.0233958
124.755 1.37376 0.0361925
139.933 1.91619 0.0287916
243.339 3.199 0.0526459
148.703 2.23251 0.0368245
195.541 2.7338 0.076047
133.341 1.89042 0.0374154
95.6108 1.56193 0.048376
197.105 3.47483 0.0728467
158.449 2.91558 0.0707944
220.694 3.7056 0.0734758
99.5518 1.78984 0.0358566
66.0825 1.14261 0.0292751
155.458 3.52191 0.0825411
90.2759 2.09801 0.0483552
113.828 2.66197 0.0591721
136.364 2.34929 0.0464372
196.5 4.3797 0.122026
71.8471 1.85646 0.0488735
203.444 4.7133 0.114884
111.854 2.51965 0.0808772
114.275 2.91751 0.0917625
108.623 2.62891 0.0972061
100.208 2.36219 0.0889256
155.163 4.01826 0.122426
126.203 3.45133 0.131436
146.286 4.36884 0.174192
116.852 3.27045 0.123592
169.393 5.11031 0.167826
113.3 3.44633 0.127315
97.5583 3.17045 0.0949651
131.736 3.84919 0.10332
183.466 6.11008 0.220046
102.76 3.39718 0.120432
135.546 5.22755 0.221215
185.361 6.63044 0.272745
111.766 3.80199 0.105237
84.8436 2.72967 0.0838841
96.4574 3.35137 0.147395
150.928 5.75677 0.234938
83.1621 3.34836 0.171644
176.842 7.17322 0.292906
246.945 10.1504 0.406948
128.515 5.71093 0.26141
94.3637 3.78534 0.173423
158.989 7.45321 0.298795
121.94 5.38356 0.254027
142.285 6.12745 0.285015
172.975 8.45219 0.458014
120.679 5.41374 0.256339
125.271 6.80515 0.386119
119.285 5.34722 0.262999
89.8663 4.27884 0.228967
201.726 10.3256 0.51926
115.216 6.04708 0.340438
117.582 6.10646 0.356731
125.608 7.11252 0.447626
84.2725 4.37244 0.274729
80.9497 4.4286 0.248758
120.411 7.13792 0.457016
136.217 8.51522 0.558385
189.31 11.5858 0.745773
119.043 7.42428 0.498728
160.536 10.7135 0.719628
102.04 5.84038 0.322395
86.0403 6.31874 0.465613
94.3122 6.18865 0.429902
103.578 6.93795 0.424744
64.7873 4.92078 0.326939
118.604 7.61153 0.629433
140.219 9.534 0.589126
69.8468 4.95344 0.394752
101.026 7.37148 0.530809
70.5925 5.23917 0.397614
157.124 11.9327 0.859377
81.7872 6.74644 0.566337
57.5968 4.32827 0.345506
89.1174 7.81719 0.622918
97.5751 7.76567 0.617352
125.991 9.5181 0.809866
92.3899 7.52751 0.644603
67.3279 6.21765 0.586592
135.949 11.794 1.00239
132.046 10.9888 0.996392
109.962 9.52268 0.879764
107.209 8.80837 0.784449
116.045 9.94538 0.880569
65.2738 5.85887 0.519838
60.8298 5.12604 0.439581
82.1686 7.87405 0.860431
49.5577 5.1199 0.53682
80.3203 7.10725 0.702105
68.253 6.87559 0.701255
53.2973 4.70888 0.516787
77.0408 7.54666 0.810365
84.9449 8.34328 0.82002
90.9381 9.1131 0.988741
75.1386 7.74926 0.852218
122.995 13.489 1.56799
114.121 11.6234 1.12839
57.8981 7.02602 0.776008
115.745 12.5395 1.48636
79.7992 8.7265 1.00384
132.238 14.6383 1.66669
161.537 19.2166 2.12541
77.9622 7.97007 0.924087
31.295 3.88941 0.488459
79.1674 9.59048 1.21296
122.618 14.4161 1.78462
66.3334 8.20665 1.02266
160.649 20.1422 2.45224
63.9562 9.5812 1.30855
104.879 12.0756 1.5837
142.42 19.7968 2.7588
73.883 9.98412 1.3745
90.0516 11.3502 1.50492
53.2672 7.23564 0.940401
49.5415 6.42644 0.931792
112.746 13.4424 1.61306
67.8684 9.28418 1.30853
107.442 14.204 1.91979
104.49 15.3561 2.37792
68.7495 10.1405 1.45017
121.448 15.736 2.03385
110.089 16.3041 2.46614
103.706 14.909 2.18689
100.128 16.3152 2.78696
106.416 15.1876 2.2559
81.1371 12.2365 1.71664
52.0531 8.50304 1.40188
59.2232 7.90017 1.28036
101.786 16.1522 2.51937
80.6929 11.6245 1.64896
71.0872 10.7764 1.60602
117.734 19.4687 3.16948
87.8885 14.9786 2.54965
80.5282 13.6956 2.28692
85.5453 13.6722 2.2538
57.901 8.80373 1.49961
41.2368 7.22753 1.33833
52.0315 9.09189 1.69838
76.6912 13.1452 2.29815
81.4803 14.713 2.72045
103.769 17.7071 2.85934
62.8066 10.61 1.83093
57.3154 10.611 1.87511
111.006 21.7414 4.14922
67.5593 11.6738 2.08081
59.6126 11.1329 2.08978
67.7692 13.1318 2.38683
39.0427 6.83275 1.37156
56.1475 10.6378 2.2846
75.8329 15.522 2.88632
60.5149 12.0077 2.40826
99.7415 20.7362 4.18397
68.4016 11.6123 2.10957
78.0212 16.1896 3.43346
31.0955 6.88514 1.67276
47.9093 9.4922 1.97613
65.3919 13.38 2.86694
77.4872 15.0488 3.06779
40.1173 7.38701 1.59542
38.4361 7.98405 1.77364
72.785 17.4752 3.94488
112.503 22.8592 4.61865
64.031 14.4357 3.27901
62.5023 12.8312 2.84805
67.5362 14.8409 3.30924
47.9349 11.1317 2.53673
68.7188 15.1817 3.55351
68.7167 16.6891 3.76228
21.1376 5.79259 1.57148
77.5615 17.0749 3.99119
66.4465 15.272 3.48518
27.5432 6.2243 1.69393
68.5769 16.6458 3.97766
35.6132 7.83723 1.73979
75.6826 19.3776 4.5498
33.329 8.80526 2.30235
33.2233 8.30542 2.17921
72.959 19.0725 5.10193
57.5344 13.9685 3.5943
79.154 21.194 5.56802
67.2692 17.4163 4.714
69.4686 15.4662 3.76084
87.3789 21.6827 5.35242
47.1661 12.0925 3.17497
43.2866 11.6146 3.24921
34.2456 8.29217 2.23337
62.49 17.7248 4.7616
32.5783 8.50434 2.31706
106.578 28.6429 7.68942
55.3964 15.3656 4.50224
56.6224 13.5628 3.50315
61.3297 18.8609 5.311
67.4586 22.1481 6.83033
47.5642 11.8891 3.1959
52.0184 16.3029 4.94098
59.6649 17.7863 5.41328
87.3789 22.8692 6.02187
56.9569 17.6513 5.70054
50.6789 15.6735 4.72161
56.5136 16.0455 4.6517
85.74 26.5513 7.80986
76.2766 24.6988 7.70392
58.8416 18.7488 5.68917
53.3009 16.9577 5.49463
63.559 19.7228 6.41357
45.0649 14.4651 4.85107
75.5252 23.6563 7.62808
45.064 11.6003 2.91638
55.9425 18.0184 5.35616
48.5077 15.4865 4.8809
53.6634 17.1185 5.32995
45.0491 17.1127 6.0004
49.9262 15.9627 5.14222
61.536 20.0434 6.43385
34.7474 11.9054 4.09556
34.2269 11.1123 3.6836
60.053 22.4709 8.46579
49.1457 17.3004 6.30265
41.3513 12.3145 3.87711
51.5 20.5864 7.3104
22.502 9.44265 4.44314
56.6581 16.4506 4.84981
55.187 18.9055 6.06415
68.5698 25.3079 9.2809
43.5544 16.0556 5.89404
44.5094 15.796 5.65529
82.2284 32.0867 12.4323
51.7452 20.856 8.58431
31.7866 9.75496 3.39897
18.9714 7.11205 2.81951
31.6245 12.9591 6.32481
60.9127 18.1873 5.2036
59.4334 21.9116 7.80643
80.5173 29.6033 10.7783
32.596 12.5094 4.52608
26.0932 11.1252 4.53471
46.3979 18.1952 6.65466
33.46 11.7912 4.52039
41.5225 16.9899 7.24062
58.2632 21.9338 7.95152
40.5991 18.4889 8.22054
48.8449 18.0639 7.30398
57.2766 21.4208 8.64907
69.9851 25.5733 9.16363
46.4801 19.468 8.49836
22.6241 9.12004 4.36902
58.2804 23.1547 9.02232
31.8442 11.6667 4.31124
27.7354 11.9063 4.77456
62.954 30.3196 13.1967
88.5629 37.6489 15.5492
51.9818 23.1333 10.8011
46.2065 18.1876 7.60174
23.8055 9.70983 4.04238
64.9869 31.3629 14.5242
69.6724 25.1176 9.2164
47.2662 23.6921 11.4029
45.9319 20.6039 8.72354
38.6128 17.7977 7.88547
58.3792 26.1079 11.6127
45.3303 20.3323 9.89152
38.4532 17.8584 8.77932
29.5132 12.3454 5.35726
40.3395 19.9616 9.51988
16.9175 5.2814 2.04789
46.4857 22.7512 10.435
37.553 18.8768 8.81593
47.7522 24.1241 11.7764
43.5583 20.2638 9.40803
30.3514 13.6273 5.96725
16.4118 9.85684 5.62249
40.73 20.3564 10.7749
32.974 14.0687 6.27392
32.2714 14.2188 6.39221
38.3101 17.8589 8.63435
25.0175 13.8969 7.72333
44.9875 22.144 11.2861
42.9733 22.7601 11.8867
43.6191 19.112 8.4827
28.5636 15.5383 8.70171
55.3892 25.9012 11.995
33.4079 17.8457 9.57905
27.0597 12.6514 6.42293
33.0416 18.9985 10.9523
35.7461 18.3271 9.4173
19.4659 10.9424 6.59457
34.3437 17.5083 8.91679
42.499 22.8729 11.7158
18.1982 12.6111 9.71768
55.3898 25.9912 11.8598
25.4503 13.4563 6.88404
22.3454 11.8476 6.73214
28.4984 15.4693 8.24754
24.7339 13.454 7.45098
25.4445 13.2942 6.61515
31.7342 18.8308 11.1021
49.9521 28.8227 15.7095
27.9992 14.6131 8.12804
27.4034 14.5499 7.90679
24.1797 15.436 9.87792
25.4921 12.0664 6.09367
27.4426 16.6104 10.7226
40.5994 22.7794 12.6221
39.1992 23.1322 13.242
57.5036 31.8581 16.3928
30.0608 19.7322 12.3073
16.5844 10.2548 7.15986
21.1814 14.2164 10.3624
45.0112 21.4964 10.3059
35.6774 21.2138 12.4614
47.4431 31.6275 20.6873
40.0098 21.5595 11.6475
20.9879 11.6995 6.72533
20.9167 13.0906 8.96153
41.435 25.5264 14.7951
23.6583 13.031 7.66753
26.1032 18.5347 12.5756
25.1953 14.1255 7.68409
18.1876 11.7452 8.11052
32.5977 22.5321 13.9613
22.0558 14.754 10.175
27.9605 17.3229 10.9179
33.1551 21.1182 13.6172
27.19 14.6387 8.67658
12.6727 7.72281 5.66761
36.9908 23.0016 13.585
28.275 17.6608 10.8801
27.6532 19.3001 12.8087
21.3838 13.8188 8.86192
7.58066 5.18551 4.20372
34.5102 23.9026 14.6295
31.0185 22.5181 15.3817
23.3159 18.0197 14.0884
36.2651 25.7799 17.5683
30.3171 21.87 17.7452
47.0102 26.749 14.8276
24.4672 17.5421 12.6534
33.7821 19.7137 11.1244
20.7965 15.6478 10.857
20.2942 15.0092 10.5009
31.1326 22.017 14.3286
11.1894 10.277 8.72651
16.4102 10.998 8.58773
20.6972 12.174 7.47406
22.815 17.6546 12.4066
13.2519 9.43839 6.80604
14.5044 10.4974 9.20429
28.8804 17.9746 10.9342
43.0111 30.6852 19.5068
16.199 14.3166 11.5623
22.2899 19.6962 16.3076
9.35781 7.24581 7.49699
20.9722 12.1203 7.59036
26.6433 22.6913 17.748
25.4429 16.2763 11.118
25.4697 17.5437 12.6774
23.4291 16.5753 12.7126
25.1134 19.0982 13.3082
18.442 15.6543 13.1238
31.7062 24.0763 18.7336
13.326 9.5017 7.81508
14.4171 12.0729 10.7236
22.3643 17.2239 15.1492
43.1579 35.9415 32.2741
130.372 92.7918 60.8148
45.2427 38.3273 30.2714
30.1049 22.6964 18.383
25.5189 20.4291 16.4236
28.9821 21.0049 14.701
15.7022 16.4545 16.4851
27.3392 20.016 15.0858
22.5556 17.0441 12.1778
21.3154 19.0884 16.836
41.8009 38.285 32.5693
47.4283 34.766 23.538
12.7311 14.7285 15.4251
27.3847 21.5908 18.8243
32.4006 23.3827 16.9103
28.223 25.7075 22.2724
32.6132 23.9261 18.0015
24.5713 20.871 17.4067
17.7052 14.6681 12.2517
24.455 22.4848 19.3052
16.7043 10.8233 7.00523
22.8842 22.8692 21.4232
13.5618 10.2602 8.87939
18.2382 14.8692 12.6739
12.0869 11.3254 9.89528
18.198 17.2563 15.4101
10.4186 8.40104 7.42608
12.6008 11.9592 12.211
11.981 10.3204 11.3604
31.1779 24.0059 18.0365
13.6739 11.3253 12.1577
23.3238 18.0649 14.7268
26.1956 20.2317 14.3931
16.9277 16.8792 14.7272
19.9018 16.5019 13.0514
23.3967 21.0814 17.0589
14.26 16.856 17.768
14.4658 14.8076 16.8905
13.6569 9.26855 7.45842
16.824 15.9192 15.7177
16.0956 12.8779 11.8606
21.2383 21.454 21.0615
23.3389 16.6393 12.9371
27.9288 27.7672 25.6388
21.1582 17.6617 15.8701
20.5138 20.2207 18.981
15.8569 12.4819 12.5998
30.9896 26.602 21.7311
28.1581 25.0244 20.2757
12.3264 14.2598 15.3049
16.2641 16.5748 16.9281
15.4811 15.0395 15.0437
13.3692 12.7639 13.1296
15.2439 15.1275 15.7037
18.0117 14.904 12.6409
20.0677 20.817 19.7787
13.0039 12.4903 12.2642
12.6833 11.7573 9.99579
8.59311 12.4101 15.7355
23.0983 21.2075 20.5588
34.82 34.4242 31.5635
24.6247 25.8631 25.1127
9.30815 13.8859 19.9726
14.9472 14.0854 15.668
21.4234 21.8747 23.1359
23.2348 21.5641 20.1973
16.4346 14.4103 12.6575
20.3791 21.3881 22.4017
16.0355 17.9039 20.1012
15.5131 15.72 16.6187
21.3823 25.1694 29.1307
20.987 14.5564 9.42753
14.8164 17.3533 16.5802
17.1708 20.316 21.035
12.9597 16.6167 20.9405
13.765 11.7543 12.7259
16.7099 16.43 15.9058
10.3222 10.1899 12.2064
12.6793 12.0871 11.2818
23.47 29.3673 31.8613
15.0466 15.1028 16.1815
9.44432 10.7413 14.8303
21.2348 22.6148 24.6711
16.7425 14.1681 12.7297
11.1159 12.5343 16.3705
27.1237 28.0326 25.6501
18.9555 23.3759 28.2464
20.4314 19.0056 19.5885
20.8137 23.8298 23.5129
13.1875 13.9015 14.1919
20.6052 26.103 31.4609
15.7566 16.7366 20.9839
25.9313 24.0152 21.0447
14.6421 19.3639 23.9585
11.9759 11.4102 14.5376
29.1368 39.3386 46.6544
17.0318 12.4215 11.8727
17.1055 17.1916 16.6067
19.4615 23.4654 25.6733
21.1729 24.8649 26.2239
19.3217 23.8732 27.7185
16.336 21.5361 27.0896
11.5208 12.7078 18.1552
19.733 21.6028 23.3716
15.5197 19.611 24.8497
18.7557 21.086 25.7386
23.0931 26.8221 31.1748
15.8564 14.3777 13.1551
10.9974 15.0178 18.2049
15.8862 23.5224 32.2272
17.0377 16.883 19.641
14.7695 14.9095 14.6509
14.9859 22.7731 32.7121
22.0225 24.4992 29.2119
13.4062 17.3305 28.0102
29.1898 26.2545 21.6943
7.98657 8.66798 10.4593
10.7451 14.2864 19.7027
21.3554 22.0663 19.173
16.8443 24.3561 30.778
19.161 28.0196 38.1956
13.2776 13.0331 16.0138
22.3886 30.1209 35.5968
14.0669 15.3927 18.9002
19.6564 26.4491 32.9588
15.1721 18.5498 22.6674
8.37089 9.77235 14.2289
21.9005 31.0811 40.2858
16.2821 16.9097 17.8976
14.6354 20.0333 23.032
7.91021 10.1901 14.7134
13.5231 21.4036 32.0134
15.9022 15.2468 16.2279
10.8377 14.477 18.8024
8.43672 10.3236 14.3606
12.4135 15.3118 18.6565
12.0556 16.7899 23.3601
12.4926 13.4455 18.786
22.1437 24.843 26.4996
27.9497 41.7823 52.4811
12.4879 13.5638 15.7574
8.01875 13.5972 23.8096
17.4008 22.7313 27.6924
9.70202 14.0542 22.779
11.6064 12.1801 14.7006
13.2896 17.4201 22.3289
20.0041 27.2956 37.4183
20.4837 28.1669 33.274
8.32384 14.268 25.8137
12.8726 11.2685 8.93106
6.04465 11.4127 18.1996
13.8464 19.7278 25.8503
6.28343 12.6291 29.3563
21.9348 22.5742 21.9507
11.9737 15.2451 17.2356
6.56179 8.98885 11.0762
8.10275 14.1814 22.797
12.4042 15.8781 23.3664
13.3663 18.4695 24.0649
6.28364 7.04876 9.90925
11.4426 18.1872 28.541
15.933 19.1218 19.6425
11.6653 23.2005 39.3626
13.073 14.6529 20.0695
12.2065 14.8555 22.0972
18.1283 25.507 30.6534
10.5723 14.258 18.996
9.72748 17.1965 31.2021
15.4238 19.8159 26.9141
12.583 17.3196 25.1696
13.872 15.3579 16.8547
17.8638 27.8649 36.9355
11.7185 17.9402 29.714
14.7943 17.3206 17.8392
7.76593 14.1256 26.053
23.3488 33.9342 41.8128
5.94383 10.3356 21.5257
14.0045 21.0075 29.9827
10.4556 12.084 12.7748
3.68613 5.76629 11.7907
12.2271 19.2197 25.4549
8.98493 14.4303 23.1367
9.06796 11.9866 18.1793
13.3689 19.5764 24.1662
9.21244 15.5857 22.9324
14.9002 27.5447 41.6245
8.02823 14.8169 32.9725
15.6338 17.3547 18.5736
10.0098 17.8948 28.458
9.46659 11.8045 16.4666
8.70965 16.6018 28.9692
11.7856 16.3668 24.0191
11.1253 16.4352 22.4906
6.8705 10.7741 20.2215
11.8747 16.809 23.1401
12.1657 18.1492 25.0311
7.236 12.5509 20.7939
6.27896 11.5373 25.9015
15.839 21.2064 26.9239
9.76699 18.4478 32.9457
11.4106 18.283 34.6179
14.7767 18.6141 25.626
8.52587 12.5253 20.3047
9.85431 15.8219 27.0201
12.5634 14.9675 20.2692
13.4219 22.2589 31.6097
11.9123 20.046 30.8698
12.1712 19.7548 30.0207
10.4504 20.2541 36.9949
15.2818 23.3739 32.4502
6.52978 15.6448 34.8787
11.651 15.6901 23.8899
4.65296 5.32486 12.0353
8.21392 11.8423 17.0187
5.77211 8.8508 17.1023
10.9758 16.4 22.8482
8.86252 14.3243 22.0043
9.70167 16.1513 23.0024
7.5523 16.3927 33.5148
12.6204 19.2354 28.9983
7.72517 13.1211 27.5754
15.0107 24.8625 44.9318
18.9958 26.4034 32.259
8.20701 15.0681 25.6785
7.91434 11.7699 18.6342
10.3153 21.8225 45.4834
14.9093 20.2035 28.3074
9.20557 17.7688 36.6294
15.4834 21.5083 26.0363
6.01822 10.3402 16.9449
6.7815 12.7222 23.4937
11.3735 22.6219 38.4487
7.56856 10.8097 20.4967
9.74466 17.9081 29.7262
7.01863 12.2908 23.7685
12.2081 23.6211 41.511
9.57899 13.5991 26.0833
10.1199 15.9637 26.2024
9.44197 13.3942 20.3382
7.69775 13.9043 28.9946
17.5281 29.4615 40.9309
8.35363 14.5042 24.5029
7.96378 15.7302 27.3766
4.76981 9.72719 23.3065
9.87638 17.2899 32.5931
9.4528 13.0597 20.0383
8.58526 19.1512 37.7502
10.7111 18.8602 39.3612
13.9668 18.3623 26.2829
10.9771 19.6648 28.4145
7.06329 13.9525 24.8827
9.29138 21.4558 40.7544
8.60618 14.1777 28.1007
8.30719 11.4434 19.964
9.52567 15.9847 25.8297
7.60699 12.9962 20.3399
7.77625 16.1742 28.7391
5.30523 11.0217 29.631
12.6916 19.2735 26.8473
11.7467 22.9996 38.6958
8.517 17.2355 30.9596
4.90084 9.7527 21.9895
5.96737 13.4612 33.0417
11.0704 17.9441 31.6903
8.76799 11.9029 16.9654
8.62838 17.4843 28.5522
4.72635 10.5321 24.4432
9.76388 19.1808 34.7421
7.80387 11.6893 20.4957
8.32069 17.907 32.517
7.41408 12.7901 23.5493
8.39143 17.5931 36.7879
7.46754 10.5355 17.7643
7.44353 15.9631 31.5363
8.66031 16.3613 33.8035
11.3794 19.3946 33.1168
7.34406 13.3845 21.9446
4.88036 13.9606 34.9352
6.00414 9.67489 27.6325
8.81642 10.5108 15.5663
6.03323 9.76402 16.3327
6.94788 16.1825 35.7161
10.2218 17.5902 33.4981
7.58692 10.6897 18.3854
8.91001 17.7562 28.4446
5.48496 8.01548 12.115
3.26098 6.22191 13.5352
7.99632 15.0896 24.2786
11.3053 31.5551 70.7195
15.9529 23.7211 30.6864
9.32775 18.8621 29.9459
8.14045 21.9859 46.7884
6.33562 8.84171 19.328
10.8101 25.4441 50.4721
9.47723 17.4303 35.588
8.57517 14.5577 25.9085
9.89722 19.2103 30.3095
5.65315 10.4976 15.1012
6.3744 21.7632 51.1991
7.76208 13.0905 29.2941
8.02258 13.1749 20.1904
6.81713 16.7967 29.2019
5.885 18.4368 40.1451
8.75832 34.9762 115.614
38.3334 86.1339 197.056
37.577 43.7909 54.5309
11.7872 19.2759 33.8493
7.86622 12.1947 21.807
10.1463 20.9156 34.6798
7.7025 19.0875 46.3983
11.8025 19.6038 37.4638
9.18876 15.583 24.1225
6.49085 11.7366 18.9346
8.00275 20.9942 42.5276
6.09029 11.3082 19.4242
5.59588 19.3772 47.9585
6.77545 10.0158 22.4867
5.88705 11.2057 24.9792
7.53738 13.408 30.9543
16.7118 33.7103 42.4813
11.2335 52.8694 157.982
35.1157 77.5473 176.607
33.6702 62.4749 147.084
31.2893 36.4292 36.3275
7.11846 12.1853 24.5248
12.0147 24.1916 35.9402
6.49218 17.0078 40.766
7.44507 11.2121 20.6837
7.5392 16.6927 31.3909
8.17506 18.8754 32.0734
3.35177 7.69799 23.6958
7.62921 17.2839 35.5513
4.7375 9.22631 23.2201
5.68812 10.588 22.3647
4.18317 9.31008 32.5647
10.2394 14.5178 15.441
4.18096 14.6512 47.7477
11.8359 14.7293 15.3273
9.66403 26.4806 46.728
8.09044 22.411 54.4412
11.0572 19.0603 26.5799
4.62314 22.1222 66.7064
9.07865 11.9489 19.0308
3.6416 10.0051 25.3447
4.20775 9.03589 28.4817
6.86688 12.0084 22.5902
5.21602 11.8263 30.7259
5.6232 8.45415 17.3035
6.18642 13.9679 28.2455
5.24526 11.2419 27.6935
5.41846 9.65324 24.645
7.89253 12.7524 14.9258
4.48001 15.0236 33.0684
5.83048 14.1356 32.9605
5.34009 10.7135 23.0342
4.95898 14.0662 39.2937
7.51091 15.9953 43.6862
10.6727 17.845 31.1625
7.5531 16.7886 36.4439
6.92039 13.3926 26.4257
7.31767 15.9054 23.3985
3.07 10.0224 31.5156
8.99567 17.7095 29.1092
3.5641 8.73431 20.3519
4.66434 15.0851 46.7517
9.01195 16.5608 32.8195
8.58025 17.9946 27.859
3.11479 8.78271 18.1789
2.60571 10.5944 36.1411
6.86801 14.5439 38.9453
7.15374 14.4559 28.82
6.43311 13.5209 28.7703
5.6405 9.86489 13.5362
5.94976 22.7593 52.1963
3.60266 6.16824 19.2823
4.46083 12.7028 34.9729
5.58947 11.5749 30.3434
5.59604 11.0289 19.2081
3.87328 11.2636 27.1371
3.92144 9.57192 28.5579
7.62489 21.0536 53.8597
8.97782 21.412 44.7509
3.73796 8.6068 28.5989
4.2043 8.75311 36.7732
9.44728 15.409 25.9117
3.48728 6.02217 18.7899
7.22255 14.9221 28.8849
6.5476 15.3711 29.9741
6.63132 18.7434 44.09
6.44059 17.5788 47.3103
8.98722 19.2105 38.0924
5.6051 12.0688 23.5625
4.74131 15.1856 39.1718
7.07667 16.9543 37.655
5.21832 11.8855 32.3742
5.30664 13.3482 39.9587
7.85981 18.752 35.5254
3.88517 8.17711 21.8491
4.23136 7.91376 17.6888
3.9514 10.7648 20.9515
5.3669 20.0389 52.5056
3.88807 8.09307 37.2341
7.23244 11.225 29.7781
8.09934 20.0234 37.9006
4.28454 13.5886 50.7425
9.70234 16.1558 26.5097
6.23865 16.7026 39.5416
