# pn-170911/RbIIR-47-USNO-1280-1959.psd
# Power spectrum* (dif=0,1,2) (really just |FT|^2)
# NOTE: only the first half! (symmetric)
# weeks: 1280-1959
# 11 clock-days, 0 excluded
# PSD: 1441
3118.64 0.121045 0.0300088
219758 4.69397 0.0758478
562618 4.88816 0.0811555
46863.8 3.14767 0.082125
52084.3 2.55534 0.0901537
35783.4 2.34244 0.069255
12484.5 1.63409 0.0705463
12193.3 1.44819 0.0731779
7377.68 1.1516 0.0702334
5396.01 0.788398 0.0966455
4463.03 1.01418 0.0812035
4169.68 1.49491 0.0842751
3367.96 1.19239 0.0801021
3209.64 0.923245 0.0596153
2718.24 1.16692 0.0901749
2901.95 1.08299 0.0706898
1004 0.789137 0.0896401
2387.18 1.35395 0.0866391
1776.62 1.97697 0.0607517
2149.13 2.93308 0.0784181
1698.97 1.74131 0.0581263
753.646 1.51969 0.0903646
1634.89 3.05436 0.0608938
1176.41 2.57528 0.0932898
1123.88 2.40972 0.0859004
1458.05 3.46664 0.0770244
2382.45 5.78748 0.087406
1166.99 2.2492 0.0841465
2448.42 7.26544 0.0772713
1072.36 2.84578 0.0817142
986.966 2.34747 0.0683052
1686.23 5.1137 0.0890126
1743.05 8.04022 0.0959138
2335.51 10.9053 0.186608
1737.72 6.33706 0.0772694
1815.94 9.40094 0.185603
1591 6.99724 0.121266
885.489 6.20595 0.129188
3340.11 20.8073 0.124596
2051.79 13.1562 0.185765
1205.8 7.11528 0.158454
1548.89 11.7727 0.131277
1752.46 12.6221 0.237812
1410.1 10.3281 0.117529
1777.3 15.8775 0.181088
1288.3 9.30195 0.171275
1244.99 11.7475 0.125602
2125.42 21.7958 0.164415
1471.59 15.0424 0.258858
2277.39 24.0141 0.439849
1611.79 17.2443 0.304041
1854.86 22.0883 0.259437
1379.86 15.1885 0.257236
1816.24 23.7437 0.32562
1622.37 19.3322 0.289124
2163.63 28.8046 0.453896
1227.99 17.9658 0.329793
2641.86 37.0453 0.633927
2423.77 34.9201 0.524251
1684.97 25.5953 0.310122
1696.07 25.095 0.535258
1226.21 20.2062 0.235682
2231.92 36.5287 0.892724
1295.72 26.3686 0.555763
1846.67 33.8391 0.576536
1275.39 24.3136 0.486728
1363.07 25.7169 0.667661
893.425 18.6555 0.54459
1069.13 24.5847 0.482682
1733.72 37.3827 0.808604
1036.4 21.4322 0.728436
1200.29 29.5514 0.679917
1370.5 32.1458 0.847261
1998.13 48.3393 1.64815
1001.99 23.688 0.619752
1254.09 35.3586 0.895995
1621.73 43.946 1.14263
746.654 18.1903 0.673681
2244.73 68.374 2.27283
1615.81 46.2743 1.22602
312.299 10.238 0.388333
1139.82 35.2602 0.942257
1041.62 34.5098 1.2782
1187.62 37.1249 1.46786
1409.68 43.3889 1.31952
1962.68 65.3327 2.38652
891.168 33.4806 1.1418
1662.18 65.3645 2.17879
1290.4 43.8441 1.4863
865.718 29.32 1.01889
761.362 25.538 1.19303
389.592 15.9271 0.563713
1430.12 53.867 2.1369
1059.19 45.857 1.80736
1132.31 49.9313 2.01894
1049.83 40.7102 1.41188
622.765 29.6478 1.27148
788.259 31.5533 1.2258
1415.21 55.8061 2.89197
845.387 43.6295 2.3324
1168.38 52.3536 2.82464
637.188 30.4133 1.65852
1375.24 67.126 2.9835
519.71 26.0532 1.32843
841.831 38.0698 1.78314
695.448 32.8167 1.78132
1564.52 75.7342 3.96466
824.404 40.2939 2.49486
462.984 20.4037 0.901244
453.918 23.8283 1.4251
451.54 23.2714 1.48489
1138.61 56.4007 3.69584
833.927 46.5676 2.63535
761.885 46.1759 2.97477
632.983 34.1778 2.1664
373.099 24.4598 1.54596
772.387 49.995 3.11961
719.844 44.0768 2.95596
499.209 36.5431 2.32541
416.063 28.4991 1.8383
816.055 48.4861 3.33555
652.876 39.1404 2.6935
866.075 61.4833 4.7082
374.692 22.2744 1.48069
468.168 30.3322 1.83454
298.265 21.2389 1.65792
429.269 30.468 2.10117
646.406 44.4422 3.50646
265.414 16.9764 1.41641
482.78 36.7777 3.24917
343.055 27.9212 2.35843
605.554 47.0208 3.47994
365.214 30.2906 2.76208
272.283 23.1563 2.32907
427.959 31.4471 2.38634
455.768 34.5751 3.5495
525.315 43.0399 3.94145
330.608 22.4505 1.96102
563.206 50.1872 4.44142
508.936 44.2469 4.62015
365.95 32.7496 3.11528
298.263 24.9519 2.6566
321.973 27.0235 2.31479
326.216 33.2552 3.26094
552.132 51.4878 4.97808
249.67 29.9833 2.94891
407.102 37.8013 3.59945
413.783 44.5768 4.94944
501.083 50.7115 5.15901
286.805 24.7062 2.76118
324.605 38.2922 3.99917
320.703 33.3751 3.61285
283.649 29.4154 3.64945
190.543 18.5506 2.09532
192.32 17.9209 2.0456
241.168 24.7002 2.76503
241.155 20.3575 2.15793
402.395 44.9513 5.09459
168.292 19.6327 2.34561
194.27 23.7942 2.70338
332.703 44.4533 5.69621
188.194 19.4666 2.15159
195.668 21.867 2.52245
440.754 56.9471 7.3472
278.569 34.6269 4.5815
343.71 40.1446 5.36619
138.691 17.5141 2.38543
181.606 22.5855 2.83331
191.326 24.417 3.28074
303.993 44.5919 6.11291
245.839 29.3788 4.06173
172.021 23.0975 3.2184
421.545 58.021 8.30264
234.464 27.8144 3.9486
385.166 47.6599 5.9951
214.516 31.4863 5.11181
150.819 16.8844 2.24121
213.238 24.798 3.3822
174.23 24.0794 3.56911
221.154 31.6527 4.53362
194.913 27.3594 3.68202
217.453 32.4621 4.83812
179.342 25.0473 3.39638
192.373 29.9526 4.7919
258.847 34.7545 5.56588
264.154 44.2656 6.99545
279.129 43.8714 7.19022
152.446 25.2628 4.19062
191.41 28.9726 4.62615
150.124 28.9178 5.09244
194.676 33.1282 5.73666
119.792 17.6354 3.41188
212.471 33.6886 5.64374
145.632 26.7236 4.60046
114.334 16.1807 3.26231
176.351 22.7439 3.40403
232.753 32.9933 5.67592
178.789 30.3144 5.4697
146.116 25.3841 4.39331
159.704 30.5308 6.08475
154.819 32.4999 6.19259
209.22 35.657 6.09413
170.275 30.7733 5.97917
69.9809 17.5946 3.24364
126.406 23.3813 3.80366
162.163 26.37 4.82639
124.922 28.2048 5.64636
133.506 25.5982 5.29898
174.126 38.875 9.19515
244.378 49.2479 9.59659
169.004 31.0918 7.19969
211.693 38.044 7.40327
147.816 31.6932 6.99764
244.03 43.8304 9.88808
151.467 29.5559 5.81128
227.329 38.846 8.9446
96.8712 19.7085 4.21531
204.1 40.5185 8.83346
145.544 26.6471 6.07433
441.891 96.9056 22.2874
154.016 34.025 7.9884
278.373 61.6603 13.788
150.911 30.1653 6.0406
188.672 46.799 11.3119
114.924 25.3809 5.87014
87.7229 20.1686 4.88902
132.803 29.7122 7.03594
145.039 25.6483 5.66951
97.3841 19.712 4.48272
170.595 35.3624 8.5321
94.7597 24.4808 6.30894
117.805 22.2755 5.44566
112.772 21.6514 5.46985
69.6157 15.7452 3.68604
159.521 34.4252 8.88524
51.945 12.3177 2.95842
84.8502 18.8233 5.07687
179.255 44.2979 11.5402
83.5426 19.7109 5.13821
107.993 26.2349 6.71993
92.1539 23.1942 6.10586
63.1456 13.6869 3.65799
91.4292 25.7423 7.61567
111.167 25.1763 7.65458
129.937 29.5851 7.83371
178.53 51.8614 14.0749
108.619 24.2543 6.77898
146.087 42.8143 13.7376
90.2537 25.0963 6.79499
101.841 31.7456 8.93079
75.79 12.2195 3.25779
92.0632 27.9939 8.656
82.0631 21.9625 6.53888
97.7961 28.6034 8.87452
95.8515 25.5818 7.53499
87.6439 24.9058 7.10421
79.5947 19.7789 5.32391
81.3035 22.9514 7.17114
52.7492 13.3474 3.99663
43.3611 14.5183 4.66171
78.6907 24.9671 7.84563
54.1524 17.129 5.36935
54.9524 15.2911 4.65335
100.645 32.611 10.9504
59.5135 13.3901 4.8377
35.4191 10.5642 4.1714
70.781 18.5602 5.45308
118.816 36.4565 11.9784
42.4461 11.538 3.7124
62.6694 20.5595 7.1551
98.9354 34.1473 11.778
117.401 31.1457 9.4863
49.761 16.7984 5.37847
95.2297 31.2648 9.54288
94.6476 29.5105 10.8622
66.2936 24.4707 9.38691
89.2523 32.4569 11.3564
77.6956 24.4086 8.82102
73.699 27.1873 10.2726
61.5661 21.9405 9.1048
71.624 20 6.70499
88.8994 40.2518 12.9549
65.8586 29.3977 11.4677
63.6093 16.2092 5.98297
124.618 47.3648 17.2791
52.9699 22.1325 8.13905
91.4641 38.1969 15.2254
53.5092 17.7713 7.28359
112.525 39.2253 13.6874
84.317 32.6838 11.9066
114.423 48.5226 20.231
54.6558 25.4278 10.5654
101.885 45.5215 19.3185
54.794 19.5974 7.72867
63.4842 21.8423 8.10251
42.6218 17.5147 8.61874
66.8295 25.4973 9.68694
80.0099 27.8872 10.6133
101.239 41.6339 17.4293
62.392 23.9304 10.7089
54.4055 22.3599 10.5548
51.5982 18.7377 7.53498
85.4754 32.0809 12.0207
36.2126 13.3587 6.26338
78.0763 28.9432 12.6124
117.328 51.2873 23.2407
41.8682 18.5007 9.70918
92.5105 39.9512 17.1515
56.0232 24.9177 11.4442
42.3653 17.9402 9.43224
122.292 50.1556 18.2806
60.218 17.6714 7.23948
51.8801 24.7374 11.9644
59.8293 25.0833 11.4773
62.4728 30.1217 14.5803
61.4085 26.53 12.6803
45.1565 17.5148 8.08393
52.8021 23.6302 11.1335
59.0084 19.2861 8.03675
92.3974 45.5062 22.7742
59.1229 24.6343 11.1206
39.8062 19.0685 9.60592
42.2721 24.2779 13.3406
78.6439 37.6405 16.6775
69.3495 23.7091 9.24513
56.7315 23.4817 10.3344
50.1816 22.2861 11.6062
57.26 22.7487 10.6537
70.4272 34.7582 16.7657
49.9867 20.7567 10.2295
73.2569 33.4663 17.0148
74.9142 34.6496 18.7826
61.5708 28.0709 13.4057
91.8168 48.4377 22.5902
51.6568 23.4736 12.118
59.485 27.5692 15.3754
34.788 21.6328 13.3852
65.0937 31.8414 15.1852
49.0712 25.0337 13.9082
70.8477 32.4555 13.5406
50.2936 29.9396 15.4501
44.5076 26.1105 15.4453
66.7211 27.955 13.2383
40.8975 22.709 13.8929
91.7322 46.9875 24.7848
47.9444 30.7663 18.25
91.922 41.1044 19.447
60.8472 42.3742 26.1954
58.5698 26.2103 14.2143
36.8473 18.1081 10.0217
43.5841 21.9441 13.2454
41.0014 12.3548 6.0955
58.9896 31.3365 19.0394
52.8894 23.691 12.5697
39.2904 20.595 9.92154
40.0167 25.7679 14.2774
33.0173 16.2638 10.6746
37.6576 18.9218 10.9867
47.5312 34.5096 20.9149
40.9363 21.0719 12.3462
59.8177 36.9907 21.9547
62.9514 27.3507 13.7451
43.3644 25.5426 14.1252
44.6224 27.8109 18.6376
64.716 31.26 16.5781
44.385 23.2882 15.5803
50.8451 24.1448 12.2667
19.8394 11.5071 9.625
47.0065 21.7362 11.7953
73.7598 37.6289 19.5814
34.0676 25.3705 18.0015
58.2447 29.788 17.7924
25.3915 17.4739 12.6837
34.3597 18.6552 12.7823
47.1377 28.7729 17.459
56.9389 34.3399 21.4168
31.8107 21.5124 12.9725
29.4462 19.4949 15.3993
59.0687 34.2403 21.2336
34.7177 19.0172 10.8159
41.3826 29.1028 21.8008
53.6211 28.3093 16.3605
31.3508 23.222 19.3826
75.1984 45.2723 28.3167
49.8139 23.3256 15.4333
42.1608 21.56 12.3593
31.8548 22.8 16.8161
32.8074 23.2239 15.7075
38.1688 22.8076 16.9115
33.398 20.0528 13.0343
30.0696 18.2341 10.9494
33.0315 22.7943 15.022
36.4752 28.5067 21.534
30.9621 22.2684 15.6965
46.2673 24.7802 16.9905
33.8904 21.8782 11.7857
21.7446 16.577 14.1121
32.9681 16.7244 9.20026
30.9786 19.6605 13.9414
35.2579 29.1301 21.225
30.5301 17.8337 12.9222
23.9703 14.818 10.1927
40.9747 25.5985 17.0109
54.4249 36.2619 23.545
25.8233 21.7799 19.5036
36.3851 25.1684 19.8416
33.7997 21.4312 14.4999
34.4404 22.0599 17.0141
45.1604 27.3452 16.7674
15.6372 14.6002 13.1889
37.9928 24.9326 17.7293
29.7544 24.9158 19.8948
39.69 37.2937 32.1396
39.2377 31.8589 27.3086
37.3254 23.9205 17.6794
32.0572 21.767 15.4781
30.3988 25.4551 17.8924
27.1696 30.674 29.6935
46.6962 28.6548 20.1328
41.7972 28.4396 20.802
43.4794 37.2505 31.1829
38.6752 36.3848 32.3365
82.4801 56.0122 38.1831
47.9462 29.8026 22.4405
32.6254 24.3636 19.681
46.7831 34.599 28.17
38.8306 23.7981 18.9955
55.9459 46.2536 39.8223
38.156 23.4526 18.1148
50.7938 35.4827 27.2918
26.815 15.385 13.7431
35.9071 26.1016 20.5285
23.6969 20.5604 17.5613
26.1048 20.5163 17.5676
24.7213 16.1183 11.3823
33.2134 25.4935 18.8935
24.3748 21.2946 18.9539
31.5189 22.6022 16.0437
39.7408 37.2558 36.246
40.729 26.3281 22.2174
61.3809 46.8565 39.4254
44.5579 37.2382 31.7163
31.6375 20.6164 18.6901
16.3892 20.541 23.6606
52.0545 34.3812 22.4448
21.1366 16.7962 12.8239
36.4127 31.1833 30.9378
40.4109 32.9032 26.961
20.8227 17.5519 17.1573
29.4141 24.6415 22.9416
37.8122 32.0993 29.15
50.5974 38.3747 29.5809
18.2924 15.378 15.036
26.2328 26.1935 23.5782
37.3284 35.2476 35.1787
36.5586 26.8208 22.4757
28.252 24.4419 21.8132
28.0145 15.4325 13.4561
54.2736 45.4576 37.329
29.3115 21.5709 20.662
32.0634 23.4442 19.1793
20.5757 17.2647 18.0486
40.0062 34.9248 30.5522
26.3197 25.351 27.1652
23.218 20.4446 20.8753
40.1232 28.5572 21.3992
12.9431 12.4964 14.351
26.3755 24.6395 26.8433
38.7311 34.4581 28.0894
30.9146 31.1457 27.5257
20.7561 20.3395 19.476
30.4806 22.3703 18.6744
32.4123 25.784 19.8825
19.0257 24.4338 28.1124
26.713 20.2195 19.373
40.0303 36.6821 35.6769
23.221 21.4432 19.3294
22.5828 29.2626 34.5584
23.9477 19.2371 19.6817
27.4451 21.986 21.8012
48.0499 47.7789 44.0494
35.764 27.2652 23.3385
22.1095 19.561 23.2237
33.7648 28.1426 22.1109
18.3064 16.8571 19.5299
24.3348 23.229 25.0305
21.3443 22.4038 25.3327
23.1802 30.879 37.7356
34.6391 25.3309 21.7073
19.8719 21.0989 22.1458
25.9631 26.2667 27.1402
15.2839 19.7014 19.8833
14.3051 17.0962 24.5408
33.2672 29.53 29.2322
29.4648 22.8554 20.6539
32.1854 30.7963 32.8363
31.5584 31.7207 33.2565
27.0852 29.4214 33.8402
17.6533 22.3361 23.9235
30.1918 34.034 35.2789
15.0942 13.9549 16.8049
20.3747 17.9474 19.0591
10.3009 15.4332 22.4747
22.8269 18.0608 21.4091
24.4901 22.7873 21.6522
29.0852 30.074 32.3762
32.3109 31.3316 31.3755
15.8021 21.1395 30.0595
54.2052 42.4175 38.428
36.8636 31.6932 29.4419
28.7963 31.8502 38.047
36.4452 42.3803 46.5911
22.4961 19.2577 20.1124
21.4777 32.5621 41.2664
37.4716 37.3296 36.5071
10.4017 13.0955 19.5382
20.8135 24.3239 29.5659
25.9245 22.7396 28.2744
27.045 28.2674 35.1682
26.9193 25.051 29.3635
25.5704 30.766 35.0253
28.1593 31.1558 31.4655
24.7188 28.9056 36.1157
34.6788 42.4591 47.3564
38.4128 44.4146 46.1478
20.6579 20.8664 28.6516
15.037 19.0253 23.6189
33.2158 40.7815 46.6177
28.2893 36.0546 48.6342
32.1993 30.0568 30.2147
41.4266 55.5153 73.005
25.3972 19.0039 24.1831
56.8997 67.5309 70.3977
26.5069 29.996 38.866
19.7911 24.7278 35.6031
21.3101 17.3928 13.1078
25.8172 30.7079 31.942
24.6935 31.2812 41.4948
22.9044 27.2031 34.9652
20.4385 21.7661 26.34
19.7814 21.5436 25.6083
13.34 13.9674 19.3369
13.0397 13.531 13.7619
15.1312 20.4272 18.7853
9.63732 18.1669 26.2911
20.8253 19.9235 18.746
11.8724 21.1229 31.3087
18.838 21.2034 24.6351
16.8867 22.0257 28.9498
15.4129 20.0732 22.3996
11.0996 22.0694 35.6471
23.8667 22.1389 24.9781
9.8151 9.76737 12.9931
14.1649 15.5047 24.9252
15.4485 15.9798 22.3019
21.928 26.8733 36.5194
27.6249 29.5555 39.8754
30.3868 31.0057 30.9492
8.39745 17.1537 31.5833
20.3195 28.845 34.6392
22.9028 32.8912 45.8207
17.9027 22.9287 36.6376
27.981 26.9891 33.9355
31.7091 41.8385 58.3937
24.0825 33.0071 48.1192
21.766 25.3948 33.6719
30.1376 28.16 31.0892
23.6267 27.4945 38.3748
31.5492 30.6622 24.6248
30.0599 38.4043 42.3131
13.5068 23.7018 41.2899
31.8552 39.9721 50.6909
15.4913 24.4373 41.1975
17.7356 23.5405 29.5145
19.8323 34.9584 54.681
20.1252 25.5261 41.0346
20.6497 21.0003 23.4718
21.0191 31.4188 40.5899
16.0498 23.4407 33.9361
15.577 19.3052 29.3426
14.0054 16.3086 23.0817
19.1199 18.865 24.7345
24.4077 33.8355 47.3434
13.842 13.0309 20.1284
15.0125 24.8185 43.7329
18.0655 19.7887 28.5244
19.6416 21.2706 29.6339
24.8696 34.4328 45.1844
19.8212 29.5489 47.3081
17.8892 25.577 36.0895
16.5326 16.1611 23.1647
18.0903 27.8248 40.9636
19.4181 27.8205 36.4778
20.6575 25.6232 37.0084
15.5613 22.0046 24.5467
9.34502 16.0055 34.4795
24.4294 28.7924 42.7009
24.8825 34.5761 48.9095
19.4314 18.2191 24.2405
24.8131 36.1986 52.852
26.7075 33.811 55.0861
21.2329 30.5447 48.6767
21.7688 23.7234 29.0742
20.1696 31.722 49.2302
20.8631 27.8924 33.4081
16.3941 34.3739 61.7352
25.3725 29.3668 36.753
9.78851 14.8696 23.9701
21.0943 30.127 35.7629
12.7889 27.3843 51.5287
13.1674 12.4871 17.9205
10.788 19.4257 28.4886
18.026 28.1859 42.5126
16.2534 24.572 45.6831
25.7956 36.8856 54.8474
20.7459 32.7989 53.7655
21.5312 28.5792 44.7576
14.1074 19.0911 31.7706
25.9839 36.0644 48.6896
17.8758 31.5344 53.0146
21.7295 30.4392 49.693
16.1128 20.114 27.3999
14.2279 23.9906 39.6076
16.1669 24.2175 39.5937
19.3506 25.9397 31.0546
11.1767 21.7816 34.4294
13.0937 12.9193 22.8595
12.1044 16.1382 28.3245
19.5264 41.1905 74.4781
24.4311 29.3182 42.7285
15.5406 20.6184 27.1942
14.1743 24.9373 47.3072
17.8941 29.4287 58.4524
18.4735 18.3435 24.4597
14.0475 21.7372 34.4686
24.1728 34.7862 53.8835
14.5085 15.6917 27.3407
26.1438 38.5847 64.4036
31.5285 39.7067 51.2561
17.5631 28.6174 46.0688
16.5446 21.4902 31.3128
9.90904 17.2424 33.5142
12.3839 18.8178 25.1525
7.73668 16.2149 31.3969
12.8842 15.0802 23.9099
11.4731 19.4714 39.1478
18.0828 29.8816 53.1652
14.1601 20.2112 30.3356
12.6009 26.6023 50.6389
12.4237 28.5368 66.8979
19.769 28.1963 40.0272
11.6932 17.326 37.6107
12.1314 18.5012 31.173
21.3934 28.8303 45.8478
12.9368 17.4638 24.1429
12.4429 21.6419 44.4095
23.2657 27.7908 37.4894
15.2409 27.006 56.0239
42.7543 81.0566 123.992
22.2149 44.5215 106.892
35.0925 37.4305 50.8352
23.6199 27.4417 40.1653
18.4382 31.594 40.5899
17.3012 39.6967 84.4129
27.5092 43.5776 62.0016
12.8112 18.3786 31.6721
17.0147 33.428 63.265
14.7462 24.3827 49.8593
16.5379 29.0826 42.5176
15.6619 29.1927 47.1512
8.58193 17.126 44.4154
14.3871 23.4597 39.8935
13.5876 24.8128 39.4334
9.22961 17.1517 40.3045
17.3581 28.3912 49.3344
4.31855 16.0337 47.5606
13.9151 22.6001 42.1995
20.5185 36.5375 68.2707
18.6453 33.1985 68.3119
22.279 27.7077 33.0775
11.5222 26.8173 42.0035
12.0582 22.7569 46.0952
12.9481 28.5726 65.8348
27.1328 47.8343 71.6657
10.3476 15.236 33.1136
15.0297 25.2834 39.4497
9.39653 19.9834 57.4131
17.7132 27.4319 37.9507
12.75 26.6882 50.0374
20.3876 36.2065 58.3128
11.5089 23.3329 46.2668
14.6071 20.7809 44.0473
22.8767 39.0128 58.2045
10.3992 20.7313 38.6964
14.8147 25.2331 45.3195
11.4731 26.1712 56.7044
17.1671 26.9181 49.6869
12.6034 19.0215 32.8474
10.6212 18.9708 33.944
12.3211 26.8123 54.7143
10.5707 20.779 42.6388
8.21059 13.4454 27.531
9.53858 18.6519 36.8773
9.49106 12.0903 25.5179
10.056 21.1854 45.1916
10.0674 17.4108 31.9988
9.19769 19.3489 54.7417
15.1565 18.4791 22.5965
12.2776 28.8172 55.9039
20.3751 36.0628 65.2809
10.2607 11.8233 29.393
13.22 14.8149 31.307
12.7779 22.2688 37.9727
13.4325 21.4774 36.4176
13.8962 34.3857 62.8832
9.01093 13.9545 34.9986
9.30896 14.6832 31.4105
11.9817 25.2492 68.1755
26.6218 42.2869 63.2839
18.6662 39.4992 75.9923
12.7776 20.2275 40.814
8.14802 12.2341 31.0084
14.2867 21.2214 32.9502
16.0045 39.236 73.3578
11.2577 19.6944 32.243
10.0351 18.4235 36.7008
9.06101 17.0197 34.7726
7.57361 12.167 29.0488
13.1573 24.7685 38.5842
7.39307 17.6571 40.9569
12.2157 19.3197 37.9092
12.068 36.3713 83.5559
17.3255 26.3508 42.3617
10.7879 23.6007 44.2428
5.48889 8.11067 24.7917
11.0216 21.0658 45.4755
20.4802 42.8547 71.5255
8.22463 24.4347 73.6936
14.6613 23.6104 59.656
14.9593 22.2903 36.9915
9.86769 22.5489 52.9349
11.3576 16.2456 21.7491
6.16181 19.9615 52.1989
9.06324 13.7989 36.9646
8.76503 15.8073 35.7488
10.6024 13.7469 20.6048
8.42278 15.3685 31.7545
7.7641 17.7838 42.0997
16.2274 35.9821 73.4785
11.4526 20.2952 51.9799
14.9251 24.9867 57.1169
12.0042 23.7187 46.3983
12.8768 27.1413 63.1081
9.61703 14.2592 33.5918
13.928 26.5631 57.5163
12.3759 26.7729 59.1863
11.7972 20.1455 33.5631
6.28385 16.5208 44.8444
10.5789 20.3872 41.2817
12.0365 24.7107 51.4267
10.4203 21.3336 39.3726
11.8998 31.5338 63.4692
9.6781 15.0757 34.2124
11.5539 27.0616 58.6094
10.2899 18.0387 37.5287
9.83207 18.927 40.4564
7.22879 26.0022 68.5156
7.53379 13.4547 42.2134
16.1603 29.3914 61.5712
16.3268 28.5811 52.9013
7.00844 13.5991 31.2339
9.24804 13.5649 25.881
8.94702 19.5393 45.8623
8.98674 22.2169 45.15
5.58648 10.1594 29.1624
11.7299 32.1548 71.099
9.36651 19.4456 47.4793
9.63047 15.6148 48.7567
15.675 40.9264 86.7439
12.941 23.2197 49.4663
11.2587 19.9944 49.6245
15.8516 33.1606 60.9871
10.5447 20.0679 41.0261
9.63375 23.5893 45.495
10.8856 24.8868 59.295
14.4595 28.9428 51.6939
8.48155 18.604 51.4531
5.79078 15.0561 40.1695
5.30084 12.8789 51.663
13.2761 24.8285 54.3144
15.1498 30.9465 47.9471
9.35374 27.0576 53.2399
5.51953 17.75 59.0753
9.83101 17.7052 38.6162
7.2855 14.8999 30.3242
7.26345 19.1363 45.0094
6.71725 10.2465 22.1518
5.28891 12.5658 29.1682
5.80555 12.3418 38.1024
14.0724 34.3818 67.9653
8.6663 17.0702 48.5295
8.03539 13.3954 41.6936
10.9013 21.8834 59.6575
14.7346 33.6614 60.6741
11.6792 31.9765 68.2433
6.86915 13.6942 46.5207
12.2858 31.1264 58.411
5.8619 11.2296 38.1527
8.82747 16.9007 39.7309
11.2803 28.1146 47.303
6.24672 15.2556 41.0606
7.99656 26.6116 69.712
10.9691 19.9883 58.2113
10.3943 17.0059 22.4301
6.8531 18.3859 49.6182
8.64787 18.037 34.81
4.22167 8.49114 27.773
7.4913 21.7298 50.4332
7.98266 18.5105 51.2673
7.37189 11.4948 26.7151
7.26129 13.0354 25.7743
8.22831 23.7543 42.6971
5.38125 20.1624 63.9003
8.32592 16.8076 61.0194
10.4755 25.0358 71.0733
12.2723 23.3554 52.7486
11.7294 24.5875 57.5838
9.92973 21.5809 54.4667
11.7401 30.8056 61.6332
6.01167 19.3653 59.9092
10.73 21.5205 51.1665
9.9043 20.1938 56.9763
