# pn-170911/RbIIR-48-TWTF-1280-1959.psd
# Power spectrum* (dif=0,1,2) (really just |FT|^2)
# NOTE: only the first half! (symmetric)
# weeks: 1280-1959
# 4 clock-days, 0 excluded
# PSD: 1441
505.884 0.0382216 0.0146866
23016.6 0.621849 0.00248183
25461.7 0.619376 0.00269532
13579.2 0.342277 0.00243454
35175.9 1.91263 0.00242296
9981.87 0.938928 0.00252086
3620.6 0.368692 0.00272569
3023.59 0.424983 0.00292163
2499.54 0.58316 0.00249725
2329.85 0.533698 0.00308321
2019.74 0.441487 0.00342779
323.521 0.410408 0.00260103
517.023 0.172896 0.00260239
1360.81 0.860226 0.00437837
766.915 0.389358 0.00323708
605.577 0.551646 0.00190154
1324.08 1.30597 0.00398077
516.002 1.15205 0.00369081
295.042 0.198818 0.00317903
376.863 0.268819 0.00284511
250.831 0.609855 0.00332608
453.687 0.689419 0.00213152
124.72 0.358526 0.00205654
337.86 0.715173 0.00334568
584.491 1.59911 0.00899105
216.219 1.21835 0.00445727
369.188 1.33122 0.00577162
227.09 0.911087 0.00857825
181.449 0.346074 0.0034089
128.377 0.581935 0.00465749
336.615 1.0721 0.00760177
363.343 1.83222 0.017349
549.895 2.13208 0.0104461
262.711 0.903028 0.00812847
193.423 0.582612 0.00460551
252.041 1.0146 0.00541602
436.807 2.08133 0.0114365
116.199 0.326684 0.00396387
213.78 0.808753 0.00725381
480.896 3.18859 0.0224032
70.8896 0.907952 0.00855331
359.353 3.24818 0.0248165
396.145 2.42169 0.0279853
228.555 1.33748 0.0130346
149.066 2.31023 0.0192316
320.49 3.8648 0.0463154
319.049 3.46918 0.0528949
233.818 2.44945 0.030233
629.887 6.38863 0.0792563
303.651 2.90763 0.0367333
181.096 1.84378 0.0155646
216.665 3.4469 0.0538905
430.802 4.73033 0.0510077
323.394 5.04434 0.0621113
349.448 5.18288 0.0698883
300.981 3.83498 0.0603751
295.52 4.77097 0.0658788
334.913 5.49024 0.0844629
375.078 4.63098 0.0968489
126.153 2.19023 0.0307965
193.607 3.27562 0.0639279
364.609 5.29641 0.0835354
80.8132 1.16256 0.0256396
191.461 3.41562 0.0783535
382.369 6.54803 0.142262
330.398 5.84111 0.115379
51.9227 1.21398 0.0260964
197.469 3.93923 0.0734758
206.923 5.09344 0.0954618
462.866 8.82066 0.194259
350.949 8.17626 0.21222
264.896 5.66575 0.140787
212.254 5.87634 0.137202
234.938 6.30964 0.17841
433.163 11.1105 0.284562
296.747 6.87299 0.195444
261.003 8.72206 0.272391
397.948 10.4899 0.300669
393.896 10.2518 0.280548
149.566 4.68718 0.128167
276.175 6.71499 0.207858
275.269 7.86779 0.220982
152.409 3.10835 0.109043
194.391 5.66598 0.161552
103.698 3.61183 0.115589
183.068 5.75216 0.206025
311.612 10.1824 0.364053
247.378 8.3787 0.313834
113.076 4.91389 0.179003
232.687 8.90229 0.341771
311.43 14.5347 0.583732
151.95 5.92495 0.265776
283.012 10.4249 0.44116
355.447 11.9474 0.468734
76.0195 3.18344 0.130244
326.399 12.2435 0.523787
160.461 6.11969 0.291767
240.075 12.8806 0.568038
97.4964 4.52337 0.191069
88.5038 4.04855 0.165792
90.5702 4.87603 0.223306
144.962 5.94231 0.277202
351.685 16.8113 0.817608
61.3947 3.59257 0.202498
308.269 14.9575 0.8328
243.827 12.459 0.611219
277.976 14.5153 0.768519
126.085 6.99502 0.358463
167.405 10.8547 0.572808
137.439 7.87521 0.43347
345.522 17.8205 1.02927
220.121 12.564 0.717207
117.348 7.5179 0.480439
140.604 6.97038 0.477066
268.145 16.2019 0.965947
141.316 9.87579 0.72454
61.9766 3.80601 0.237991
101.195 6.68532 0.454746
69.9855 4.63432 0.261827
234.79 14.268 0.934853
105.65 5.92537 0.378466
190.303 13.9518 0.936417
169.121 11.3911 0.81607
69.8299 5.68027 0.428185
110.191 7.18287 0.533856
158.206 11.6915 0.963664
43.8736 2.99959 0.303369
239.593 18.9098 1.50257
137.361 9.42342 0.734005
134.484 11.1964 0.934573
142.992 8.50971 0.657878
132.017 10.1795 0.814594
66.2296 4.71505 0.471904
66.9498 5.74513 0.462147
145.009 12.3531 0.968029
77.1627 5.93281 0.466022
173.694 16.8543 1.44075
114.673 10.1305 0.854464
119.547 13.4385 1.35341
154.622 12.8847 1.15392
45.1455 5.02822 0.533739
126.984 10.5022 0.915602
44.7279 2.8626 0.217674
168.108 17.8286 1.74498
103.355 8.40417 0.742772
205.801 18.7456 1.89968
225.256 23.1124 2.29552
93.7611 13.1444 1.56996
107.833 9.45713 0.832671
119.904 10.4561 1.01743
38.2267 3.54611 0.370271
108.079 11.2369 1.27023
85.124 7.75958 0.851628
56.23 6.26338 0.758635
123.829 14.7072 1.62682
109.61 11.5574 1.31274
26.7113 3.57364 0.565184
182.171 21.73 2.62438
54.2385 5.43276 0.678421
51.8527 6.48406 0.696738
151.09 17.1955 1.89963
129.273 17.7221 2.29672
99.3137 11.6098 1.21772
112.953 15.9455 2.11431
43.2964 6.40185 0.88947
165.526 18.3831 2.21323
87.5839 9.89624 1.20824
57.3157 6.13117 0.693786
143.154 18.2456 2.53915
116.201 13.1006 1.6689
101.772 13.8928 1.74266
66.4339 10.0787 1.55163
75.1939 8.40168 0.987143
27.6087 4.35461 0.745754
160.116 18.2763 2.32888
134.092 19.9429 3.08279
72.8686 10.488 1.48602
34.3838 4.66675 0.670202
107.059 16.7598 2.72024
42.0983 7.57895 1.4907
68.4603 8.57053 1.15008
51.1712 7.20367 0.955664
36.8379 6.92355 1.11009
121.343 17.0989 2.76707
113.968 17.6606 2.68152
190.268 29.921 5.17735
151.537 26.9812 4.51979
48.7023 6.94586 1.14816
87.7582 16.9677 3.05079
84.5781 12.6421 1.9259
40.5556 7.47575 1.28012
32.4856 7.14482 1.29635
22.4567 4.14105 0.889029
148.292 26.3134 4.36789
32.0311 5.41805 0.788951
140.65 25.5739 4.46587
101.675 18.8056 3.31413
60.0508 12.6631 2.47323
103.224 21.9397 4.77168
42.3707 5.62696 0.696066
28.965 4.45644 0.653528
72.8969 10.9786 1.95201
45.7863 10.1409 2.02025
97.8995 22.7843 4.73329
84.8428 16.8964 3.36847
128.513 22.1825 3.88723
111.349 19.8173 3.74762
78.5873 19.7331 5.00251
58.6744 10.6525 2.14512
117.551 24.7832 5.14032
81.8992 14.203 2.76758
50.2378 10.02 2.36833
68.0178 14.2757 2.68312
82.3619 16.5342 3.6203
94.2373 20.0992 3.94434
49.0454 9.8573 1.7498
100.95 21.3264 4.54012
125.785 33.1889 7.83389
72.0347 12.5934 2.30207
15.133 4.92322 1.44332
72.3612 14.9258 3.58619
65.2467 12.2077 2.31134
34.2221 7.9679 1.99153
67.3825 15.4255 3.5023
109.176 26.2966 6.45684
50.1799 11.8216 3.00445
65.5647 13.1657 3.05868
32.1883 9.7275 2.76789
41.6905 8.33542 2.04339
97.4284 22.7566 6.09991
46.7161 11.7938 2.69324
84.0143 18.7402 4.0638
30.7487 10.002 2.90592
65.6797 15.2642 3.56349
101.748 22.9877 5.58602
105.14 27.5528 6.7516
57.3177 13.2839 3.59372
24.5277 5.71918 1.47925
25.5941 7.92244 2.20357
89.809 21.5973 5.39048
46.9242 14.7889 3.81844
109.939 30.96 8.84145
28.35 7.89551 2.49002
173.442 43.189 11.0435
43.1672 11.311 3.49848
56.0319 13.1862 3.29345
42.0715 11.9316 3.64266
22.2823 4.61834 1.09066
80.2515 23.2779 7.17595
42.5279 12.4281 3.9864
51.3992 13.2941 3.52923
39.6228 12.9337 4.0072
79.935 23.8417 7.41465
61.9331 16.5769 4.75531
51.8671 15.5969 4.95651
57.7965 15.841 5.26905
99.4687 27.4075 7.0326
45.6965 15.3779 4.95894
40.0097 11.6478 3.32735
22.5404 7.70676 2.63259
64.9642 20.6892 5.89086
52.0277 13.8572 3.65918
85.0769 31.7669 10.2588
61.5973 21.651 7.55724
51.9978 13.3505 3.5112
66.9462 24.1588 8.00993
90.877 26.7105 8.85304
32.8414 10.627 3.69945
55.2911 17.5356 5.61563
61.5818 20.9827 6.44496
39.8104 15.5033 5.72479
42.5889 14.6501 5.53943
74.6565 23.6866 7.49718
26.175 11.6036 4.22796
55.1853 21.3679 8.02575
38.7602 10.4368 3.18077
11.6112 4.93381 1.93897
18.5721 7.48004 3.56564
93.8461 30.7365 9.53277
67.8543 24.7532 9.72556
90.3518 33.7072 11.7713
29.6908 13.0816 6.85573
151.103 53.3516 16.6537
49.7787 23.0647 9.02837
23.6972 9.06889 4.67071
133.541 46.0344 14.9173
49.615 16.2328 6.24819
44.865 16.4968 5.83817
60.7187 26.008 9.07063
39.8817 17.5864 6.9932
65.1147 34.2387 15.3345
76.4409 29.2107 12.0888
41.6527 10.1335 2.61544
25.7186 11.0603 5.25331
69.6259 27.8105 11.5623
37.2718 9.82589 2.33239
97.591 44.4701 19.5188
23.5147 7.97387 3.55729
59.0153 23.3511 8.54996
20.9784 9.58253 4.14583
31.7038 17.2745 8.16231
13.3538 2.95931 1.04307
50.0862 21.6922 9.62564
21.5158 9.08147 5.40747
87.9584 30.8811 10.0122
44.5143 22.234 10.3434
55.1139 21.5887 7.8593
43.9705 25.4661 13.774
60.1917 19.4954 6.87347
16.6209 7.06906 3.31889
38.9016 16.5901 7.44954
56.322 22.8974 10.7308
107.988 41.3142 15.6637
65.4264 32.3879 15.8663
90.9461 34.5063 14.1578
42.28 20.5407 10.1822
32.6933 17.3126 9.75272
9.43783 2.64263 1.87504
30.6888 11.8142 4.97658
104.485 42.1434 16.9376
13.7947 8.4341 5.10571
7.97388 5.56668 3.54275
46.5762 17.6546 6.91859
57.5178 37.312 21.7563
35.7158 9.49986 3.08594
56.655 23.6003 10.655
75.2318 34.2654 14.8069
15.4559 8.95184 4.69487
38.802 21.7955 11.4505
32.7322 10.8426 4.06408
87.0502 49.2364 26.9699
61.6977 29.079 13.1411
37.3805 22.1105 13.2157
64.1393 26.6923 11.9007
45.3196 21.1588 10.6063
24.4047 16.1814 11.7478
47.7397 24.0367 10.7193
18.5015 13.2682 10.4976
53.1742 22.7052 8.63792
19.3049 9.53863 5.60917
37.2618 23.2802 14.3715
29.9453 9.48888 3.28195
53.2318 28.2622 16.4544
49.7462 19.9976 7.26115
78.7321 45.1185 22.5091
73.9813 45.6027 24.2911
19.1505 9.29947 5.14651
23.5845 14.513 9.14534
49.0358 29.6017 18.0618
40.2273 19.579 9.48276
41.8409 19.2284 9.17626
29.2086 18.8436 11.2609
20.6544 12.8015 8.97935
38.0105 17.2717 7.41122
13.2484 9.85759 6.88575
30.3564 19.03 11.7381
39.9658 16.9919 8.29386
39.8373 23.1997 12.9844
51.0198 32.981 20.4692
23.5023 10.5027 6.95112
48.9217 27.5775 15.0531
35.7815 20.3587 11.9933
20.4813 8.14558 3.89004
32.4657 16.4802 9.0896
42.1838 24.3276 13.1402
59.8497 42.1729 25.9129
24.6793 13.6472 9.02647
9.19833 7.06292 6.55033
20.511 11.2989 7.49442
37.8169 20.8242 9.47308
57.3049 39.9551 26.1155
27.7902 19.3113 15.0973
86.7111 54.2284 30.7786
31.8842 23.7521 14.3236
6.23863 9.6749 9.87854
18.6649 8.51877 6.64039
47.6528 25.4554 14.2454
12.6918 7.79883 7.2129
24.8964 12.2793 5.47043
24.7533 22.5818 16.8644
27.7367 15.9151 10.9739
24.4589 11.7328 7.23333
45.2247 26.2958 14.876
72.4278 46.4777 26.3875
44.2193 35.6397 26.4321
7.80386 4.89431 6.31974
39.6878 21.3638 10.3593
34.9612 27.685 16.8657
7.52645 6.63481 5.47335
6.79089 8.85329 9.35638
28.7448 16.519 11.0519
26.2869 16.2733 10.7754
12.0031 7.94586 7.10306
31.2875 19.7288 12.4404
20.4355 14.0157 12.1713
31.9121 19.1517 11.8816
40.1842 26.0791 16.2441
35.5834 23.2184 16.0155
32.4548 29.1344 25.5041
10.9515 6.4472 8.07653
45.7959 26.3218 11.3337
8.33156 8.13825 5.72064
25.4759 18.9216 13.9372
30.1408 20.171 10.9802
9.12194 11.3149 10.0568
10.9214 10.4322 8.94557
42.2554 33.8792 26.2228
16.6137 10.641 7.11091
10.1982 4.25476 2.38406
23.4233 14.8969 9.71726
15.3691 13.1827 11.3541
19.2988 14.8254 10.4095
36.4627 28.524 21.0204
11.4908 13.7589 16.7626
28.3007 17.6905 12.876
29.2314 20.3207 13.837
24.4125 16.577 11.7554
12.3399 12.2012 10.3638
23.1859 16.5029 14.458
32.0738 20.7997 14.0954
24.3645 17.9452 13.3503
20.814 16.4646 12.4244
9.22548 6.06382 5.23145
43.3486 45.9521 42.3175
28.5303 12.0692 4.39942
21.436 19.6835 18.9196
11.4081 9.36543 7.8172
9.68663 6.5166 3.38999
9.47306 11.8373 12.7938
25.5021 16.9794 14.8122
44.6827 39.5387 32.7245
36.0587 27.1504 20.5364
24.1585 22.7672 22.9299
37.2701 25.8104 14.6145
19.9674 23.2348 22.5541
28.7647 20.7744 17.8229
29.201 20.6174 13.4762
13.6178 12.3369 10.8315
44.0117 38.6594 30.7351
24.4086 26.8529 24.5735
25.4948 29.5476 33.9405
39.5406 25.8817 21.3832
19.276 15.8516 14.7456
34.8444 31.5241 24.8592
14.2085 11.5166 13.6933
16.9971 8.63152 4.77747
17.0408 12.7798 10.5423
49.7077 47.0533 40.0886
25.7358 25.6764 21.5035
14.9826 16.5252 20.246
28.277 23.8096 18.4581
15.4235 10.755 10.7872
35.8964 36.252 27.7855
17.173 42.1077 68.3192
92.5073 59.3261 49.7558
39.0161 49.6727 123.807
1032.23 917.449 677.437
30.8814 50.2612 80.3844
65.5491 61.6545 66.9675
17.9737 6.7257 8.68353
40.58 36.2204 28.3665
29.9297 36.9796 40.6323
13.2866 7.3517 7.89489
27.7271 32.7164 37.4185
18.7328 12.3561 14.7593
47.6216 42.7498 37.3575
26.8425 16.3277 12.201
26.5469 24.916 23.645
20.0648 16.8544 16.6368
33.9735 37.5412 37.6822
16.2523 13.2095 10.8775
13.9092 12.8286 8.35254
15.2755 25.8863 33.3279
14.8759 5.92793 3.64592
12.6781 13.3506 14.4653
16.5729 12.1427 13.0906
26.4134 26.5175 22.894
19.7134 20.7851 19.2031
16.9232 15.3724 14.0986
16.6811 13.2315 9.68145
17.8145 22.4289 27.6091
16.3526 15.6183 14.0584
30.018 32.4769 32.8696
15.3391 12.6882 13.1456
15.6582 12.3505 16.1616
37.495 32.3169 21.3813
14.2405 19.8795 21.7963
29.9272 36.3186 42.0216
40.5415 40.3885 43.5562
17.8703 11.03 5.99168
29.5483 39.1135 39.8737
22.4938 16.2385 11.8151
16.3167 20.4281 18.4509
14.1202 24.5667 29.5957
15.2454 21.1771 25.4229
24.0186 28.3472 32.3089
8.76968 10.9828 16.3599
13.1298 15.7 24.5125
19.9812 15.7514 17.2352
17.2762 13.3921 11.8188
27.649 26.41 26.2807
11.4232 14.3515 17.0608
24.2119 24.9531 24.8943
13.211 9.91811 7.77373
10.6718 17.2507 22.2814
22.6959 20.7836 21.1909
17.256 18.929 23.4635
27.0526 24.4327 19.5632
17.061 25.5517 33.5276
34.0591 45.0584 55.5661
29.9134 26.8516 32.4915
40.5233 36.1992 30.5335
7.58466 10.0243 12.172
7.77772 8.52315 12.4857
19.3537 19.4548 21.6448
15.7329 18.6669 20.9047
10.8163 10.3005 12.7719
27.4141 28.8087 29.3795
16.6884 17.8249 22.1375
49.5748 62.2535 70.7732
23.6048 22.9291 33.2316
59.3638 62.8164 64.6543
45.4742 54.032 59.7445
7.79907 4.2939 3.81934
15.2165 17.1914 14.645
17.5295 23.1384 24.1948
14.544 16.6171 16.4055
11.1392 18.2199 24.0694
7.96527 17.138 30.6445
22.579 25.55 28.29
17.2402 17.6573 19.6156
15.415 29.6125 44.7301
20.5233 19.4656 26.6196
30.2435 26.063 21.2169
13.0522 22.5211 32.1286
17.8134 26.6741 37.1626
20.4094 22.1411 32.0968
21.0009 16.5068 15.2778
29.0065 38.81 48.6196
8.3201 5.48399 8.88743
24.9012 27.9523 25.9562
13.1065 20.1288 26.7123
11.9128 15.9322 21.3801
18.1165 25.486 36.5243
14.5244 10.1228 8.09972
22.1635 31.2875 35.1882
7.78734 8.68214 10.6018
4.64671 9.52513 20.8846
15.0072 13.1032 15.0656
23.9692 27.5274 26.9324
7.21319 11.4359 18.5689
9.11205 10.0022 11.5658
8.21316 10.847 17.5719
16.0692 17.3595 16.9019
2.70119 3.72327 2.99164
2.78202 11.6106 26.1446
29.2443 35.0467 42.3745
18.5672 15.9056 16.3574
10.0031 15.0459 23.1164
16.7809 21.1834 25.7026
15.3314 14.6996 17.5054
18.7038 22.1432 26.2001
22.8295 37.4881 50.2452
13.6615 19.3036 29.8134
13.2712 12.8737 13.6791
8.64585 8.85451 12.5224
14.6809 23.109 35.3683
13.2068 12.9045 13.1566
2.90927 3.83866 7.86597
11.6387 19.094 33.6803
18.8458 23.3676 23.2447
7.81336 9.94692 15.9292
14.0449 13.9312 10.5612
11.1677 18.5136 23.4455
6.14937 13.8877 28.3512
20.9728 24.4315 31.1281
8.42042 9.7087 16.6337
19.3607 26.1827 29.5301
19.1654 35.9272 53.8286
17.6446 18.9813 24.3429
10.8963 16.6529 24.1149
15.2897 20.0403 24.0594
8.63675 10.1205 12.8244
13.2216 21.3852 28.7562
10.1146 19.32 36.0467
13.7257 15.9529 23.5223
19.4453 26.7275 34.8683
13.8368 22.834 36.9095
17.9052 21.8734 30.9545
14.0933 18.0754 23.6061
6.39388 7.46114 12.5055
10.9193 15.639 18.6734
6.38667 8.92274 13.6391
8.1913 10.2929 14.6591
14.5371 24.0768 40.4251
19.1877 30.6741 38.5435
5.05613 8.01278 24.1322
17.1031 13.5647 8.70366
8.43856 15.4344 22.9207
8.80082 11.4221 16.8022
11.3041 13.3849 17.0452
19.5285 34.4385 59.7154
17.9372 13.6162 9.9926
6.01911 6.60532 5.40091
11.3702 18.3833 28.2988
28.8909 42.8014 51.4127
3.52067 11.2189 26.6675
3.40809 4.73453 18.6049
18.2216 25.6952 34.3961
10.9069 10.415 6.5714
7.7692 15.341 21.8996
15.569 33.3043 58.9124
9.0715 9.46512 11.9088
3.4799 7.84568 23.1256
20.0561 27.5985 35.6515
15.0645 28.176 52.1344
14.435 11.7272 7.76825
2.16242 3.8327 8.67552
7.2008 8.87401 12.9323
6.37271 8.74158 12.0899
14.4669 25.7438 39.7538
18.4736 29.127 38.1376
4.13153 8.64605 22.1618
8.39791 11.9006 27.1535
14.3298 19.676 25.4458
8.36228 12.9451 18.4207
10.7343 17.6093 25.5943
6.63131 7.97985 13.954
6.62092 5.73606 6.60813
10.1324 19.0241 28.4138
9.4636 10.3656 12.5283
16.8241 35.3456 64.5246
25.051 31.9055 36.8127
14.3581 33.0405 53.6863
8.57886 14.7659 35.4055
12.3642 13.4015 16.9366
19.9746 38.7129 65.9286
9.14576 15.5555 36.73
21.1962 28.8647 35.5523
7.69131 12.9329 18.6856
6.57361 11.8193 18.0539
9.67904 23.3004 44.318
10.0099 14.0816 24.0092
6.7781 11.8399 27.9414
12.2023 15.3443 18.3224
14.1303 31.7538 59.7099
16.3769 31.0725 55.9974
5.66089 5.29889 15.633
5.37903 5.51945 15.4377
15.9842 28.5418 42.7592
6.29106 5.79115 6.41808
1.98603 4.42501 14.1592
13.6856 23.3872 41.2843
9.13695 14.1186 25.5654
13.6232 21.7907 40.0193
15.1369 25.4685 38.0382
9.74182 17.456 23.6969
5.43714 15.6328 35.2979
6.23051 8.84581 20.6504
9.14184 17.3305 43.1697
18.5939 27.7855 35.9551
6.36198 10.0097 15.0099
5.88897 7.1645 12.5028
10.6918 22.7513 43.6512
9.32181 12.7214 28.0058
19.6328 32.4691 43.8411
7.43551 13.2142 20.1523
5.38643 8.97055 15.1821
8.07467 17.1478 31.9554
4.51738 8.50066 19.2319
8.52109 16.54 24.0721
2.02428 5.12511 16.0395
5.40841 11.9534 29.75
7.48405 13.0279 28.2632
13.3905 26.0811 41.1686
6.8064 12.75 32.4822
14.631 22.8004 35.2154
4.79273 9.66056 27.856
15.3796 32.9725 68.9393
17.2354 18.5417 24.0366
18.3567 34.355 51.6974
4.76675 9.71269 26.7708
9.88772 16.7655 29.0247
7.16205 14.3408 21.1402
5.13914 13.2109 30.4877
9.1516 11.4571 15.7582
4.7233 13.0338 31.5219
9.33251 15.6692 30.1408
13.9437 22.661 36.1919
6.60903 13.5273 32.4674
7.05572 6.68524 13.5471
12.0142 18.2138 19.9776
5.87023 18.6368 43.2093
6.46034 7.99034 10.0482
4.94412 16.7856 43.6862
10.8605 14.8275 29.1657
11.3642 17.1344 27.9427
5.66218 7.16049 10.2808
9.50335 20.5519 42.8876
13.8319 25.4955 42.5144
12.8674 22.3688 35.921
9.25003 19.4786 42.492
9.5624 14.9777 23.5707
4.4145 8.26418 11.8829
5.27768 15.0303 39.9197
8.94388 14.5856 20.3678
3.83625 8.4496 16.4951
7.29467 18.2309 41.8226
7.2262 10.2619 13.8506
2.0985 3.28088 15.6915
13.6786 31.5179 45.2658
8.27035 24.4513 51.7155
6.11913 16.1327 48.1815
11.9102 16.131 29.8767
7.49995 12.9183 41.7738
16.3319 18.6931 18.2344
3.84496 7.22903 14.1967
11.166 20.685 30.8836
7.71598 20.1684 55.788
15.4824 30.4855 53.9887
14.1914 27.443 43.1222
2.3117 7.1301 32.2652
11.6128 14.9312 25.0494
11.6429 16.7871 14.0919
9.20117 28.9048 52.8195
3.59265 9.34264 26.3298
7.92213 16.0381 33.9438
8.41267 15.3657 26.7983
3.43744 4.22388 5.24417
5.5768 18.1934 41.2681
5.57068 15.6725 47.1908
8.62327 18.693 43.9544
6.06001 10.5093 20.0485
0.791574 6.91101 44.8061
13.7155 17.5627 21.6991
3.856 10.7687 33.9948
8.31361 10.1015 23.9464
17.5048 35.6362 49.7263
7.28883 18.1206 38.8233
8.03668 11.9174 8.31896
2.85608 17.0548 46.2986
6.62093 6.61389 14.9342
10.3565 21.4077 41.6726
6.42183 15.0857 41.4193
9.99059 21.0738 43.6346
11.2163 24.1487 44.3605
8.56784 13.8779 21.5348
4.71895 11.669 21.0719
4.71203 16.7228 40.6001
9.36147 20.196 34.7888
3.02595 14.886 52.686
12.3882 22.374 37.3908
4.79397 13.1124 38.7493
6.78887 11.319 37.5767
9.65193 13.0855 27.6818
5.15298 3.47275 10.4946
8.02754 18.2552 41.4188
9.3584 17.8486 33.7761
10.1694 14.9212 21.2853
4.34461 8.74533 13.72
2.25451 9.7731 40.4306
10.5364 21.2278 54.963
19.2061 36.1164 51.0737
8.16097 19.9739 51.1473
13.0291 27.137 48.5544
7.66774 11.8684 14.3435
4.97035 13.6159 33.2958
6.32902 16.1516 51.4181
17.1423 28.8001 36.9577
3.72043 9.32838 18.8457
6.22438 15.6953 33.0335
7.03396 17.0145 44.621
8.59859 16.984 40.5521
7.45254 15.3329 25.358
5.3987 8.66043 18.6795
5.22083 11.421 23.4103
5.51684 16.931 37.1213
13.4917 35.1288 74.6727
8.56083 15.9717 42.6725
9.47376 24.5387 60.2411
8.68616 18.993 50.6546
10.5351 12.8025 22.407
13.5609 30.1349 38.046
3.35363 12.114 29.2804
6.42922 18.1149 37.0839
5.22364 17.9333 55.1774
7.42718 10.2866 30.9952
14.0586 30.3601 38.4235
3.47534 17.9452 50.0064
7.94221 30.8313 95.1689
11.5942 13.0323 33.6415
12.6276 24.6553 36.1994
4.14413 12.2965 45.6926
11.6863 20.1574 30.8206
2.13833 5.07611 20.3205
6.20059 16.8999 35.7706
6.17945 17.6205 47.0344
5.64313 10.9351 42.4978
13.3333 23.7726 32.6642
13.3378 47.7282 102.977
5.73725 4.81317 22.9341
11.8655 34.9966 81.2632
10.5224 20.5719 51.2967
7.04768 11.3502 26.6633
7.60699 20.9623 45.4001
7.86092 16.0814 24.2719
3.08599 8.91646 30.5485
7.53155 18.9001 36.9645
5.15366 16.2135 36.641
4.52053 10.9427 38.914
8.36219 17.7419 42.108
4.79536 10.4999 34.1461
10.7511 35.7955 91.2764
10.3522 18.9664 58.2186
11.0205 14.5128 18.1545
7.10034 16.3513 21.1853
3.50643 13.4789 39.1085
4.76766 8.87749 22.7857
3.09283 5.80771 13.7388
5.4086 16.7464 30.6235
4.08778 13.5517 37.1522
3.28482 6.62878 33.7966
8.26993 14.1745 28.9434
6.75525 19.343 37.4461
