# pn-170911/RbIIA-29-RbIIA-1280-1959.psd
# Power spectrum* (dif=0,1,2) (really just |FT|^2)
# NOTE: only the first half! (symmetric)
# weeks: 1280-1959
# 685 clock-days, 221 excluded
# PSD: 1441
8787.98 0.23265 0.0118069
420116 6.87035 0.00558413
2.51447e+06 49.1374 0.00655977
188141 6.9506 0.00580178
181572 10.6306 0.00612416
87327 7.41911 0.0063409
53106.9 6.99516 0.00671746
44234.4 6.31126 0.006845
32874.3 7.13789 0.00750575
26581.2 7.20017 0.00832744
19600.1 6.53057 0.00834848
15216 6.15598 0.00960248
13030.8 6.20907 0.00989145
11166.1 5.92892 0.0100338
10060.7 6.80577 0.0119876
8449.63 6.21319 0.0121618
7415.72 6.16374 0.0135154
7080.68 6.6213 0.0149643
6173.06 6.3782 0.0150332
4914.53 5.76382 0.0155505
5087.5 6.20349 0.0168127
4541.77 6.05297 0.0189656
4150.96 6.19549 0.0201515
3795.93 6.12763 0.0219975
3479.94 6.43403 0.0236166
3116.33 5.96209 0.0227239
2918.6 6.20603 0.0260565
2605.81 6.32666 0.0256221
2557.66 6.45416 0.0295752
2226.31 6.11711 0.0313504
2157.71 5.95196 0.0299455
2041.83 6.53609 0.0368893
1882.8 5.95893 0.034781
1780.09 6.23525 0.0389524
1784.88 6.56678 0.0424581
1494.73 5.81973 0.0395585
1571.74 6.31062 0.0455254
1435.64 6.50311 0.0475351
1478.42 6.64537 0.0501674
1222.38 6.02676 0.0482554
1136.38 5.6542 0.0471137
1170.01 6.03878 0.0531748
1048.64 6.19885 0.0582192
1062.34 6.22581 0.0623915
972.088 6.12987 0.0615656
930.661 5.93586 0.062016
979.648 6.55573 0.0731037
858.336 6.07046 0.0685866
799.69 5.65612 0.0680042
765.417 5.87971 0.0731662
734.301 6.16036 0.0790967
719.272 5.8975 0.0793
734.948 6.02581 0.0829389
676.959 6.08933 0.0855705
645.635 5.82619 0.0853913
678.238 6.60506 0.101005
648.534 6.53745 0.101856
594.03 6.35622 0.103351
555.181 5.92661 0.101236
541.87 6.17841 0.111874
538.864 6.56889 0.119842
525.273 6.12252 0.11304
503.117 6.08977 0.113983
508.099 6.74792 0.134334
482.633 6.26776 0.128009
484.104 6.27367 0.133002
447.553 6.06624 0.129231
437.698 6.33254 0.139725
440.296 6.13877 0.139895
410.453 6.60577 0.156954
411.31 6.29281 0.149396
378.065 5.93221 0.149515
388.673 6.01128 0.15497
370.129 6.28636 0.163378
351.505 6.22406 0.166932
341.965 6.08859 0.16832
351.449 6.37659 0.18137
329.294 5.86484 0.171316
332.822 6.63512 0.19939
297.654 6.22783 0.191063
330.327 6.40277 0.200252
277.422 5.63564 0.181624
295.957 5.97439 0.19743
278.869 6.08527 0.201852
278.877 6.19174 0.211618
265.429 6.00114 0.211476
265.589 6.5832 0.239634
256.749 6.22649 0.231097
243.4 6.10743 0.228959
260.667 6.57792 0.25403
225.893 5.6864 0.222323
230.486 6.14781 0.247606
236.581 6.22854 0.253844
217.481 5.94286 0.249632
230.917 6.29963 0.268121
218.435 6.31419 0.276355
202.462 5.97136 0.264704
221.546 6.5396 0.29618
219.996 6.59313 0.306695
192.838 5.90611 0.28054
199.817 6.34077 0.308218
198.138 6.71924 0.330391
182.82 5.96472 0.2974
189.404 6.12667 0.317701
186.054 6.29593 0.326994
178.905 6.27252 0.333956
176.172 6.41928 0.348209
171.59 6.03413 0.33512
174.479 6.47273 0.359738
167.141 6.50548 0.374843
163.015 5.98244 0.342703
169.581 6.25927 0.365914
164.542 6.59499 0.397506
152.008 6.06994 0.372489
160.142 6.38706 0.398529
150.835 6.29244 0.399344
142.842 6.23665 0.407383
140.832 6.40475 0.421387
138.774 6.16436 0.412199
138.987 5.9058 0.402477
140.638 6.48705 0.442099
134.305 6.16283 0.433842
128.477 5.84019 0.423133
132.506 6.31275 0.45199
115.559 5.63764 0.415694
133.278 6.26895 0.467764
129.445 6.50244 0.491309
121.884 5.72757 0.447782
124.76 6.67898 0.522461
114.178 6.29891 0.502543
107.775 5.75519 0.464763
115.725 6.16992 0.506672
116.824 6.49322 0.543593
114.421 6.34873 0.53751
101.98 5.88604 0.50091
102.187 5.85952 0.511166
98.7241 6.14662 0.539175
108.159 6.67233 0.603796
99.8561 5.723 0.52494
98.8273 6.08604 0.563888
96.1366 6.09954 0.564462
96.8805 6.02023 0.572921
94.9426 5.83529 0.560568
93.2961 6.41896 0.632425
97.6834 6.5434 0.654942
98.0306 6.76106 0.681934
94.2521 6.53424 0.66077
91.0438 6.38104 0.649686
86.2936 6.1618 0.636332
89.4793 5.91897 0.630927
86.797 5.93012 0.628101
86.3589 6.14227 0.66943
84.7299 6.37517 0.700795
82.4397 6.02709 0.668272
80.1708 6.08318 0.685408
82.2026 6.23333 0.714605
80.5294 6.19437 0.72076
76.0031 6.06441 0.712089
80.3961 6.24132 0.743709
80.3561 6.40987 0.762533
74.3169 6.00103 0.732132
77.7861 6.38819 0.7946
74.29 6.29394 0.774807
78.6218 6.81466 0.857335
73.1627 6.24258 0.798678
75.7389 6.42144 0.834964
71.6043 6.22007 0.814207
74.1848 6.04424 0.781622
68.7816 6.17863 0.834921
67.5965 6.04409 0.835565
69.4132 6.09676 0.833405
66.7598 6.00612 0.828156
69.2443 6.34801 0.896947
71.701 6.55167 0.925453
66.8512 6.10464 0.89095
67.7495 6.60291 0.951884
65.8673 6.65617 0.971735
64.6433 6.4945 0.95462
59.9162 6.20078 0.929914
62.2325 6.18247 0.951361
62.9352 6.42143 0.972933
61.1528 6.27442 0.97573
61.7875 6.13606 0.950097
57.6755 6.22846 1.00194
60.6894 6.43991 1.03621
55.9841 5.89243 0.95068
56.1208 5.90706 0.961939
55.9344 6.14584 1.02383
56.1033 6.26563 1.03815
53.6346 6.15664 1.02805
55.1147 6.30919 1.07057
51.3203 5.75434 1.00168
54.2546 6.28441 1.10541
55.8409 6.5316 1.13742
52.9223 6.11999 1.1028
50.7801 5.9276 1.06475
53.4472 6.32888 1.14395
53.3381 6.69332 1.22566
52.0137 6.52665 1.21135
48.5566 5.91035 1.08804
46.5083 5.84678 1.09946
46.9848 6.11438 1.18559
49.2899 6.21424 1.17955
53.5326 6.77851 1.31241
50.5946 6.68606 1.31472
45.7014 6.04461 1.20977
46.4883 6.20434 1.22267
47.0528 6.19104 1.25437
47.3225 6.39991 1.29748
43.994 6.24563 1.28884
46.6428 6.91314 1.43568
43.0626 6.19771 1.29706
45.2078 6.65628 1.39868
43.3468 6.3309 1.35173
43.4421 6.14922 1.33484
43.4595 6.1997 1.33712
43.2564 6.30158 1.38711
41.2408 6.14282 1.34674
42.4408 6.36936 1.42853
43.997 6.54992 1.451
41.3351 6.2696 1.43775
39.8096 6.08839 1.39666
38.8695 6.45617 1.47613
39.57 6.16903 1.44641
40.1264 6.2994 1.47811
40.4848 6.4272 1.52962
39.5637 6.08228 1.46905
36.3049 6.39016 1.56776
42.0105 6.48725 1.56062
39.4213 6.45167 1.56119
38.8578 6.50431 1.62545
36.3735 5.95788 1.49233
35.978 5.70951 1.41565
37.6297 6.31917 1.60998
38.9431 6.72442 1.73965
37.6174 6.67562 1.71312
35.177 6.50541 1.6955
36.7505 6.22685 1.63832
37.3155 6.78181 1.77442
36.049 6.97268 1.88243
35.9564 6.52728 1.72875
35.1287 6.19696 1.69065
35.6522 6.78166 1.84832
33.9169 6.37315 1.75958
34.0118 6.54653 1.82175
33.6083 6.21916 1.7349
33.8177 6.38627 1.79172
33.0772 6.21159 1.77246
31.9369 5.87814 1.67048
34.3395 6.47123 1.83999
30.3798 6.05833 1.7818
31.9112 6.61417 1.92927
32.8152 6.27367 1.85645
33.0881 6.22756 1.87974
33.1445 6.61803 1.98974
32.0194 6.83555 2.03606
30.0064 6.08456 1.86499
31.2947 6.45137 1.93372
29.7232 6.17666 1.9164
28.9129 6.39633 1.9784
29.5253 6.28083 1.98898
35.0388 7.21246 2.26666
29.5167 6.45316 2.06859
28.3195 6.29426 2.04082
31.0169 6.71595 2.14324
29.924 6.5548 2.17862
29.792 6.3898 2.06305
30.518 6.50828 2.16146
25.0426 5.88339 1.98193
27.918 6.33313 2.12221
28.2963 6.78983 2.30315
28.2131 6.41048 2.16452
26.8349 6.17762 2.13942
28.2936 6.56093 2.27431
26.1821 6.1357 2.14404
25.711 6.17868 2.18941
27.1946 6.7339 2.39069
27.4502 6.61766 2.34743
25.924 6.40195 2.31196
26.9515 6.5405 2.34656
25.9716 6.22424 2.2557
26.4993 6.51486 2.39058
27.2587 6.97813 2.49577
24.8105 6.74526 2.51996
25.0371 6.24863 2.32831
25.0994 6.31313 2.36228
26.355 6.78663 2.56912
24.4402 6.50105 2.49039
26.7366 6.65757 2.59976
25.3425 6.40778 2.42116
25.7049 6.63071 2.6027
23.8986 6.51198 2.55062
23.6489 6.23692 2.44571
25.102 6.56013 2.57887
25.4967 6.77911 2.70605
24.1179 6.72569 2.66501
23.2946 6.64219 2.62323
23.759 6.66999 2.71631
24.3146 6.52325 2.66312
22.4677 6.55619 2.70844
23.4744 6.38678 2.67685
22.0917 6.33256 2.65763
24.1283 6.56647 2.76198
22.1286 6.36278 2.66102
20.9262 6.30788 2.69694
22.8215 6.41876 2.75661
23.2008 6.25269 2.63693
20.856 6.08807 2.63909
22.7377 6.70444 2.91435
22.0659 6.26887 2.73759
23.4756 7.06778 3.15184
21.2726 6.78522 2.95053
20.3488 6.39154 2.89467
20.9263 6.42875 2.92296
20.4272 6.41219 2.9172
20.6917 6.61491 3.04358
20.3164 6.09961 2.85673
22.127 6.44429 2.92925
22.3397 7.13043 3.25359
19.9771 6.21315 2.90573
20.8028 6.46945 3.00245
18.8142 5.97837 2.81811
19.7996 6.55618 3.14517
20.3449 6.35515 3.09006
20.5893 6.53956 3.06177
20.3458 6.38295 3.1199
20.1005 6.36763 3.01997
20.4562 6.70948 3.26362
19.3459 6.1369 3.00246
20.0358 7.02218 3.44435
19.1003 6.58787 3.34346
19.4506 6.65996 3.37248
20.6341 6.90624 3.47234
19.6328 6.62712 3.36169
20.0814 7.09406 3.61827
19.2902 6.28429 3.211
18.3116 6.2847 3.18429
19.1371 6.59602 3.41104
18.5355 6.57012 3.39349
18.3936 7.0522 3.70323
16.5469 6.43375 3.41504
17.9786 6.77961 3.6816
18.5838 6.51032 3.43941
18.2872 6.34004 3.36674
17.1863 6.29573 3.51465
20.0658 6.86146 3.62455
19.0326 6.84945 3.72986
18.7135 6.95714 3.81013
16.9941 6.61501 3.63263
17.245 6.87536 3.74202
18.526 7.08219 3.93974
17.0332 6.66108 3.78833
17.8057 6.45528 3.66379
17.3703 6.59419 3.6339
16.9584 6.37968 3.5992
16.5312 6.40439 3.6452
16.9021 7.02275 4.11314
17.5937 6.74549 3.87107
16.3051 6.27669 3.63825
17.3578 7.16256 4.17072
17.3708 7.047 4.18896
17.8776 6.84098 4.00833
16.4654 6.47177 3.84792
16.7348 6.74032 4.1231
16.4895 7.09674 4.22135
16.4992 6.63483 3.94765
15.842 6.78492 4.12709
15.4785 6.54426 3.94076
16.2313 6.39404 3.89232
16.1342 6.59012 4.07964
16.0445 6.58696 4.011
15.5676 6.68829 4.20998
16.3559 6.86147 4.27919
15.1284 6.95471 4.32306
15.3089 6.88429 4.45422
15.8721 7.00891 4.3955
16.0118 7.13643 4.59149
15.9458 6.98761 4.4896
16.3701 6.50015 4.09163
14.8611 6.55666 4.23757
15.1099 6.87518 4.54924
14.1722 6.40159 4.07857
14.5248 6.31801 4.35533
15.0268 7.15621 4.57658
14.5023 7.16221 4.79663
14.7872 6.67221 4.39427
14.3539 6.55735 4.35003
14.7156 6.85318 4.60835
13.7076 6.41123 4.37016
14.1744 6.64132 4.59778
14.8549 6.67472 4.42518
13.8918 6.46911 4.55681
14.0264 6.40821 4.3547
13.8583 6.73722 4.65662
13.4666 6.6454 4.71049
14.3782 6.793 4.73093
13.2118 6.39354 4.54941
14.0973 6.53589 4.55591
14.0601 7.03011 5.07353
13.6237 6.62346 4.61098
14.0849 6.69326 4.78768
14.016 6.96451 4.9812
13.1563 6.89235 5.00185
12.7594 6.71857 4.96172
13.8232 7.14953 5.12882
14.2995 6.93648 5.08367
13.1508 6.80714 5.04931
13.4327 6.90702 5.16036
12.4953 6.47074 4.87596
12.7817 6.73876 5.00083
12.7911 6.35024 4.74797
12.8161 6.58525 4.86206
12.6077 7.01983 5.43153
14.0747 7.51823 5.58277
13.6177 6.94752 5.33753
12.5167 6.60759 5.10973
13.1539 6.99831 5.25213
12.4872 6.82202 5.3092
13.5447 7.25006 5.54419
12.059 6.28967 4.92824
13.0564 6.87017 5.35241
13.6245 7.15824 5.61304
12.022 6.76671 5.42508
12.5456 6.34793 5.05922
12.1656 7.00829 5.62245
11.7847 6.71247 5.38987
12.84 6.96703 5.69067
12.8387 7.35124 6.0908
12.4038 6.89888 5.50132
12.0394 7.17618 5.8249
12.7594 6.7711 5.51057
12.1811 6.748 5.4414
11.9028 7.08804 5.79577
11.7498 6.63526 5.5137
12.3053 7.2327 5.97258
11.738 6.95514 5.91455
12.0811 6.73564 5.6563
12.255 7.61103 6.3837
12.2588 7.13402 6.04415
11.5906 6.78153 5.80545
12.6208 7.14618 6.11024
11.7533 7.35339 6.35254
11.5175 7.01658 6.00457
11.756 7.05448 6.05646
11.229 6.81256 5.96463
11.527 7.14874 6.27702
12.2507 7.1427 6.21473
11.07 6.5307 5.61966
11.8094 7.03833 6.07164
10.52 6.36583 5.63309
11.1225 6.86793 6.09727
11.1383 6.67977 6.23171
11.301 6.9595 6.16017
11.4197 6.94775 6.14295
10.2819 6.6007 6.1092
10.8141 6.66475 6.1928
11.0818 7.15684 6.33368
11.1746 6.90633 6.23379
10.9765 6.84555 6.41366
11.4171 7.76492 7.142
11.0194 7.19463 6.68403
9.96102 6.43094 5.95976
10.0755 6.78456 6.44293
11.2759 7.57358 7.11284
10.9969 7.05566 6.67184
10.7041 7.34269 6.91536
10.0638 6.44729 6.1229
10.2538 6.71225 6.40968
9.94214 6.38674 6.23454
10.2447 6.73486 6.56409
10.7299 7.23801 6.84519
9.78846 6.41687 6.12405
10.499 6.94672 6.7993
10.5524 6.80216 6.6825
10.3786 7.31759 7.09108
10.5497 7.63557 7.38739
9.78699 7.16908 7.08422
9.86455 7.00548 6.90193
9.96383 6.6731 6.86791
10.5606 7.35789 7.24428
10.1549 7.05597 6.97613
9.51954 7.13093 7.30717
9.84397 6.56807 6.74312
9.62709 6.55226 6.65037
9.25276 6.98207 7.15841
9.92106 7.03055 7.40771
10.3704 7.17127 7.07162
9.3961 7.21481 7.54893
9.67228 6.9566 7.25457
10.3457 7.4798 7.45947
9.43964 6.86278 7.15221
9.60366 6.98475 7.16576
10.3017 7.0009 7.19106
9.99477 7.58819 7.88853
9.46894 6.5858 6.98382
9.48313 7.15859 7.76488
10.1662 7.61266 7.96854
10.2633 7.55494 8.11656
9.00152 7.16069 7.74203
9.03586 6.96342 7.46973
9.31427 7.11907 7.79988
9.45778 6.82232 7.11871
8.90583 6.72976 7.4877
9.26748 7.18236 7.83003
9.56258 7.34686 8.17449
9.21176 7.31746 7.93519
9.09892 7.09925 7.73115
8.65702 6.91425 7.65998
9.38954 7.63222 8.52887
9.1543 7.11977 7.793
9.32619 7.67194 8.43227
8.75039 7.26238 8.08172
9.34646 7.01176 8.04117
8.99593 6.98326 7.83715
8.90609 7.22105 8.16315
9.25605 7.34722 8.45503
8.68773 7.08205 8.1625
9.21488 7.17599 8.05791
8.80261 6.91683 7.97798
8.43153 6.98602 7.97777
8.802 7.40661 8.68167
8.83431 7.05533 8.14454
8.6421 7.11496 8.44083
9.1239 7.05562 8.14732
8.81687 7.22453 8.46872
8.93337 7.3399 8.58776
9.01388 7.33643 8.50419
8.21426 6.80835 8.15727
8.58576 6.7111 7.97348
8.35614 7.37651 8.8402
8.67562 7.28798 8.64916
8.39895 7.55706 8.95991
8.3232 7.28581 9.11188
8.81869 7.41712 8.79147
8.6132 7.07573 8.5701
8.41812 7.20145 8.66096
8.42007 7.61246 9.3722
8.62506 7.51649 9.0286
8.2707 7.14883 8.87803
8.20801 7.24624 8.99791
8.14762 7.26173 8.83616
8.46182 7.67017 9.745
8.69597 7.51248 9.34014
8.36449 7.55939 9.52149
8.43673 7.38216 9.17707
8.68634 7.43182 9.53299
8.64733 7.35026 9.12515
8.42273 7.27638 9.09827
8.057 7.23615 9.15491
8.30361 7.40109 9.38002
8.34722 7.68069 9.75064
8.40093 7.10012 8.83703
8.27855 7.62206 9.9276
7.92843 7.1845 9.62651
8.03342 7.00789 9.18862
8.18538 7.28596 9.17667
7.49322 6.7055 8.59958
8.33605 7.77852 10.1813
8.40002 7.78023 9.95646
7.5367 6.96474 9.14922
8.19981 7.97 10.6608
7.75364 7.20992 9.75378
7.57441 7.25391 9.59787
8.00867 7.50294 9.88795
7.76772 7.72242 10.5935
7.99563 7.41071 9.54547
7.47652 7.37565 10.361
7.96507 7.43469 9.63575
7.59466 7.64056 10.2871
7.77787 7.51924 10.3819
7.66129 7.3935 10.2109
8.28249 8.05699 10.9592
7.51002 7.43124 10.5201
8.43819 7.95199 10.6504
7.75844 7.57481 10.5009
8.38254 8.06726 10.9239
7.74055 7.60343 10.5135
7.43549 7.54409 10.6225
7.83453 7.73534 10.6073
7.57214 7.7004 10.5838
7.6746 7.80902 11.0653
7.76524 7.51987 10.529
8.04327 8.03998 10.9859
7.16425 7.35086 10.6349
7.41787 7.30138 10.4066
7.50892 7.54324 10.9689
7.3616 7.54088 10.4644
7.64147 7.66972 11.2369
7.53087 7.73414 10.8524
7.05772 7.648 10.9978
7.20865 7.42968 10.569
7.47869 7.64115 11.2082
7.76102 8.13536 11.6458
6.8301 7.45065 10.8003
6.97627 7.27915 10.5415
7.33142 7.59738 11.2339
7.55369 7.75171 11.2297
6.76702 7.1077 10.6489
7.62571 8.42921 12.4665
7.35586 7.34021 10.9997
7.2144 7.2837 10.9103
7.70058 8.24266 12.5673
6.97416 7.04204 10.3608
6.94267 8.05991 12.1317
6.87958 7.5708 11.3457
7.29891 7.93625 12.086
7.67683 8.01101 11.9641
6.85424 7.88507 12.0334
7.12367 8.2278 12.5639
7.36834 7.79376 11.4356
6.81676 7.42241 11.5732
6.54255 7.24797 11.4059
6.82265 7.45398 11.4664
6.80972 7.32108 11.3969
7.30923 7.5956 11.4571
7.27707 7.76199 11.5758
7.20371 8.34025 12.9726
6.7632 7.29916 11.843
6.6433 7.71782 11.8572
6.96664 7.17087 11.0839
6.38495 7.42039 11.6909
6.79892 7.395 11.2782
6.56988 7.70011 12.2468
6.77378 7.59624 12.2773
6.91756 7.93782 12.3767
6.99857 7.86664 11.9222
6.43574 7.62757 12.2828
6.53878 8.07338 12.8713
6.27794 7.29501 12.0694
7.31181 8.16775 13.1055
6.74156 7.7035 12.4498
7.16961 8.02705 12.8314
6.63116 7.68909 11.9896
6.01296 7.31099 12.0987
6.70318 7.8537 13.0778
6.64324 7.29026 12.0139
6.74535 8.08688 13.214
6.73431 7.32147 11.9786
6.27441 7.57167 12.2857
6.52712 7.74996 13.2119
6.70441 7.74161 12.3338
5.94512 7.49221 12.6954
6.66156 7.68045 12.5365
5.95925 7.02175 11.9081
6.37927 7.70363 13.1103
6.55275 7.63495 12.7491
6.97547 8.11919 13.3053
6.74192 8.19757 13.5072
6.58184 7.861 13.4439
6.40205 7.78636 13.3057
6.243 7.75742 12.7902
6.04064 7.34847 12.7448
6.39224 8.16285 13.5157
6.57823 8.29992 14.499
6.28392 7.85869 13.3307
6.31364 7.78477 13.7831
6.4746 7.7867 13.0579
6.40983 7.65728 13.0842
6.65636 8.19773 14.2855
6.13736 7.49339 13.4265
6.63926 8.50973 14.2825
6.24224 8.1588 14.3096
6.5136 7.76084 13.3471
5.76731 7.47647 13.6244
6.44616 8.18149 14.4407
6.47879 7.87538 13.7501
6.14553 7.40617 13.3246
6.21797 8.07237 14.1813
5.95996 7.61987 13.6093
6.1852 8.23447 14.4978
5.98715 7.64873 13.6681
6.1631 8.02212 14.3258
5.87641 7.88575 14.0567
6.20908 7.89096 13.9492
5.73193 7.17958 13.2048
5.57811 7.57491 13.9037
6.37942 8.17498 14.4203
5.79329 7.62801 14.293
6.15494 7.8584 14.2932
5.97981 7.74483 13.8627
5.87985 7.91372 14.9328
6.12538 7.59752 13.7674
6.2564 8.07129 14.4243
6.41876 8.59485 15.7127
6.39349 8.43716 15.4388
6.05145 8.39094 14.8626
5.87475 7.54614 14.6228
6.00998 7.85262 14.2211
5.50479 7.56146 14.287
5.77515 7.95738 15.257
5.80962 7.65162 14.5837
6.24255 7.96074 14.9632
5.95501 8.0129 14.9579
6.09008 8.25971 14.8447
5.72874 8.02009 15.2693
6.00239 8.07344 15.0128
5.89772 8.13314 15.2882
5.48775 7.53679 14.5575
5.4534 7.33063 14.3613
5.75736 7.98138 14.5288
5.38459 7.93779 16.0118
5.76291 8.13099 15.4915
5.77354 8.04757 14.8855
5.92483 8.26425 16.4884
5.64361 7.40796 13.9835
5.55171 7.98823 15.4848
5.50226 8.22983 16.2928
6.16412 8.38998 16.0476
6.01133 8.71908 16.8001
5.78229 8.1215 15.8663
5.4139 7.92688 15.233
5.56083 8.00545 15.6742
5.71904 8.36587 16.6476
5.5893 8.09861 15.73
5.70149 8.14367 16.8456
5.69646 8.1429 15.8359
5.5249 8.20038 16.7231
5.98673 8.46906 16.7769
5.87243 8.08152 16.0294
5.973 8.7757 16.682
5.36439 8.07946 16.2038
5.52001 8.08624 16.0961
5.32591 8.17778 16.4734
5.62603 8.07272 16.3831
5.20555 7.84781 15.9971
5.46122 7.80646 16.0586
5.95857 8.391 16.845
5.53792 8.70792 18.3617
5.32078 7.8377 15.9621
5.16954 8.02149 16.2481
5.5218 8.34568 16.8497
5.54565 8.22782 17.1997
5.61837 8.79614 17.5653
5.40378 8.0583 16.5437
5.73331 8.66792 18.0747
5.50862 8.35404 17.614
5.98221 8.81732 17.2175
5.45802 8.62892 18.7302
5.42223 8.07331 16.7404
5.61483 8.13287 16.7039
5.21927 8.43859 18.2046
5.24566 8.25862 17.2182
5.33601 8.35498 17.2219
5.37051 8.2768 17.6614
5.43153 8.34037 17.455
5.39975 7.93733 16.6189
5.38723 8.4043 17.2338
5.22227 8.31459 17.9095
5.48815 8.25849 17.0506
5.44768 8.18841 17.4154
5.30218 8.3294 17.8094
5.29397 8.03459 17.2209
5.07957 8.14252 17.8017
5.51 8.15582 17.4999
5.5232 8.7905 18.6127
5.11713 7.78757 16.5516
4.98488 8.04653 17.6163
5.14426 8.73144 18.6201
5.26684 8.2105 17.8522
5.20248 8.31528 18.4266
5.51089 8.5108 18.7495
5.16834 8.17784 17.9191
5.16508 8.01298 17.2854
4.84987 7.68344 17.1589
5.18965 8.63776 19.2742
5.10356 8.91464 20.4763
5.77854 8.99474 19.1526
5.08464 8.32154 17.8623
5.23596 7.92471 18.1066
5.33394 8.78983 18.2001
5.0878 8.39369 19.234
5.41922 8.47267 18.3294
4.83517 8.11528 18.1144
4.7001 8.08956 18.7153
5.42301 8.49754 18.7027
5.11117 7.92282 17.52
4.73406 8.27522 19.2446
5.1485 8.35311 18.9653
5.13121 8.35615 18.7025
5.11971 8.20371 18.5877
5.46157 9.02742 20.5359
5.27023 8.28453 19.4251
5.4296 8.87281 18.7658
4.9029 8.8028 19.9105
4.94983 8.20744 18.8427
5.53072 9.0475 21.121
5.44901 9.02464 20.2646
5.20554 8.31919 18.7904
5.13026 8.77536 19.1001
4.73324 8.60191 19.3959
4.96976 8.25207 19.2256
4.85036 7.94011 18.5228
4.48601 7.9487 18.8872
4.8737 8.39587 19.0131
4.61795 7.88074 18.7971
4.63244 8.36067 19.4842
4.71332 8.21824 19.6536
5.03498 8.65264 19.9085
4.89295 8.7281 19.7267
4.82386 8.37304 20.1335
4.9855 8.38671 18.9689
4.48556 8.03817 19.3867
4.50911 7.98661 19.6053
4.96614 8.41023 19.2116
4.45582 8.1167 19.8791
4.8607 8.46059 19.5237
4.73373 8.06577 18.9884
4.55296 8.1209 18.8068
4.57786 8.85615 21.5225
4.98815 8.96211 21.9229
5.00961 8.65945 19.8846
4.3991 7.93681 19.3057
4.85609 8.75375 21.4763
5.10478 8.90163 20.9787
4.85016 8.73653 21.0497
4.96732 8.9131 21.9427
5.024 8.67199 20.8324
4.83203 8.95923 21.3679
4.62286 8.8746 21.5752
4.87337 8.91186 22.525
5.05748 8.62231 20.5731
4.97646 8.96161 22.1602
4.93265 8.76955 21.211
4.66037 8.71603 21.0642
4.78661 8.16997 20.8561
4.93295 8.9352 21.2772
4.47232 8.41702 21.224
