# pn-170911/RbIIR-41-WTZR-1280-1959.psd
# Power spectrum* (dif=0,1,2) (really just |FT|^2)
# NOTE: only the first half! (symmetric)
# weeks: 1280-1959
# 19 clock-days, 0 excluded
# PSD: 1441
879.073 0.0343114 0.0353711
14704.6 0.319452 0.0374676
87118.4 1.60667 0.0199392
9528.3 0.41621 0.0362056
30382.2 2.11352 0.0223249
6421.63 0.603727 0.0171374
3942.14 0.482455 0.0291324
3246.34 0.614983 0.0413043
1951.71 0.46697 0.039222
1270.2 0.461429 0.0329091
1400.09 0.664943 0.0326745
1184 0.523875 0.0143688
1175.06 0.823386 0.0288182
745.085 0.419805 0.0218307
547.561 0.5378 0.0561772
323.395 0.388306 0.0253497
555.529 0.578677 0.0348742
619.009 0.600309 0.0283773
561.793 0.801064 0.0235872
354.097 0.563927 0.0289412
527.864 0.908193 0.0198616
304.765 0.708504 0.053799
345.937 0.688144 0.0215936
386.142 1.20631 0.0296895
252.277 0.767606 0.0427594
431.575 1.24061 0.0255822
356.044 0.896215 0.0322253
301.082 1.11691 0.0269186
466.163 1.32562 0.0309624
282.163 1.04607 0.0312543
328.275 1.48847 0.0336389
371.105 1.38124 0.0646548
479.231 2.02517 0.0317125
224.302 1.0417 0.045778
340.431 1.56995 0.0288294
214.854 1.06891 0.0275062
259.071 1.55517 0.0446363
253.515 1.39217 0.0433046
146.49 0.869353 0.0565222
230.277 1.54153 0.0452491
282.831 2.03702 0.0458046
282.944 2.13429 0.0264829
309.145 2.57116 0.0368072
259.314 2.25393 0.0284777
179.968 1.84585 0.0447379
198.294 1.69031 0.0462427
395.13 4.19142 0.0664993
294.298 3.09708 0.0502589
428.045 4.64092 0.105293
172.771 1.8285 0.0326381
332.71 3.49308 0.0718575
338.173 4.13405 0.0705692
183.677 2.45189 0.0593858
206.682 2.63471 0.080133
285.914 3.39886 0.0651293
224.877 3.4019 0.0856727
259.349 3.40545 0.0816088
281.031 4.30081 0.0679455
173.65 2.77893 0.0686977
174.814 2.75001 0.0900179
307.169 5.43723 0.140109
210.241 3.42447 0.0856276
191.587 3.53052 0.096266
193.188 3.63138 0.0836649
187.871 3.65236 0.0904966
294.749 6.17734 0.143016
214.112 4.45986 0.124424
163.536 3.69656 0.103004
250.445 5.24785 0.126011
143.258 3.18843 0.111618
244.133 5.49057 0.18066
274.273 5.92545 0.17141
251.051 6.44912 0.187075
224.166 6.11196 0.161721
216.833 5.58195 0.168665
236.995 5.91714 0.171013
209.14 5.05974 0.186678
171.39 4.37329 0.166442
174.287 5.16288 0.142522
201.008 6.15854 0.203356
203.282 6.48124 0.195247
290.176 8.86758 0.308882
287.077 8.62202 0.262528
217.449 6.75125 0.223378
161.177 4.8716 0.217313
220.634 7.6835 0.333551
207.227 7.03741 0.230243
215.835 8.2008 0.282313
227.909 8.71872 0.367306
310.465 10.9794 0.414542
211.355 8.22855 0.349781
296.374 11.476 0.443808
182.759 7.03478 0.301005
200.553 7.87116 0.328199
191.156 7.3254 0.343606
201.434 8.79358 0.35188
300.187 13.1578 0.627617
151.863 6.58572 0.312832
120.784 5.47613 0.273211
196.697 8.40111 0.449371
181.288 8.73045 0.428342
173.449 8.3239 0.458092
200.028 9.79579 0.449898
173.878 8.67246 0.405257
227.804 11.6328 0.603116
200.74 10.09 0.57249
142.423 7.7147 0.443667
131.457 7.07676 0.473702
158.182 8.49636 0.516804
148.492 9.27684 0.535059
193.867 10.5017 0.654943
166.235 9.66971 0.589517
154.63 9.28903 0.634276
145.594 9.3981 0.63648
191.068 11.887 0.867844
265.987 15.7068 0.933835
152.306 10.7217 0.745436
172.305 10.3662 0.684378
133.063 8.64701 0.5299
153.55 9.71012 0.681199
192.833 12.6067 0.91319
107.528 7.31178 0.531564
156.99 11.2053 0.808044
93.7426 6.73106 0.500884
174.354 11.9259 0.905741
96.5359 7.36297 0.658477
138.19 10.5448 0.751377
109.98 8.44729 0.796549
174.99 13.1538 1.16194
165.1 13.675 1.10609
160.417 13.0769 1.02102
127.277 10.1557 0.80344
91.0878 7.27784 0.628507
115.502 9.47019 0.834382
136.585 11.9073 1.08742
109.926 9.40117 0.922868
136.165 11.0295 0.871393
140.879 11.8778 1.00071
189.923 15.7991 1.4319
191.128 16.0374 1.47845
179.544 16.514 1.48227
126.766 11.6808 1.1278
78.8513 7.02203 0.783261
127.032 11.7652 1.15356
131.218 13.8092 1.3874
95.5147 10.0338 1.0975
129.41 12.1562 1.12608
132.133 14.0745 1.27957
114.752 11.3212 1.17594
108.125 12.2219 1.346
105.024 11.3294 1.20188
132.615 14.338 1.49524
129.702 13.7444 1.57903
89.5848 10.2363 1.21829
117.858 12.3369 1.19019
155.196 17.1694 1.86656
90.1024 10.4329 1.22259
121.528 13.9396 1.58166
67.562 8.53019 1.10215
65.6425 8.03074 1.05462
158.878 17.0087 1.92968
108.932 12.1652 1.35027
104.091 12.6132 1.50194
93.0217 11.4913 1.4171
125.431 16.7551 2.26586
97.8622 11.879 1.49376
123.578 15.6196 1.94148
159.505 20.1468 2.51342
76.4715 10.119 1.43839
84.0154 10.9306 1.46605
86.0559 11.3048 1.69539
99.7469 12.4537 1.68642
61.903 7.97236 0.987288
87.3756 12.1681 1.7097
128.564 19.1898 2.87226
149.463 21.6129 3.06049
156.239 21.69 3.18995
53.7838 7.60129 1.04823
70.5196 12.2144 2.03702
103.84 14.6154 2.14879
78.05 12.0868 1.91859
81.6909 12.8066 2.10644
121.518 18.3723 2.6544
118.446 17.8397 2.79951
99.6972 16.2026 2.49502
131.138 21.3377 3.38345
101.073 16.3434 2.60056
71.0844 10.9743 1.82
147.105 24.2458 4.09191
101.682 16.2126 2.79457
104.46 17.0831 2.75761
116.265 20.9373 3.5364
95.321 15.7529 2.77565
83.3143 14.4731 2.63216
69.0986 11.719 2.13226
117.841 20.9846 3.65605
76.7886 13.4806 2.38718
87.8414 15.6567 2.77217
65.2524 13.3304 2.54011
93.5773 16.2281 3.16112
78.5012 14.9509 2.95137
110.722 19.52 3.60545
77.4668 14.2509 2.66466
136.475 27.1709 5.26839
111.909 22.2742 4.4247
68.654 13.2808 2.50006
103.157 19.662 4.0693
94.63 20.0408 4.36178
86.21 17.2399 3.23913
81.886 16.0117 3.21377
66.8995 13.8869 3.08336
70.8448 15.1365 3.14016
95.8495 20.4457 4.11583
47.1157 9.19232 1.97368
70.9953 14.2727 3.19143
108.924 22.7525 4.96694
99.1107 22.1688 4.42756
79.632 17.2735 3.69519
88.5928 20.9367 4.98526
92.8763 19.6691 4.29787
85.1868 18.7217 4.30069
100.09 24.3916 5.79782
124.444 26.5695 5.78117
70.5741 17.9917 4.68806
53.2596 12.8909 3.24046
75.5813 16.2014 3.41591
55.4258 13.4802 3.40862
55.9309 14.7401 3.85922
94.3576 20.2869 4.26887
45.6659 11.2502 2.69783
83.4916 21.1457 5.07459
79.93 21.2287 5.61535
53.9715 12.9079 3.34187
68.7907 14.9538 3.24338
64.039 15.6907 3.91621
63.4495 17.5806 5.24557
89.5157 22.8458 5.75592
62.993 16.275 4.08992
61.5013 17.8116 5.20359
72.5678 16.8197 4.05171
48.418 13.1328 3.97934
72.9016 19.1057 4.85825
67.8372 19.3386 5.41015
49.058 11.5377 2.98268
55.1283 16.0288 4.4926
65.665 18.4007 4.95023
83.8801 21.5085 5.65628
64.7783 19.3997 5.62957
75.0217 20.9636 6.01633
55.4165 15.9629 4.28926
85.8477 26.6757 7.88297
72.27 22.005 6.38081
65.825 19.9433 6.09066
63.452 17.4739 4.90736
43.5019 13.9173 4.42481
59.2033 16.1196 4.39075
61.463 18.4013 5.51019
69.1849 21.6464 6.65982
62.5384 20.4682 6.68302
56.6633 17.7374 5.3715
64.0331 21.7422 7.20586
75.3855 23.4443 7.39451
83.394 25.4467 7.37454
31.4502 11.0456 3.84071
63.6245 19.5418 6.10549
49.1502 15.8011 5.16684
62.6193 19.0868 5.65846
83.6687 27.767 8.93818
75.3016 26.9385 9.52591
49.5201 15.2196 5.15511
33.4992 11.4294 3.94515
55.1028 20.1114 7.11831
60.8883 23.2438 8.90943
86.0467 27.1033 8.69161
41.9574 13.0979 4.5296
44.8264 17.7809 6.515
46.2572 16.0362 6.21561
78.6287 27.2109 9.18647
49.1741 17.6601 6.10733
38.7018 15.0152 5.69702
55.4809 18.1435 6.06327
47.7201 18.1901 6.79971
69.9443 24.2923 8.86108
51.5997 21.5507 9.06778
69.2465 21.5004 6.8491
47.2287 17.3601 6.30286
48.8542 18.2173 6.68664
43.1494 16.2639 6.18583
80.6573 31.9186 11.8516
57.6803 21.5363 8.86924
61.1637 22.7925 8.79223
70.0997 28.6549 11.4514
51.7422 19.2469 7.61802
52.007 20.1032 7.7764
52.8758 21.9379 8.88198
77.9417 29.5199 11.0499
38.2201 16.1461 7.52393
52.9603 21.0555 8.14427
32.8767 12.1466 4.94645
52.4404 18.7054 6.77397
32.5136 14.3643 6.28197
34.5312 13.7512 5.56058
42.9122 17.8963 7.02304
56.7521 25.7812 10.6799
46.5735 20.6542 8.43705
39.1749 16.7801 7.68479
42.8871 19.554 8.84803
44.2615 19.7251 9.46396
68.9149 30.4784 13.5746
77.4382 31.0912 12.4623
61.6016 25.401 10.3725
60.2292 28.7061 13.7702
58.74 23.1484 9.05471
41.7115 17.5105 7.14684
56.3217 25.7316 11.7315
62.221 28.4499 12.8314
28.5758 14.2597 7.58828
55.0939 24.4089 10.4437
49.6074 21.9522 9.03963
44.051 21.7196 9.93079
36.9889 18.6403 9.87754
59.1139 27.6902 13.2714
37.6709 18.1063 8.5847
35.2173 16.1052 7.83457
55.3865 25.8485 12.0335
35.8613 19.1297 10.1732
56.5631 26.4123 12.0043
38.3371 17.3805 7.99921
34.0463 18.8807 10.5391
46.9843 22.92 11.1434
35.089 16.8566 8.1999
60.8412 27.157 11.7211
29.3969 18.2377 10.9434
45.826 23.8793 12.1828
26.6354 13.3913 7.43564
53.1903 23.9518 11.109
43.1551 24.0551 12.55
33.1835 18.8643 10.8121
53.2447 23.8115 10.9384
60.3696 32.2822 17.3939
42.1188 21.4026 10.9155
29.3022 18.0886 10.8393
40.2501 21.159 11.3783
59.6625 31.6551 16.4209
33.0508 15.6856 7.67867
40.4935 23.1053 12.9097
43.3096 25.1768 14.0914
42.9144 22.2857 12.1718
36.9854 19.412 10.7076
57.1254 31.7236 17.0629
38.6117 22.0042 12.3757
44.4864 25.7827 14.2558
38.611 19.4766 10.1565
43.1465 25.5278 14.0725
34.3405 19.9747 11.8409
24.3607 13.6521 8.37126
35.3024 18.6137 10.5229
39.1539 22.7731 13.2602
38.5583 21.414 11.5847
44.4333 26.2716 15.1852
35.0669 19.517 11.6297
43.7593 25.0334 14.1695
31.7195 21.2421 13.8999
26.4111 12.4736 5.80265
20.589 13.1893 8.52775
26.0081 14.7397 8.33908
35.2405 21.6217 13.1689
51.7974 28.112 14.0354
27.0919 21.5747 15.1896
38.3477 21.2123 12.4601
34.4762 22.7666 13.8964
25.4676 17.231 11.5757
26.0731 17.7851 13.3141
35.6576 21.0819 13.0846
34.8524 17.3099 9.64325
39.3561 25.5103 15.7506
40.5513 26.7749 16.6778
29.4593 17.4185 11.1158
39.4065 24.9522 15.7121
30.4553 18.3667 11.703
27.8725 19.0363 13.426
43.8987 28.8397 18.8419
33.3603 21.0104 13.5488
58.1669 36.1196 23.1052
31.0543 21.1947 15.9324
42.4614 27.6717 18.7157
41.7542 26.8019 16.5722
36.4377 24.6989 16.9199
40.9234 25.7684 15.9773
24.0179 15.7137 10.1408
30.4032 24.0612 17.5692
22.1505 16.0713 12.522
32.1467 18.8706 11.6867
23.4534 16.3316 11.4683
31.6966 20.6332 13.8949
45.0152 28.3312 17.6263
30.8068 22.7215 15.9999
21.3263 16.9489 13.7035
37.4624 24.4874 16.5288
42.5518 31.2444 22.578
32.6758 21.6998 14.8555
26.2136 19.8707 14.5307
24.9117 17.4217 13.7356
44.7056 31.991 21.5539
35.0552 27.2128 21.3816
26.7872 19.0839 13.9853
23.1292 16.5229 13.4906
24.3069 15.714 11.2463
37.0611 26.0023 18.0548
28.7728 21.0281 15.0992
25.6899 18.7074 13.5887
20.3704 14.7089 11.6353
37.0156 27.8154 20.0752
37.4546 30.2541 24.0284
46.6866 32.5917 22.2342
24.312 21.6505 18.1062
27.0104 18.5223 13.5558
17.7218 16.2559 14.5571
17.5435 14.2179 12.9138
30.6946 22.3304 17.4495
22.2644 15.6431 12.2536
34.709 23.6252 16.089
21.3193 18.5268 15.4901
26.4574 20.3056 15.3491
23.375 19.3044 16.7716
36.8525 27.3319 21.3072
29.6597 26.0971 23.0436
26.3398 20.9592 17.2314
17.6996 10.5877 6.51357
28.0142 22.4827 16.9378
30.5028 27.8004 22.8934
22.68 17.8886 14.867
19.7918 17.2859 15.7326
25.1162 19.5531 16.7478
31.13 22.0424 15.4682
33.5826 32.6214 29.175
30.6511 23.0038 17.5138
33.3191 33.4812 32.0145
26.1126 16.8573 13.2642
24.6431 20.1498 15.9614
18.7639 14.6347 13.1158
29.3507 23.8474 19.6248
30.2951 26.2575 21.8336
27.1236 28.6783 29.7268
30.5984 25.3143 24.891
30.363 21.3342 14.7533
29.269 25.8781 22.4194
26.2741 20.5079 14.7722
19.8966 18.142 15.6309
27.2091 25.9273 23.1469
18.7737 17.3177 15.4393
22.7958 21.8779 21.7178
29.0653 27.5842 27.431
41.013 32.7117 25.373
15.2919 14.4237 14.6801
20.9231 15.6677 12.6388
23.6604 21.1351 18.9391
19.179 15.6525 12.9392
25.631 24.8849 22.3995
33.4483 31.1821 27.9821
16.6876 16.6016 16.8555
24.6279 22.1697 20.92
29.5483 26.1251 21.3124
17.2388 17.3093 18.0128
23.1212 23.9976 23.5417
20.1745 21.5536 24.7154
29.5865 25.5795 22.5622
27.0125 27.1094 25.6166
21.4754 19.6653 19.1151
22.2206 20.1827 18.784
15.2483 14.7841 16.8854
34.0582 31.5859 28.4134
35.498 35.6143 35.1098
24.9751 19.9123 15.8445
22.3354 23.6931 23.2825
22.169 22.0461 20.6597
17.5959 19.5201 21.956
23.3213 21.3226 20.7941
21.2587 21.034 19.6385
22.3275 23.3141 26.3623
38.8781 34.9544 28.7967
22.1733 25.6317 27.4769
19.7452 20.2148 21.6661
23.843 25.0186 27.8166
29.6304 25.6074 21.4255
25.5057 27.975 28.5746
18.7483 19.517 20.3958
22.5968 24.2057 24.6055
27.8256 30.4258 33.4634
23.5966 22.0343 21.155
17.625 20.0398 22.2655
26.3969 28.143 28.6421
18.484 18.2102 19.2677
18.8469 19.1274 17.7644
15.8196 20.0309 23.7794
18.2895 18.5703 20.9454
24.4615 26.4901 29.4674
23.8192 22.2312 20.2696
20.3363 22.8552 23.8518
15.5201 15.5104 16.5699
17.8187 21.2722 23.5599
16.63 17.2041 19.8784
25.9874 28.9032 29.5595
23.836 26.6244 28.5772
13.2127 14.1061 17.8361
22.5002 23.8037 25.0145
17.4754 20.0498 23.4855
13.1696 17.3162 25.5284
24.8672 21.3638 20.0882
25.5701 28.0504 29.2481
19.9816 24.2712 27.223
15.2433 18.1278 23.4611
22.3561 23.8371 27.8868
26.0826 25.0301 24.7982
18.9521 20.4654 19.9322
13.8608 17.2737 22.1837
17.5213 19.7534 20.9006
19.7989 20.3113 19.5775
15.3727 23.2268 29.3919
20.993 23.7559 27.1299
17.1346 19.5044 24.464
19.4511 22.4358 26.4184
21.8395 25.5177 28.5369
16.0285 17.6185 21.7314
21.6985 24.8691 27.8478
19.6088 23.5017 26.5081
21.6532 23.8191 25.7973
12.4131 18.6041 26.7401
24.5541 28.0216 33.216
21.4747 24.9925 29.2535
21.9184 26.4372 32.0716
17.1362 17.4564 19.4135
13.0693 16.5416 22.5541
22.8142 24.4133 24.3608
13.5432 17.1276 20.9274
14.0802 21.6734 31.2089
16.7376 17.9229 21.7908
21.1528 25.4787 27.0531
10.1682 14.6996 23.0128
14.3695 15.2757 18.648
19.846 24.8869 28.9557
18.1284 23.1872 27.3754
13.0644 17.1061 24.9714
18.0761 19.1428 22.1819
22.4713 27.4605 28.6535
14.863 20.4257 28.0347
13.7698 16.5805 21.0049
13.3304 14.5115 15.6375
10.5883 15.3619 20.398
17.8867 24.2881 31.8322
21.0496 28.8397 36.2773
13.5277 16.0028 21.1849
23.2803 27.3792 30.3134
21.1735 30.7668 42.2844
17.4193 21.3037 27.3602
12.8617 17.3888 26.2636
18.8418 22.5744 27.3258
17.0894 21.3692 24.8883
13.9134 20.3909 28.5939
19.0826 25.1812 31.9351
10.6731 15.3911 24.8964
14.8234 18.6842 23.2826
12.9655 21.6091 35.617
20.9434 24.0787 29.7955
12.8401 14.6461 18.8227
15.0374 18.9372 23.07
12.508 19.641 29.4534
11.1986 13.3681 19.3985
12.3819 15.4884 19.384
12.7833 16.7373 20.63
14.8191 20.624 27.0776
14.1875 22.2286 30.7553
16.4351 20.7281 27.3349
18.1592 26.8122 38.6167
15.109 17.9818 24.4912
13.1249 19.7839 30.2757
22.3494 27.9053 35.8787
20.37 27.8575 35.2586
11.241 15.6863 19.9674
8.42471 14.5739 24.4808
13.677 21.1077 36.1034
22.9229 26.2448 31.3539
13.5062 17.7266 25.164
12.8661 17.359 22.8132
14.4156 19.4867 24.3388
9.49447 15.6435 24.2136
11.3642 16.9041 25.9816
13.9364 17.7101 25.3433
17.1453 28.6883 44.3767
16.1655 19.3128 25.7239
15.4612 22.204 31.4819
16.8321 24.0101 35.8118
19.1805 24.1541 28.2587
14.2976 21.016 26.2742
6.37185 13.0799 29.2132
21.6315 28.0577 35.2672
15.2332 23.9899 33.4341
14.2725 20.8978 29.75
12.9252 20.4695 31.3257
11.8626 18.1849 31.2805
20.892 30.6465 43.2533
16.9117 23.9237 34.5949
10.0241 14.8041 26.9331
17.8597 24.5179 33.506
13.8967 19.021 26.5809
13.2351 19.7711 28.9619
13.3373 22.0298 34.5358
14.4306 21.8682 34.9254
16.9739 20.6985 27.0941
11.0879 19.7172 30.547
10.5573 17.3009 31.0586
19.141 27.2565 36.8576
8.81382 13.6034 26.4661
16.3451 26.9249 42.2093
13.9068 20.4171 37.0054
15.41 18.3179 22.9774
11.7584 18.9071 28.0008
15.18 26.5776 43.1042
14.8184 20.8485 28.5612
9.90267 14.3613 22.626
9.01787 13.1861 22.8074
14.5701 22.2763 31.1623
13.6835 27.2354 47.2068
14.3309 20.3138 29.2063
7.52553 11.7433 21.4397
8.73107 12.6126 20.7693
10.2902 17.2535 31.3232
20.7406 33.4481 44.5857
10.9814 21.2898 38.7661
11.7574 19.0742 34.7388
10.7962 12.7387 21.7774
11.8142 14.8378 18.6693
10.7906 20.628 36.9333
14.3401 22.4582 32.8375
7.15824 10.9768 22.054
12.3271 16.1735 19.5233
10.6267 22.5861 40.48
13.4656 20.6791 28.5337
7.25867 13.7278 28.6907
12.8095 18.396 31.2701
16.8549 26.9653 42.2921
12.3127 18.4339 29.1676
9.85374 16.7643 26.4741
8.71577 14.4209 24.496
10.0799 19.395 33.5369
13.2148 23.2403 36.9967
10.568 16.0977 27.6117
8.87059 15.8837 29.019
9.03584 16.5932 33.2779
8.0789 10.5054 19.2426
9.27201 15.7511 30.3764
18.6167 28.8303 37.1892
11.337 21.8395 36.9481
8.37856 16.9684 38.5542
13.0244 18.2176 25.5287
12.1582 24.1469 45.7234
13.4113 19.7023 30.3334
7.43545 9.92108 16.8218
8.50918 16.7426 30.957
10.8013 16.8696 26.1013
9.25622 19.9204 41.4478
14.3102 19.6877 28.1876
8.37081 13.4737 25.1881
12.5986 20.8352 29.1351
6.51401 13.5531 28.495
8.20401 12.7849 24.0826
9.658 14.2476 22.9176
13.9952 27.8379 43.9898
8.4901 14.171 26.4685
8.16978 15.4331 30.0167
10.2252 16.5273 26.6284
6.89084 15.0454 37.5317
19.3702 34.5344 51.0008
10.0355 17.2023 28.7687
7.22137 14.6165 25.9376
7.9211 17.3892 34.1336
7.98818 16.7383 36.4496
10.4617 17.3701 30.526
8.47723 17.4635 39.9491
11.4032 18.8614 38.1931
12.0948 18.5031 32.9723
8.83228 11.9132 19.5504
9.94673 18.4691 30.0197
7.94375 17.0747 33.3809
10.3708 16.9126 28.8325
10.2345 16.9981 29.0617
13.3424 28.9662 53.95
10.0655 13.3353 23.2206
9.6267 21.3733 41.3058
10.9547 20.3326 41.5512
11.1097 20.1583 39.9454
12.8734 22.3471 37.1674
9.20283 19.0067 45.6319
12.4247 18.5941 31.5706
10.2706 14.6374 19.4398
6.18782 13.554 24.9274
6.47654 14.3705 33.5327
8.80874 16.3722 34.9071
9.86983 14.6499 21.7205
6.70419 12.4347 23.134
7.73373 13.7393 24.7034
8.77516 18.3447 39.6586
11.5325 17.7463 24.9317
6.98006 15.7168 32.1858
8.75703 16.1746 29.1661
9.47474 19.1411 34.267
9.17271 19.8074 35.7249
7.47145 16.577 33.3661
7.45527 15.7486 31.4818
5.38284 11.8576 33.4674
12.0595 21.5211 34.2472
6.46722 14.1709 32.5386
8.14382 14.6921 28.3145
7.38731 16.1669 34.6403
8.07371 13.5798 26.3915
9.4666 18.9997 37.3172
8.51609 14.3869 23.9082
8.7037 19.4836 40.9544
9.26888 18.0181 34.3844
11.6213 28.0202 59.6737
9.21148 15.0528 35.1553
11.8804 21.231 32.8621
6.14378 12.5449 26.7725
7.59165 16.0615 33.7597
8.92404 19.1292 38.4502
8.27172 17.0836 34.3019
8.01819 16.8035 33.472
6.38241 12.0629 27.2973
8.79255 19.5289 35.638
7.03144 16.6261 35.4193
6.97686 13.8226 31.6482
6.08828 10.1037 22.6848
8.26273 15.2991 30.3938
6.86638 15.8857 37.4227
9.08875 15.6953 28.5836
7.30119 13.4004 29.3264
9.89158 18.6457 30.281
7.90841 20.3129 46.9247
7.59478 12.0651 21.8258
7.10249 17.0835 41.0319
9.97134 20.9147 43.4089
8.54788 14.3218 24.0627
6.24521 14.4902 34.5808
7.94967 16.3716 34.1255
8.8073 15.4454 25.8083
7.58174 17.0973 30.8005
4.63028 12.5463 36.3855
9.27281 17.1855 34.3178
6.98302 14.9082 33.4963
8.6116 15.6718 24.9172
6.035 19.6768 53.2008
9.08482 13.7694 24.8751
7.71235 20.13 42.6211
7.03912 12.0173 26.5677
9.3754 22.8131 44.4293
6.11845 12.287 31.6849
8.18771 18.9621 40.3011
6.84284 14.0384 30.4878
6.28768 11.3088 24.678
6.57888 14.9364 37.473
9.32998 14.2564 21.6637
4.07577 9.26409 28.5599
11.3101 24.0642 37.8833
4.60116 14.7605 50.8673
12.1043 22.1993 38.9244
6.09968 12.6884 27.6075
6.01531 13.9516 32.8793
7.58927 15.1215 32.3998
8.88044 21.5377 41.654
5.4508 12.3136 34.9476
9.96838 21.4766 47.4996
8.01983 14.1162 28.8288
6.71598 14.1017 29.9153
5.97383 12.9957 27.9977
6.31278 12.6614 25.9097
5.99533 14.5334 31.9542
8.05454 16.9949 34.9419
5.62907 12.8756 32.0931
7.13288 14.2276 29.855
7.31308 18.1303 40.7237
6.45491 14.0902 30.3195
7.39404 21.7968 57.392
9.54098 15.719 23.0774
2.27605 6.56479 21.3256
4.87385 12.9155 30.0346
7.3926 21.5237 51.1005
7.25082 14.9162 41.756
7.99188 16.205 45.0788
12.0813 22.6934 34.4462
4.96084 13.9051 35.4848
5.15159 11.2522 35.5266
10.7298 21.9835 35.6297
5.19708 12.6382 26.3193
5.69998 19.173 51.8817
6.88048 11.6921 28.0687
7.60526 17.8652 36.9076
5.96744 16.9698 43.1334
7.88369 16.6509 35.9936
6.11364 17.3452 45.6738
7.09131 14.2625 35.8819
7.77948 18.3329 41.9677
6.40498 15.6387 41.0276
6.90395 13.2466 36.9197
10.2075 20.7747 37.3128
6.70422 17.6523 41.8754
5.55774 12.6887 31.4359
6.16877 15.6698 38.6911
5.83671 13.7784 39.0641
8.90317 19.2274 36.1052
5.40212 13.7517 31.226
4.896 12.6723 31.0297
5.94694 15.4469 41.8148
7.765 17.4994 38.2624
6.01007 12.9763 29.5469
4.0362 9.57356 28.1768
5.74012 11.8578 28.8878
7.20288 17.8794 39.4306
7.52018 20.1793 44.7037
5.01795 11.4072 32.0525
6.12191 13.9241 26.2905
3.53978 11.185 36.3309
5.59776 10.1094 27.4041
6.69964 16.9427 41.566
6.65836 16.2664 47.7045
11.1557 26.2349 46.7073
4.72925 11.5169 32.0938
6.50528 15.9674 34.5972
