# pn-170911/RbIIA-35-RbIIA-1280-1959.psd
# Power spectrum* (dif=0,1,2) (really just |FT|^2)
# NOTE: only the first half! (symmetric)
# weeks: 1280-1959
# 1188 clock-days, 488 excluded
# PSD: 1441
21363.3 0.591195 0.0113016
3.09715e+06 70.6811 0.00850511
5.45945e+06 88.4631 0.0101477
1.50897e+06 38.7834 0.00821668
616723 26.7848 0.0101859
388071 20.4024 0.00962778
237863 17.0633 0.00921661
158340 13.0563 0.0117213
120484 12.5054 0.0111251
98027.2 11.6236 0.0109825
71522.5 11.0733 0.0124937
62185.1 10.8008 0.0137449
51081.6 9.63248 0.0140935
41061.6 8.6181 0.0157575
37362.7 9.15107 0.0153716
32220.5 8.87108 0.0166653
28442.2 9.75864 0.0205677
22862.4 7.43335 0.0173008
20788.6 7.26816 0.0183337
17720.3 6.95488 0.0194165
17059 7.70983 0.0222421
15246 7.72351 0.0229316
14068.7 6.84409 0.0239428
12631 6.89846 0.0239261
11622.9 7.39841 0.027688
10402.8 6.5577 0.0279602
9387.44 6.45599 0.0276839
9122.03 6.74623 0.0322922
8468.49 6.80973 0.0327564
7623.45 6.88801 0.0334106
7295.72 6.37008 0.0345447
6650.21 6.37534 0.0378708
6545.47 6.65351 0.0390212
5975.77 6.28119 0.038845
5500.84 6.37092 0.0425442
5241.39 6.23014 0.0427374
5053.03 6.50777 0.0483169
4787.24 6.44804 0.0517917
4573.16 6.52372 0.0513385
4239.7 5.65281 0.0477589
4190.24 6.17219 0.05409
3844.18 6.2147 0.0559303
3671.5 6.09828 0.0588163
3486.25 6.0373 0.0595351
3350.18 6.16129 0.0629078
3188.94 5.63366 0.064618
2989.32 6.10945 0.0696869
2846.35 5.5866 0.0650644
2801.34 6.13918 0.075115
2706.94 6.14482 0.0772429
2541.96 6.13457 0.0820294
2547.96 6.23681 0.083921
2342.24 5.77596 0.0812823
2410.27 6.28865 0.0898712
2141.67 5.80676 0.0879563
2111.89 5.84556 0.0914859
2027.99 5.95196 0.0944342
1949.17 5.62153 0.0956511
1925.65 5.53418 0.098019
1769.52 6.06614 0.107979
1780.51 5.72474 0.106068
1735.79 5.91119 0.109548
1610.81 5.49082 0.108525
1618.95 5.90769 0.117908
1599.82 5.81987 0.118709
1529.72 5.64791 0.121976
1485.88 5.792 0.128049
1448.91 5.44217 0.120029
1375.92 5.53576 0.128863
1334.09 6.058 0.146659
1333.67 5.59056 0.138043
1295.5 6.01331 0.151122
1245.46 5.94686 0.153914
1202.37 5.4951 0.142718
1192.67 5.54243 0.152599
1153.49 5.68992 0.161496
1136.8 5.85519 0.167873
1088.51 5.906 0.175396
1034.57 5.53244 0.167663
1022.62 5.04284 0.156186
976.153 5.45849 0.173054
989.865 5.42992 0.17627
931.306 5.5676 0.183946
936.186 5.76877 0.198371
904.046 5.75582 0.199541
892.408 5.61419 0.196635
822.353 5.39341 0.19816
851.967 5.34752 0.19911
848.976 5.37817 0.20171
798.884 5.64694 0.22309
775.108 5.46036 0.218585
753.198 5.4294 0.220564
752.724 5.60766 0.233839
743.179 5.56408 0.235175
728.359 5.29809 0.230633
720.867 5.59314 0.25158
686.866 5.3695 0.242532
680.88 5.28088 0.247284
667.262 5.55627 0.26243
649.672 5.62969 0.268458
614.944 5.22134 0.255981
619.691 5.37362 0.263449
616.382 5.75346 0.292729
603.232 5.39755 0.276294
590.585 5.43558 0.289164
584.933 5.51985 0.2955
585.388 5.54043 0.30106
567.51 5.55877 0.311915
531.531 5.21304 0.294702
547.521 5.49743 0.316408
532.477 5.88049 0.34353
516.811 5.25137 0.313198
503.084 5.62172 0.338978
511.93 5.51403 0.34789
476.353 5.33925 0.335388
459.98 5.55619 0.357157
476.537 5.76204 0.377529
476.602 5.63764 0.366205
450.089 5.48488 0.361589
462.834 5.53522 0.375921
446.717 5.5451 0.382219
426.443 5.76658 0.405991
429.699 5.51793 0.397992
408.102 5.50088 0.403079
428.883 5.67564 0.419546
393.55 5.47546 0.410969
398.64 5.53924 0.418298
392.594 5.27485 0.410804
392.966 5.498 0.434793
381.623 5.57777 0.447085
381.626 5.5265 0.453554
367.42 5.71395 0.468906
354.633 5.5922 0.465528
361.565 5.33212 0.454448
355.06 5.68532 0.486515
347.024 5.55502 0.480865
355.941 5.93943 0.524273
335.097 5.3563 0.488479
340.742 5.52782 0.496727
330.024 5.30342 0.494207
320.011 5.36303 0.5032
321.905 5.68026 0.543021
326.389 5.68698 0.546883
306.985 5.30246 0.519734
303.364 5.28482 0.524713
295.326 5.31788 0.539431
304.994 5.71165 0.577193
302.373 5.50166 0.565028
293.435 5.37697 0.555856
279.524 5.52589 0.584855
285.116 5.70413 0.610854
277.956 5.42314 0.589667
269.778 5.46196 0.606791
278.17 5.77645 0.653461
264.433 5.45822 0.621847
265.995 5.47087 0.623015
265.851 5.66633 0.659102
251.739 5.46916 0.642308
260.568 5.6281 0.674053
256.133 5.48296 0.655677
251.236 5.87243 0.724208
249.155 5.30094 0.659114
241.179 5.60453 0.706158
248.293 5.74855 0.720208
235.689 5.47364 0.701508
240.418 5.29828 0.687364
232.155 5.6572 0.741876
231.477 5.60207 0.74796
224.485 5.41181 0.723796
230.126 5.64285 0.763942
229.081 5.89155 0.797729
222.492 5.69797 0.785138
213.508 5.69138 0.797165
213.618 5.39107 0.768387
221.316 6.02527 0.872371
215.793 5.66113 0.82232
204.813 5.53073 0.811979
210.847 5.67085 0.838714
204.537 5.6388 0.849311
204.744 5.55691 0.852235
192.618 5.20413 0.795387
199.243 5.51388 0.866913
198.947 5.85319 0.91397
196.379 5.88351 0.924854
187.738 5.50947 0.878497
184.482 5.61117 0.911805
184.068 5.49347 0.890635
181.126 5.84656 0.962141
179.117 5.3597 0.89874
178.273 5.41063 0.912494
175.037 5.21859 0.887824
178.915 5.94132 1.02364
170.446 5.39696 0.943083
169.202 5.43439 0.952033
171.338 5.58988 0.997981
170.635 5.64856 1.02369
167.044 5.38356 0.971417
167.766 5.68803 1.04917
163.028 5.41029 0.995058
163.415 5.60445 1.05477
158.753 5.40546 1.02693
155.642 5.60482 1.06529
160.872 5.61134 1.08006
154.295 5.44827 1.05943
159.327 5.36519 1.05099
157.485 5.68843 1.12433
150.033 5.56458 1.10288
153.259 5.68553 1.14134
152.41 5.931 1.20421
146.176 5.64889 1.15377
146.048 5.65981 1.18174
146.35 5.67422 1.18561
142.582 5.40356 1.13756
143.558 5.73007 1.21311
141.772 5.59925 1.19674
137.854 5.6473 1.24056
132.837 5.63183 1.23161
134.759 5.35801 1.20116
138.455 5.57385 1.23471
139.407 5.78997 1.30527
134.224 5.31608 1.21699
136.857 5.94332 1.36224
133.202 5.83022 1.33457
129.254 5.6016 1.31831
131.572 5.5652 1.30688
127.093 5.51846 1.32184
127.293 5.68777 1.34599
124.823 5.62739 1.34728
121.933 5.51308 1.36409
125.485 5.69869 1.39012
120.269 5.58905 1.35868
117.265 5.58737 1.41236
122.154 6.0154 1.49679
119.162 5.32802 1.36635
116.678 5.59578 1.45221
119.649 5.54442 1.43304
117.389 5.72707 1.50108
118.82 5.93986 1.56316
115.756 5.71621 1.51088
116.332 5.54956 1.46788
113.127 5.32989 1.43948
112.51 5.54782 1.51053
111.581 5.81187 1.57879
112.94 5.46873 1.49142
108.248 5.4392 1.54505
108.695 5.57046 1.55818
107.496 5.55788 1.58362
106.678 5.6457 1.59659
110.419 5.71388 1.63602
107.343 5.73805 1.65389
104.342 5.91018 1.71862
103.243 5.59966 1.65898
105.315 6.04019 1.77212
100.321 5.49776 1.64294
101.421 5.60001 1.6729
100.709 5.93343 1.78798
101.331 5.47848 1.68539
95.6894 5.61786 1.73098
99.1575 5.55235 1.73825
96.4702 5.82355 1.81781
97.1927 5.72109 1.82701
96.2914 5.79871 1.82243
88.5392 5.27791 1.69554
96.9984 5.76907 1.87992
93.6188 5.677 1.84295
93.0133 5.46046 1.7897
92.7267 5.90281 1.9098
92.9794 5.69106 1.86827
87.2979 5.80157 1.94079
90.8442 5.42404 1.84235
85.6086 5.70162 1.92581
89.4491 5.27844 1.78895
90.4159 5.80646 1.98569
86.8243 5.56659 1.94931
86.1529 5.90565 2.02733
87.2596 5.46793 1.90321
86.8868 5.98545 2.12258
87.52 5.64748 2.02037
82.5015 5.28261 1.91291
84.6187 5.6459 2.00104
84.3953 5.76846 2.10424
84.8162 6.09959 2.22082
84.0483 5.4568 1.98645
84.2294 5.92714 2.21353
79.9973 5.60161 2.09282
80.894 5.75168 2.16579
80.6047 5.61865 2.12657
80.8893 5.85347 2.224
78.525 5.53297 2.09206
78.9636 5.95376 2.3236
81.4843 6.09298 2.36524
78.559 5.57162 2.20474
78.5995 5.95926 2.3427
73.8303 5.69731 2.267
75.5188 5.62519 2.17518
77.6726 5.72072 2.31341
76.111 5.88815 2.36729
75.8611 5.54917 2.23355
71.9257 5.77502 2.38604
74.0586 6.08867 2.46232
71.6697 5.85373 2.44041
73.1466 5.77686 2.42601
73.7222 5.89842 2.46017
69.14 5.91248 2.50995
72.7368 5.66022 2.3948
69.9394 5.58085 2.41985
71.1033 5.71562 2.4527
69.2404 5.78484 2.53575
67.174 5.66598 2.48592
68.6934 6.08374 2.64357
68.3997 6.00482 2.68308
67.8771 5.54941 2.44104
69.7333 6.04016 2.72257
67.4125 5.80056 2.60842
68.458 5.87345 2.6541
67.5704 5.77221 2.64353
66.5739 5.48938 2.55207
63.5886 5.48232 2.53769
65.7586 5.60889 2.58473
65.5293 5.62801 2.6651
65.1373 6.04613 2.82103
63.3761 5.84873 2.74368
64.5348 5.8008 2.69764
64.4292 5.73923 2.7926
62.545 5.83612 2.80963
63.6083 5.64607 2.68907
62.1355 6.14487 3.04761
62.1587 5.88769 2.82816
63.7411 5.74368 2.86845
62.7401 6.02625 2.95432
59.3406 5.81367 2.95014
63.5317 5.95107 2.96552
61.3309 5.64341 2.84826
60.4581 5.84717 2.97485
60.5447 5.86057 2.97731
59.9072 5.65103 2.89591
58.29 5.57297 2.8687
58.4855 5.87864 3.02404
57.2226 5.99735 3.1094
59.57 5.7974 3.07743
60.9716 6.11792 3.25776
58.3746 5.75224 3.04695
58.7877 5.74542 3.07535
58.1542 6.03261 3.17223
58.5054 5.60406 2.97243
57.6093 6.21626 3.39564
56.3834 6.17169 3.31924
56.6396 5.84557 3.23304
56.388 5.86473 3.26123
53.9136 5.9444 3.2925
57.5271 6.03901 3.40138
57.1017 5.93706 3.34286
55.1095 6.19558 3.43926
53.6476 5.83161 3.33972
54.5801 6.06626 3.39729
54.1565 6.0373 3.51977
52.7773 5.7792 3.36076
52.768 6.17519 3.55113
52.0026 5.92622 3.45964
54.1313 6.1196 3.52888
51.7818 5.53127 3.27054
52.9504 5.97715 3.46118
50.7904 5.90987 3.51167
50.2687 5.76459 3.41423
51.1825 6.13708 3.6657
50.9334 5.80419 3.55959
52.7315 5.86014 3.51566
50.9007 5.95397 3.62379
48.7756 5.56549 3.41137
50.0607 6.02064 3.7201
48.4821 5.89881 3.65524
47.7053 6.19511 3.82919
49.6343 5.68136 3.51387
50.0683 5.75124 3.62327
48.5598 6.09481 3.84674
49.5335 5.96425 3.73816
49.1439 6.17042 3.91326
46.9188 5.98972 3.82702
47.3735 5.80556 3.73606
46.516 5.9445 3.89896
49.5094 6.14022 4.00071
47.9122 5.86481 3.81262
47.6882 6.07529 4.06821
45.8205 6.29599 4.0726
46.6981 5.96939 3.89931
45.6885 6.05971 3.9872
45.9146 5.95873 4.03677
46.7808 6.0872 4.07872
46.4497 6.27404 4.2256
45.6194 6.20227 4.2256
46.4963 6.39507 4.33438
43.8459 6.12828 4.21377
44.5062 5.99834 4.083
43.4681 5.48136 3.78048
43.8691 5.70632 4.01798
43.5304 5.92447 4.06224
43.3336 5.44915 3.92994
43.6161 6.01129 4.16773
43.226 5.80055 4.10184
43.6897 6.1249 4.4011
43.3797 6.0727 4.32886
42.5101 6.02915 4.29779
42.9909 6.14327 4.40533
41.7253 5.98873 4.32827
42.2714 5.74938 4.091
42.5917 5.98136 4.46367
41.9153 5.78727 4.26365
40.6243 5.92337 4.39105
40.9245 5.38874 4.03677
41.463 6.00022 4.46001
40.3825 5.81552 4.40318
41.2303 6.23335 4.64262
41.22 6.09395 4.61299
40.2226 6.11471 4.70258
40.4783 6.01375 4.59852
40.3176 6.06969 4.62366
40.756 6.1595 4.84454
40.0024 5.59721 4.38205
38.847 5.8929 4.57243
39.9101 6.09208 4.80804
39.0616 6.12155 4.77428
38.8003 5.7129 4.46871
38.1051 6.06329 4.73545
39.2995 5.92716 4.69853
38.0817 5.9315 4.8504
39.9634 6.07165 4.80794
38.8702 5.91723 4.74964
37.0542 6.07086 4.93981
38.1182 6.24647 5.07417
38.2075 5.97947 4.81631
37.8687 5.95539 4.90736
38.1356 6.3119 4.99482
37.4055 6.27935 5.25164
36.8068 5.85025 4.8867
37.2744 6.25587 5.26385
37.302 5.9293 5.01051
37.8186 6.00083 5.00692
35.8922 5.94721 4.95706
36.3654 6.09872 5.15753
35.6642 5.85487 5.12115
35.191 5.81146 5.02114
35.5617 5.96908 5.16803
36.9316 6.35824 5.33549
36.1105 6.17714 5.41818
34.6639 6.30284 5.44182
35.1775 6.12143 5.42557
35.0279 6.18029 5.48642
35.4779 6.34532 5.39918
35.983 6.12677 5.38482
36.1237 6.47855 5.68448
35.0531 6.4853 5.68145
34.0392 6.22204 5.61458
34.1866 5.80378 5.19318
34.1349 6.15032 5.55273
34.8325 5.90707 5.32645
32.7575 5.82083 5.29872
33.7354 5.88589 5.38198
33.5298 6.05065 5.58725
33.5402 6.46657 5.92703
33.8977 6.26512 5.85498
33.1348 6.12655 5.68623
32.6909 5.87817 5.51033
32.9326 6.17755 5.80758
32.7419 5.83455 5.45466
32.6512 6.15546 5.85393
32.6972 6.07353 5.78647
32.5224 6.35076 5.98387
32.5853 6.49908 6.30942
31.7452 6.59907 6.19246
32.6918 6.25652 5.97699
33.0036 6.16555 5.9827
32.6273 6.40727 6.13707
31.1384 6.12734 5.98561
33.1905 6.43005 6.12224
33.2321 6.31994 6.20246
29.942 6.05299 6.02412
31.6658 6.13768 6.14635
30.666 6.35183 6.27349
32.5438 6.63557 6.46791
31.031 6.3086 6.30986
32.3414 6.36459 6.41056
30.4267 6.00239 6.1036
31.2251 6.30601 6.21644
30.3152 6.20266 6.3458
30.3882 6.41814 6.45496
29.9734 6.56201 6.7163
30.2724 6.12373 6.4434
30.5754 6.45379 6.58666
29.6673 6.04977 6.2282
29.9863 6.13369 6.4183
30.2657 6.30709 6.40345
29.8414 6.20634 6.61567
29.439 6.71771 6.93692
30.3025 6.43921 6.77607
28.5734 6.12249 6.45452
28.8143 6.25332 6.67649
28.8698 6.44492 6.86735
29.4532 6.37757 6.68322
29.1963 6.42006 6.84592
28.202 6.41434 6.91157
29.6958 6.47604 6.94213
29.7484 6.41397 6.97076
28.7259 6.32085 6.98965
29.2845 6.71878 7.20652
28.9996 6.4652 6.97658
28.4498 6.19988 6.77936
28.2051 6.26352 6.91057
28.7339 6.27002 6.89582
27.689 6.30514 7.10142
28.306 6.47965 7.30667
27.9216 6.26474 6.95051
27.2268 6.62696 7.48641
28.4347 6.48521 7.29378
27.6237 6.35418 7.11207
27.9466 6.77801 7.78172
26.9127 6.22849 6.97023
27.1733 6.85379 7.81479
27.1259 6.34906 7.40838
27.9003 6.23705 7.00035
26.6546 6.4176 7.45403
26.7436 6.66419 7.71296
26.263 6.40399 7.43812
27.6904 6.59383 7.56065
25.6342 6.03653 7.14999
26.4844 6.45572 7.42765
26.4816 5.98305 6.98035
25.5417 6.29746 7.43148
26.3545 6.23577 7.58867
26.4731 6.4538 7.72186
26.0247 6.54776 7.85839
26.0499 6.34268 7.44412
26.1206 6.68064 8.17376
27.7742 6.88143 8.05363
25.0346 6.20435 7.70691
26.3401 6.61596 7.9261
25.4048 6.40193 7.89266
27.0468 6.64975 8.16601
26.0519 6.66383 8.04822
25.162 6.68225 8.2226
25.8915 6.77496 8.21089
25.7271 6.77375 8.24766
24.7651 6.36028 7.95523
25.2136 6.65707 8.17386
24.5916 6.61724 8.27611
24.247 6.51633 8.27986
25.5373 6.8062 8.36374
25.0066 6.81086 8.74746
25.479 6.62818 8.3998
25.2808 6.55389 8.0598
24.3202 6.77483 8.53947
24.4027 6.46625 8.35349
24.853 6.57335 8.50821
22.8167 6.36447 8.30825
24.5487 6.66067 8.49212
24.1514 6.44592 8.4606
24.4219 6.54623 8.1985
24.3308 6.6692 8.62419
23.721 6.66009 8.80957
24.4555 7.18905 9.49967
24.5191 7.26381 9.44395
24.5558 6.80148 8.99943
23.7636 6.48261 8.71287
23.7258 6.72472 9.00296
23.846 6.43436 8.46914
23.239 6.75546 8.81014
23.0289 6.59278 8.96467
22.9067 6.77101 8.95115
23.2654 6.60862 8.69607
23.738 7.02486 9.66094
24.2381 6.78237 9.0826
23.4993 6.93473 9.31903
24.1392 6.77715 9.30436
23.0533 6.88159 9.23586
22.1089 6.88646 9.30543
22.5029 6.7085 9.40921
22.4344 6.8847 9.43265
22.3509 6.83093 9.60337
22.3313 6.48177 8.8881
21.8998 6.35338 8.80682
22.7059 6.66624 9.73724
22.4615 6.80265 9.72793
23.0503 6.86717 9.44445
22.6262 7.09552 10.0344
22.4146 6.85827 9.49052
21.6765 6.78117 9.59532
22.2062 6.90334 9.86387
21.8593 6.91362 9.77319
21.5716 6.73455 9.4022
21.9265 6.6198 9.8153
22.68 6.76 9.82457
22.0628 6.79264 9.82888
22.0198 6.81907 9.70712
22.3924 6.99928 9.87111
21.8445 6.72532 9.91201
20.9497 6.80883 10.0167
21.6877 6.57067 9.45546
21.5333 6.7371 9.87693
20.4303 6.2922 9.52039
20.9504 6.72134 9.88902
21.2313 6.7255 10.1395
21.3139 6.85598 10.1543
21.4705 6.76608 10.1244
21.0716 6.48106 9.88432
21.499 6.8379 9.91916
21.2077 6.74616 10.0554
21.728 7.22502 10.9511
20.912 7.07415 10.328
20.9866 6.69383 10.1624
20.2069 6.64926 10.4154
20.693 6.87069 10.5833
21.1565 7.11398 10.4554
21.0752 6.5281 10.0201
20.3488 6.56421 10.0838
20.8992 6.80221 10.4316
20.0678 6.72556 10.4361
20.7684 7.19181 10.8364
19.8424 6.47807 10.3316
20.5185 7.11133 10.8429
19.5609 6.95268 10.7093
20.8064 6.95265 10.7401
20.5914 6.69452 10.6223
20.0771 6.78503 10.4636
20.3441 6.69692 10.6949
20.2928 6.84063 10.9671
20.4783 6.82201 10.6005
20.0551 7.26309 11.3449
20.2222 6.78386 11.0795
19.2782 6.88222 11.0796
19.7951 6.89733 11.0364
19.2667 6.74938 11.1394
20.3563 7.12377 11.3263
19.2315 7.24 11.6838
19.741 7.22176 11.812
19.3071 7.00195 11.3132
20.0867 7.19848 11.8228
19.4392 7.13875 11.6643
19.5645 6.79248 11.2348
19.8514 6.88842 11.0802
19.3801 7.14494 11.5712
19.1651 6.8508 11.4148
19.8364 6.97712 11.4761
18.2482 6.60349 10.8436
19.7967 6.73314 11.3213
19.5662 6.92106 11.7961
18.8095 6.94381 11.435
18.6989 6.83247 11.3678
20.0859 6.98756 11.3942
18.354 6.62002 11.5227
18.4744 7.00191 11.9876
18.2708 6.73812 11.3004
18.6903 6.90358 11.721
18.7089 7.22427 12.0154
18.4332 6.64864 11.3784
18.3699 6.89161 11.8369
18.5328 6.83949 11.7371
18.3495 7.16368 12.3133
18.4656 6.79419 11.6772
18.0845 6.74857 11.7158
18.6995 7.14616 12.0144
18.0703 7.16578 12.6704
18.5002 6.74787 11.8487
18.8207 7.25024 12.4732
17.7905 7.01513 12.2602
18 7.25146 12.7803
18.2505 7.17546 12.5285
17.8344 7.08003 12.2827
17.9549 6.98779 12.7082
17.9608 7.19023 12.4009
17.8911 6.79595 11.9003
18.119 6.77104 11.8529
17.4097 6.81438 11.9178
17.9932 6.67851 12.2952
17.847 7.07472 12.6315
18.1015 7.10043 12.7087
18.7088 7.30696 13.1875
18.4134 7.244 13.3976
18.1305 7.06394 12.2808
17.7806 6.72985 12.4157
17.4441 7.09372 12.6428
17.8336 7.40853 13.2917
17.3824 6.73176 12.5612
18.2143 7.36535 13.7847
17.2552 7.02315 12.5322
17.1103 7.24955 13.8984
18.1939 7.55668 13.6664
17.6457 7.13688 13.0544
17.5228 7.3565 13.4278
17.7531 7.58563 14.3653
17.3059 7.0917 12.9739
16.9777 7.10687 13.6997
17.6668 7.28319 13.3623
16.6374 7.11787 13.4598
16.3212 6.79831 13.2222
16.973 6.7482 12.8698
16.5266 6.80702 12.8523
16.8139 6.71817 12.3021
16.3164 7.21505 13.8924
16.7617 7.25247 14.2012
16.9862 7.54713 14.8653
17.4015 7.55885 13.7044
16.6928 6.92992 13.4585
16.2802 6.75159 12.8508
16.5322 7.3551 14.3063
16.8832 7.44879 14.3157
15.946 7.4279 14.0461
15.9114 7.34277 13.8286
16.2228 7.03882 13.8913
16.3523 6.91995 13.8609
17.1171 7.69537 14.8845
16.0981 7.35328 14.4441
16.2022 7.31121 14.2099
16.9123 7.44061 14.238
15.7308 7.25053 14.1249
16.3823 7.08893 14.1718
16.1186 6.91883 14.1594
16.2303 7.31448 14.4055
16.0293 7.35379 14.3287
16.291 7.2521 14.2549
15.6267 7.65295 15.2447
16.2331 7.35523 14.7605
15.9725 7.68548 14.7462
15.9658 7.63465 15.6681
16.4237 7.71823 15.4273
16.0871 7.72424 15.9888
16.086 7.48491 14.9055
16.3019 7.12003 14.8707
15.9213 7.85772 16.0051
16.4402 7.42013 15.502
16.6129 7.79438 15.2886
15.4952 7.5186 15.3896
15.6136 7.30601 14.533
15.8748 7.40813 15.3443
15.4549 7.35054 15.1463
15.5288 7.4905 15.309
15.2082 7.40859 15.6399
15.6293 7.30237 14.7201
15.9069 7.2316 15.017
14.9932 7.51496 15.7614
15.9356 7.29155 15.0335
15.4344 7.47839 15.5314
15.5968 7.24427 15.2369
15.0768 7.65786 15.8571
15.1289 7.31455 15.3246
15.264 7.54453 16.065
15.0028 7.57769 15.6023
14.5509 7.21515 15.2376
15.0993 7.29263 15.4923
15.4849 7.61429 16.1233
15.4303 7.59964 15.982
15.2491 7.32584 15.3129
14.9301 7.55666 15.8305
14.9409 7.26148 15.7662
15.2166 7.63218 16.2598
14.6268 7.49238 15.9307
14.2494 7.37769 16.1707
14.3705 7.4121 15.5977
14.6686 7.62675 16.3662
14.8182 7.03794 15.7037
15.1234 7.81964 16.9161
15.0912 7.24913 15.7098
14.9069 7.61312 16.6999
14.9991 7.52139 16.3642
14.564 7.42961 16.8174
14.6162 7.42201 15.4743
14.8025 7.70226 17.0282
14.4232 7.47508 16.5155
15.2131 7.28723 15.7378
14.3394 7.16345 16.3839
14.6494 7.13784 15.3983
13.7718 7.53222 16.8753
14.9193 8.17307 18.0765
14.591 7.41831 16.5299
14.3767 7.55688 17.063
14.7713 7.57725 17.0553
13.7733 7.15604 16.0653
13.9948 7.56002 16.8552
14.8353 7.45502 16.7067
14.5012 8.01486 17.8896
14.7337 7.66922 17.0871
13.8609 7.48462 16.6628
14.1248 7.65141 17.4243
14.3966 7.49985 17.8178
14.3307 7.91372 18.3479
14.2788 8.12076 17.3817
14.1701 7.48686 17.7137
14.1242 7.80177 17.9636
13.861 7.55993 17.5011
14.2912 7.58505 17.2049
14.2126 7.40212 16.7402
14.4207 7.94694 17.2928
14.2603 7.46684 17.4776
14.2629 7.45592 17.4149
14.6825 7.82683 17.6673
13.9073 7.306 16.8663
14.0141 7.56649 17.6843
13.6518 7.5392 17.1098
13.7388 7.47486 17.8566
13.5451 7.92022 18.8824
13.8343 7.68909 17.8198
13.7354 7.49124 17.4544
13.6261 7.42759 17.7184
13.3402 7.33992 17.0356
13.1683 7.28224 17.736
14.1282 7.36118 17.5003
13.5294 7.94382 18.2181
13.6718 7.17973 17.377
13.7898 7.39315 17.681
13.4014 7.56468 18.1824
13.5592 7.90032 18.4632
13.3107 7.82108 18.962
13.7639 7.52774 18.0173
13.5918 7.51669 18.4101
13.82 7.93201 18.8509
13.8825 7.64566 18.3567
13.9275 8.19734 19.5624
13.4514 7.6708 18.6613
13.2948 7.48689 17.8309
13.3365 7.81838 18.6918
13.1785 7.79792 19.2637
13.3114 7.93123 19.3013
13.3863 7.58629 17.9198
12.8027 7.98535 19.2472
13.5296 8.04278 19.6501
12.79 8.08362 20.176
13.1055 7.7833 18.6325
