# pn-170911/RbIIR-50-RbIIR-1280-1959.psd
# Power spectrum* (dif=0,1,2) (really just |FT|^2)
# NOTE: only the first half! (symmetric)
# weeks: 1280-1959
# 2005 clock-days, 870 excluded
# PSD: 1441
1350.23 0.116682 0.0547507
37138.9 0.774176 0.0784924
170606 3.46835 0.0730231
36374.4 1.49298 0.0729211
89750.7 6.89829 0.0744038
12837 1.37485 0.0755868
11416.2 1.77346 0.0752301
6816.52 1.3807 0.077254
6270.34 1.71138 0.0747833
4044.45 1.41373 0.072292
3532.94 1.50289 0.0735638
2832.77 1.46552 0.07366
2556.59 1.5473 0.0740262
2162.5 1.56007 0.0788681
1946.92 1.66199 0.0772479
1645.89 1.58846 0.0772757
1598.16 1.70201 0.0789431
1448.44 1.76181 0.0777924
1381.25 1.87782 0.0794676
1186.28 1.78314 0.0818446
1117.27 1.93633 0.0841007
1040.72 1.98076 0.0783347
989.625 2.05181 0.0829222
909.211 2.01812 0.0841265
862.005 2.16573 0.0827956
833.644 2.17109 0.0861174
793.107 2.33668 0.0855004
727.002 2.27867 0.0807863
733.135 2.46681 0.0848836
692.461 2.50781 0.0855793
692.599 2.6792 0.0879269
614.253 2.53353 0.0844612
633.303 2.76258 0.091564
610.289 2.86786 0.0884088
581.271 2.89785 0.092102
592.877 3.11501 0.0928248
529.275 2.92262 0.0953268
547.66 3.20334 0.0951757
520.975 3.34772 0.0938892
539.39 3.51344 0.0970093
486.415 3.46177 0.100969
484.041 3.50693 0.103441
498.554 3.81397 0.104085
465.733 3.80387 0.106615
471.477 3.98966 0.106689
461.123 4.14939 0.114714
449.273 4.17184 0.114546
447.378 4.27216 0.116053
450.646 4.58307 0.123164
437.518 4.64177 0.132064
421.03 4.69325 0.131311
426.135 4.79995 0.129325
423.156 5.09487 0.140779
406.514 5.07935 0.146565
418.711 5.4632 0.156922
409.378 5.50652 0.155478
402.197 5.64395 0.162337
408.212 5.75416 0.161506
380.82 5.79056 0.165031
389.32 6.14378 0.173709
371.294 6.09415 0.177332
378.356 6.33602 0.189068
371.597 6.47151 0.192152
370.138 6.58739 0.201969
365.438 6.66448 0.209272
360.396 6.87771 0.219226
364.696 7.07728 0.221996
361.066 7.33371 0.236014
346.767 7.32846 0.237138
344.442 7.37593 0.246924
350.694 7.81948 0.258682
329.831 7.52396 0.258593
332.211 7.8289 0.264592
347.495 8.35627 0.288968
328.035 8.12704 0.285586
352.556 8.98612 0.320372
346.417 9.12656 0.324078
324.113 8.78922 0.322771
322.918 8.92083 0.338551
315.128 8.88682 0.338984
311.633 9.15644 0.353765
326.402 9.72822 0.367516
321.232 9.92969 0.392486
327.369 10.2859 0.412857
295.469 9.5299 0.395509
311.33 10.2555 0.428667
303.007 10.2507 0.438089
306.964 10.6635 0.462732
308.27 10.9951 0.470475
300.549 10.8442 0.483428
304.126 11.2494 0.501912
299.585 11.4432 0.530087
288.671 11.23 0.531947
291.419 11.6871 0.551027
283.887 11.5221 0.561496
293.647 12.1126 0.594279
302.182 12.8021 0.629075
279.948 12.0543 0.625871
290.775 12.8023 0.667048
281.41 12.6173 0.657057
287.854 13.3003 0.707504
290.883 13.5862 0.735171
271.888 12.9602 0.713074
281.336 13.7642 0.747078
264.936 13.2501 0.76251
268.177 13.5241 0.78796
272.589 14.053 0.811123
276.16 14.5164 0.865045
258.689 13.926 0.834015
267.746 14.6296 0.90942
257.222 14.2679 0.906103
269.623 15.2803 0.957527
263.997 15.3693 0.986852
259.523 15.358 1.00451
265.86 16.075 1.05101
255.784 15.6286 1.05012
247.774 15.3751 1.05861
266.605 16.987 1.16807
251.77 16.3805 1.16152
260.968 17.0138 1.2299
246.526 16.4945 1.19715
266.047 18.0248 1.33695
251.596 17.242 1.29697
244.45 17.1106 1.29537
245.188 17.4461 1.34015
239.587 17.4078 1.35901
258.969 19.0186 1.4939
238.864 17.866 1.43793
245.744 18.6278 1.50172
239.188 18.5262 1.53197
237.509 18.6068 1.57869
234.236 18.6599 1.56918
236.353 19.1355 1.64891
231.213 18.9009 1.65198
233.605 19.6053 1.72948
230.242 19.4845 1.75199
227.511 19.4353 1.79011
222.136 19.274 1.77661
231.939 20.3933 1.92599
225.159 20.1967 1.92005
225.187 20.5783 1.97108
223.116 20.4393 1.98854
224.976 21.035 2.09376
224.25 21.2342 2.0922
221.111 21.3394 2.14786
214.745 20.904 2.12385
215.531 21.1304 2.18843
218.988 21.7932 2.29814
215.157 21.8225 2.29673
210.592 21.5412 2.296
213.084 22.3584 2.47662
208.011 22.0443 2.42627
214.133 22.8486 2.55356
216.553 23.6458 2.70503
206.928 22.655 2.59352
210.268 23.3649 2.72095
212.171 24.1103 2.82281
202.638 22.9698 2.72384
214.529 24.7021 2.9502
204.936 24.2303 2.95436
212.319 25.3972 3.10649
206.577 24.716 3.09064
199.725 24.1698 3.03418
196.368 24.3863 3.11232
205.039 25.5753 3.32236
191.978 24.3414 3.17536
195.92 25.1165 3.32602
196.167 25.2357 3.32589
195.616 25.5246 3.44493
199.401 26.2052 3.55799
196.901 26.4384 3.65509
193.779 26.1315 3.63339
191.25 26.315 3.72506
198.224 27.4757 3.93942
195.254 27.4617 3.98418
189.152 26.682 3.89224
198.201 28.4222 4.17081
190.577 27.8545 4.17977
188.092 27.7165 4.21729
193.135 28.5536 4.33652
185.644 28.1188 4.34736
190.676 28.8305 4.46092
179.436 27.6024 4.35492
188.508 29.2144 4.66071
178.459 27.94 4.50986
184.735 29.0684 4.69044
179.119 28.9869 4.7933
185.1 30.064 4.96355
176.443 28.7346 4.80989
184.924 30.3306 5.11759
179.459 29.9847 5.12886
180.454 30.5386 5.31362
177.165 30.095 5.25871
176.707 30.6516 5.43166
173.37 30.0315 5.35155
177.069 31.2673 5.63868
179.619 31.7024 5.76469
165.483 29.5944 5.4547
163.6 30.0835 5.61036
171.199 31.2328 5.83858
167.972 31.2215 5.89222
167.772 31.3873 6.00591
175.954 33.0219 6.36928
161.751 30.9507 5.97674
169.958 32.758 6.40582
162.448 31.6192 6.28511
167.001 32.8653 6.60958
167.455 33.1169 6.69602
168.459 33.5084 6.77776
157.492 31.9002 6.59154
159.238 32.2075 6.69476
157.961 32.5127 6.84526
157.681 32.6626 6.92615
163.031 33.9481 7.22618
155.54 32.8894 7.0709
161.59 34.5895 7.53612
155.276 33.4934 7.42544
160.243 34.6844 7.70567
157.789 34.5752 7.71269
153.833 33.93 7.62189
152.241 33.9236 7.71648
152.534 34.2952 7.96842
158.716 35.6448 8.22487
144.813 33.2049 7.71838
150.677 35.1999 8.35606
154.393 35.9864 8.50905
147.062 34.6402 8.35129
149.065 35.6137 8.5719
152.335 36.6807 8.92997
152.485 36.8994 9.06916
144.08 35.3 8.76044
149.189 36.5508 9.11229
143.509 35.7332 8.98092
143.915 35.9639 9.06529
140.754 35.3701 9.02942
144.024 36.8247 9.53296
137.539 35.2865 9.22604
147.115 37.9715 10.0023
142.252 36.9141 9.76522
142.957 37.5696 10.0497
142.428 37.7471 10.1267
137.357 36.6903 10.0106
138.231 37.366 10.2467
133.928 36.1749 9.97274
141.129 38.4508 10.6863
136.767 37.9251 10.6992
140.059 39.0166 11.0411
136.585 38.3714 11.0985
136.717 38.4007 10.9377
139.165 39.674 11.5134
130.615 37.4423 10.873
132.574 38.6961 11.4956
138.428 40.254 11.774
136.766 40.5226 12.2115
132.74 39.4636 11.893
133.387 39.4998 11.9336
131.866 39.2933 11.9918
132.062 39.9253 12.239
129.034 39.3465 12.2454
130.789 40.184 12.4839
128.216 39.6239 12.4303
129.859 40.4053 12.7614
127.48 39.7982 12.6309
124.849 40.1555 13.1565
125.234 39.6107 12.7475
123.878 39.7281 12.8575
122.293 40.0903 13.2562
122.329 39.7795 13.0663
122.82 40.7374 13.6418
122.464 40.8536 13.8955
127.032 42.5411 14.3955
127.935 42.9392 14.6375
122.494 41.6683 14.3782
119.867 40.8104 14.057
125.487 42.7948 14.7836
124.337 43.0468 15.0455
121.982 42.2964 14.8643
122.663 43.1181 15.4027
120.909 42.6704 15.212
118.473 41.8802 15.0553
118.532 42.0382 15.1697
117.454 42.8915 15.8844
122.838 44.3488 16.2484
119.842 43.5843 16.0624
110.362 40.8553 15.2873
118.454 44.0653 16.5324
118.368 44.2819 16.6347
116.008 43.8326 16.7525
113.759 43.3393 16.8089
113.544 43.0381 16.5952
113.822 43.458 16.8113
113.191 43.9688 17.256
115.658 44.8838 17.5775
109.943 42.6888 16.8718
113.645 44.8636 17.9612
111.466 43.7459 17.4121
108.892 43.1818 17.3349
112.546 45.628 18.5671
110.163 44.6638 18.2876
106.804 43.7476 18.2336
104.543 42.3746 17.5123
105.123 43.712 18.4515
107.591 44.3328 18.4726
105.635 44.3625 18.9543
108.677 45.7651 19.3951
106.295 44.3246 18.6563
102.397 43.8407 18.9954
105.357 44.9696 19.4356
107.592 46.5578 20.2957
101.092 44.1184 19.4941
102.448 44.5388 19.6364
99.7868 43.9329 19.6239
106.016 45.8217 20.0025
98.3849 44.5499 20.2249
104.787 47.1754 21.5423
101.503 44.9602 20.2354
101.772 45.8212 20.8557
98.8886 45.4272 21.1813
99.9754 45.2088 20.6602
95.4892 44.1737 20.686
99.1351 45.9172 21.4063
97.5107 45.9712 21.7362
96.5701 45.5375 21.7997
96.4765 45.471 21.6942
99.8142 46.9015 22.3619
93.8544 44.9125 21.7368
95.811 46.1356 22.6346
97.2432 46.8781 22.8617
97.7742 46.8539 22.7229
96.7256 47.3782 23.2854
95.0596 47.0671 23.5975
93.422 45.6914 22.8773
96.0071 47.9642 24.1724
93.4918 46.3171 23.3349
92.8148 46.3475 23.5226
90.1291 45.7802 23.4908
90.4949 45.969 23.5127
88.7703 45.6644 23.776
95.263 49.1416 25.4592
89.2026 46.5814 24.5672
89.8476 46.9824 24.8583
89.4637 46.8641 24.9673
92.1563 48.0096 25.4347
92.044 48.4647 25.9491
87.2835 46.1063 24.8268
87.7464 47.2026 25.7322
92.7669 49.6891 26.8731
88.581 47.8962 26.1225
86.0451 47.55 26.5222
89.1909 48.5476 26.7512
84.4257 46.89 26.5208
87.6576 47.8258 26.6793
88.9283 48.9512 27.3808
87.7935 48.9449 27.7539
84.9811 47.6817 27.2237
85.4422 49.0592 28.8238
94.4683 52.3398 29.2779
89.6906 51.5717 30.2692
97.1782 54.3602 30.4913
82.0664 47.8675 28.4482
89.9376 51.8554 29.9307
84.4353 49.6718 29.4138
83.8269 49.2366 28.9852
79.3432 46.908 28.0236
83.7041 49.3651 29.6307
84.8438 50.4147 30.3629
82.8879 49.9996 30.2261
78.2553 47.1221 28.7818
78.4586 46.9683 28.7305
78.765 47.2855 28.6613
78.7397 48.4631 30.2139
79.9557 48.8845 30.4524
78.4787 48.0985 29.8543
78.9306 49.3207 31.0395
76.7889 48.2092 30.6766
81.5623 51.2514 32.5128
80.2725 50.0472 31.5821
75.7242 48.01 30.8037
77.287 49.4621 31.8515
74.4214 47.4568 30.8457
74.9171 48.3216 31.5558
76.8444 49.0681 31.708
76.2533 49.9754 32.8433
75.8792 49.2057 32.089
71.9258 47.5779 31.8448
74.4892 49.0195 32.3884
72.1234 47.9134 32.5696
78.4067 51.8789 34.6628
76.5084 50.9408 34.1843
71.3692 47.9661 32.6208
71.5563 48.6283 33.5076
75.841 51.5907 35.5923
71.185 47.268 32.3021
74.3159 50.6672 34.5896
71.9323 49.9458 35.0797
72.1064 49.7437 34.9039
72.0687 49.876 35.0033
70.7763 48.7155 33.9852
71.4433 49.994 35.4505
68.1825 48.2591 34.5792
69.0899 48.5287 34.5623
70.7946 50.4488 36.0775
68.6601 48.7834 34.8997
67.3252 48.9182 35.8855
68.4258 48.9334 35.291
65.6368 47.7125 35.0163
69.6828 51.245 38.1269
67.436 48.8743 36.089
67.7631 50.0514 37.3289
65.6064 48.1172 36.0892
67.6383 49.4991 36.7039
66.692 49.7155 37.0483
64.4557 48.58 36.8798
64.2114 48.5866 36.9401
64.0751 48.505 37.4145
64.8465 49.0988 37.4112
65.0031 49.5652 38.1152
65.2402 49.8172 38.4777
64.7379 49.7811 38.5066
63.9904 49.6404 38.952
64.2695 49.5727 38.8127
66.4241 51.5766 40.651
65.517 50.7657 39.8434
64.9173 50.662 40.1014
63.1016 49.5364 39.4755
63.564 49.556 39.0798
62.9005 50.0856 39.8526
60.9269 48.9525 39.9227
63.0894 50.6116 41.1847
62.3231 49.7765 40.1966
60.4124 48.5495 39.5342
61.4153 50.7222 41.6977
60.74 49.8634 41.3468
58.5162 48.595 40.6466
60.4229 48.8145 39.8745
57.7629 48.7743 41.4731
58.4372 48.5937 41.3499
60.3459 49.6536 41.586
58.6225 48.4662 40.8619
60.7165 50.7365 42.7979
59.8411 50.8326 43.4988
60.0305 50.2132 42.5629
58.3535 50.0501 42.9744
57.3243 49.361 42.8475
60.5854 52.3631 45.4977
57.0408 48.3882 41.8308
57.7205 50.3808 44.1388
55.5934 48.3006 42.685
57.9279 50.8304 44.9799
57.2477 48.8702 42.6346
54.9957 47.9913 42.3644
54.8813 49.1123 44.0156
56.1481 49.3227 43.5946
56.4676 50.5779 45.5415
56.4862 50.9461 46.2296
55.8571 50.1517 45.4674
54.144 48.679 44.5078
55.5479 50.0273 45.674
54.6079 49.4544 45.1116
53.7775 49.6877 46.3052
54.2214 49.1885 45.0844
52.1465 48.206 45.2498
53.7612 49.4909 45.9925
51.3549 46.9514 43.761
52.7284 49.8926 47.159
53.7062 49.49 46.2935
52.7428 50.0361 47.7575
52.3106 49.6276 47.8622
52.1066 48.8129 46.5266
52.4653 49.9926 48.2796
52.2638 49.4121 47.2014
51.9827 49.8078 48.0254
50.0042 47.8195 46.556
49.9908 48.9949 48.4012
54.2019 52.2557 50.6737
49.8572 48.3626 47.9523
50.8354 49.3817 48.7644
49.6636 48.8097 48.7543
53.0406 51.4737 50.7415
50.0844 49.0226 48.5877
49.2413 48.4897 48.3066
49.7953 50.1927 50.5468
47.5226 47.1335 47.7028
50.0804 50.3607 50.7367
49.9512 50.4886 51.8229
50.2094 49.9215 50.2319
48.5079 49.1012 50.1953
49.3448 50.1833 51.3977
48.4257 49.8032 51.8906
49.2605 49.8108 50.8831
48.9354 50.968 52.864
48.8088 50.7882 53.2039
47.2389 49.0188 52.0318
49.8086 51.1525 53.2822
47.6161 48.9132 51.1005
47.8468 50.1241 52.9602
49.0728 52.0706 55.4311
49.1214 51.9039 55.4994
46.7813 49.221 52.3457
45.9949 48.8312 52.2558
44.544 48.0006 52.128
45.6109 48.8474 53.2437
45.2494 48.3014 52.2988
45.0988 48.5733 52.909
43.5811 46.3087 50.6672
47.2716 51.164 54.9519
43.7357 48.1478 53.373
43.4284 47.1164 52.1606
44.0755 48.2573 53.433
44.4812 49.7156 55.8209
44.8303 49.8362 56.2094
43.743 47.3041 52.4616
42.4303 47.8807 54.5851
44.773 49.6559 55.8845
43.4252 48.0233 53.7191
43.6898 49.1361 55.5231
42.8331 48.5529 55.4295
42.291 47.5322 54.2603
43.5141 49.9234 57.2076
42.8545 49.3453 56.9759
41.7996 47.7717 55.3854
42.9389 49.3189 56.9169
41.0119 47.1079 55.3778
43.4363 49.9818 57.5497
41.3568 47.8994 56.4372
41.8397 47.8582 55.4583
40.5476 47.284 56.3016
40.6203 46.9876 55.1319
39.6401 46.9591 56.2201
41.0358 48.0592 56.5599
38.4428 45.3903 54.5226
40.304 47.6693 56.639
39.9922 48.1585 58.2203
40.3783 48.4365 59.2774
40.5601 47.9647 58.0763
40.4238 47.5866 56.4359
40.3084 49.091 60.2517
40.5552 49.247 60.2146
39.6026 48.2488 59.7959
40.0629 48.7893 60.3539
40.9039 49.4813 60.6364
40.2859 49.7038 61.491
39.2164 48.0037 59.982
39.6135 48.2761 59.3562
38.2695 47.7089 59.8218
38.6787 47.8968 59.9295
38.2844 47.2048 58.9133
38.3117 48.1382 61.548
39.7903 49.8954 62.6196
37.8997 46.9961 59.621
39.0093 48.7034 60.0769
37.0792 48.5132 62.675
35.8423 45.8619 59.4211
36.3413 46.4225 60.0232
36.2586 46.1888 60.0178
36.8537 46.8123 60.289
35.8197 46.4046 61.1088
37.1664 46.8317 60.1211
37.2778 48.7375 63.1012
36.4617 47.8193 62.8321
35.3817 45.8641 60.8335
36.5651 46.7742 60.4716
35.7347 47.9205 63.8108
35.2657 46.9885 62.8058
34.7777 46.4621 63.3305
35.7232 46.6036 62.2211
34.2837 44.9821 60.7487
35.8561 47.6515 63.5076
35.0221 46.6152 63.1188
34.7458 46.0724 61.9914
33.9919 45.4863 62.4205
35.6247 48.3257 65.3486
34.8067 46.6179 63.3652
34.6251 47.0502 64.9572
33.8741 45.4182 62.341
33.9057 46.5291 64.3587
35.1911 48.1658 66.5776
33.7347 45.7244 63.2001
33.4761 45.9869 63.5373
33.8742 47.0482 65.7756
34.3534 47.9901 67.843
34.4546 46.7927 65.1961
33.3444 45.5102 62.7964
32.8942 47.1909 66.8642
33.2791 47.1096 68.2162
34.2855 46.9072 65.6219
33.5621 47.1731 66.9881
33.8212 47.924 68.4232
33.033 46.5882 66.3033
32.431 45.7846 64.7845
31.1028 45.2055 66.1188
33.3086 47.5242 68.4542
31.5054 44.9734 65.6994
32.049 46.1185 66.9178
31.3497 44.4567 64.1982
32.1592 46.7976 68.211
31.3477 45.1732 65.8653
30.711 45.058 67.3818
33.68 48.5415 69.5693
30.3485 44.5488 66.5454
31.1437 45.7852 67.7173
30.8426 45.1715 66.9745
32.0862 48.5105 72.4043
30.1707 44.9796 68.7126
31.125 44.915 66.9351
30.3644 44.2643 65.3478
29.1337 44.0472 66.8859
30.0592 45.0188 69.4095
31.7011 47.25 71.5378
30.8483 46.0671 70.0923
30.1261 44.5944 68.035
30.8101 45.9347 68.6385
28.8688 43.9322 67.8456
29.7571 45.5413 70.4058
30.8322 45.9003 70.1662
29.8628 44.5678 66.3339
27.8783 44.286 70.672
30.2254 45.9623 70.0355
28.8078 45.0196 70.6643
28.81 44.5406 69.4103
28.2217 43.8319 69.6055
28.7501 44.812 71.0622
29.3204 45.423 71.6222
29.7154 45.5227 70.7281
28.5012 44.6488 70.0336
27.8789 44.5557 71.2182
27.5586 43.0405 68.9935
28.8381 46.054 73.331
27.5807 42.9083 68.5312
27.1781 42.9326 69.4327
28.2287 44.7885 72.4545
28.2443 44.9384 72.7758
27.1808 43.4997 70.9402
27.2453 43.1068 69.9165
26.8499 42.6039 68.8452
26.8961 43.1314 69.5105
26.3793 42.8001 70.6237
27.7054 44.3112 70.9668
27.5879 46.1444 76.3697
25.9446 42.1996 71.2948
27.2144 43.7134 71.2473
26.8573 45.0361 76.1708
27.2915 43.9006 72.4266
25.9697 42.6045 72.0292
27.2796 44.5318 73.9789
26.81 44.348 73.7776
26.5851 43.8283 72.86
25.5279 42.2704 70.9013
24.8707 40.9512 69.2373
26.1843 44.4278 74.4808
24.8186 41.1345 70.7214
26.0838 44.2679 75.1316
25.6024 43.0309 73.9112
26.2205 45.0497 77.9394
25.8832 43.0876 74.1435
26.3726 44.0161 73.9132
25.1953 42.4943 72.821
24.5373 41.408 71.619
25.7973 44.4835 77.2736
25.5757 42.9499 73.9346
25.0935 43.3605 75.4498
25.2045 42.5009 73.0591
24.5916 43.2595 76.6101
24.8937 43.0208 75.6034
24.4155 41.7195 73.2514
24.5008 42.3878 74.835
24.8769 43.4261 77.6323
25.5597 43.487 75.9396
25.1809 44.1943 77.8607
24.7161 43.0452 76.3138
24.3763 42.5824 75.7507
24.0107 42.3399 77.0121
28.0945 52.3055 94.1114
26.2295 44.4338 79.0333
24.6051 43.0723 77.1628
23.8385 41.7666 74.2704
23.2229 41.972 77.3803
24.4088 42.9534 75.4586
22.5682 41.2703 77.0951
24.0906 42.9406 78.6441
24.2637 43.0723 77.2716
23.2535 42.2009 78.0559
23.1383 40.9632 74.929
23.7897 43.2304 78.0426
22.8631 40.9621 74.7564
22.8902 41.7963 76.5758
21.9585 40.2007 74.6379
22.825 42.3018 78.11
22.2103 41.108 77.2726
22.2971 40.7327 76.108
22.6794 42.3447 79.7278
22.7616 41.1862 76.2688
22.1276 40.7937 75.833
21.4819 40.1776 77.0701
22.4765 42.1854 79.9044
22.373 41.5621 79.0081
22.4243 41.1498 77.678
22.0344 41.1989 77.8435
22.1691 41.9617 79.5528
21.5979 40.1438 76.7306
22.2551 42.215 80.1176
20.6045 38.6911 74.921
21.1331 40.6084 78.588
22.2792 42.5469 80.8744
20.9467 39.8996 78.392
21.6627 40.651 77.8474
20.9547 39.4341 74.8568
20.7848 41.2993 81.5989
21.2407 39.812 75.325
20.278 39.5438 77.4218
20.643 40.4072 80.7175
22.0095 42.7899 82.8425
20.6606 40.1734 80.9623
21.4895 41.151 79.5831
20.216 38.9714 77.152
20.3026 39.4202 78.6657
20.7342 40.2812 79.0855
20.5224 40.3101 80.8417
21.3643 41.3385 80.5688
20.4365 40.7568 80.9512
20.1682 40.0739 81.0867
20.3725 40.6017 82.7321
20.6651 39.5965 78.1672
19.7474 39.5262 79.98
19.8541 39.1125 79.0661
19.5784 37.7726 74.3696
18.9149 39.6329 82.2221
19.5567 37.8634 75.4328
19.1706 39.133 80.1468
19.1234 38.029 77.95
20.1145 41.3739 84.522
19.6122 38.3093 77.5764
19.5931 39.5105 78.2062
18.3747 37.6569 78.4391
18.8179 39.5878 83.8591
18.8617 37.0946 78.607
19.6263 39.1343 79.4635
19.4382 40.2994 83.6492
19.5311 39.605 81.7306
18.9014 38.2787 78.9886
18.2228 37.197 78.1696
18.3842 38.7203 82.2071
18.9084 38.5384 80.4574
18.7322 37.9089 78.1896
17.9728 37.3141 77.7625
17.6041 37.2815 81.4049
19.0876 38.8248 80.7107
18.0139 38.3176 83.1881
19.1202 39.0847 81.2463
18.2827 38.2647 81.5465
18.2648 38.1004 81.3114
18.259 38.6385 82.7413
18.1129 38.1127 81.908
18.457 39.0607 83.465
17.8494 36.8729 80.3304
18.4343 38.8803 81.7272
17.8046 38.014 82.167
17.7705 37.7681 81.1311
17.2387 36.9616 80.7755
17.5611 36.8967 78.464
16.834 36.4842 82.2527
18.2593 38.8737 83.2787
18.0292 38.8954 84.9539
17.5648 37.1593 80.3696
16.574 35.9741 81.5745
18.0627 38.6554 82.906
16.95 35.8599 78.0575
16.452 35.8269 79.794
17.1102 37.5241 82.816
17.4216 37.8445 81.59
16.9384 38.0197 85.7038
16.9883 36.5238 81.2224
17.166 37.521 81.8353
16.8826 37.8354 84.0641
16.5199 36.2536 81.7879
16.637 37.3535 84.6705
16.4058 35.3496 80.0605
16.3521 35.7192 81.665
16.8967 36.9524 81.4435
16.2028 36.2337 82.2902
16.2699 36.1318 81.6772
16.15 35.538 81.0293
16.1944 35.9101 81.2322
16.4076 36.7067 83.1314
16.4719 36.8571 82.2388
15.8333 35.4357 81.5745
16.5801 38.0171 86.2666
15.7891 35.0247 80.1272
15.818 36.3665 85.3449
16.5451 36.9179 83.5444
15.8612 36.2956 84.5807
15.9754 35.6939 82.715
16.2358 36.8192 82.456
15.2812 35.9936 84.2478
15.5694 35.4508 83.8932
16.1922 37.2982 87.5931
15.9277 35.3974 83.0783
16.1658 36.3772 84.6233
16.3885 36.842 83.4615
15.9318 36.9247 85.7699
15.7125 36.8571 85.9855
15.1102 33.7331 78.5925
15.0204 36.0898 86.8844
15.53 35.3879 82.9689
15.231 35.7947 84.7117
15.1481 34.9947 82.2951
15.2194 35.1614 82.0877
14.6314 34.6676 84.9917
15.5211 36.117 86.075
15.1955 35.2377 83.8031
14.6866 34.2438 82.7176
14.9454 34.571 82.0706
14.955 35.6275 85.7517
15.223 35.7213 84.3928
14.7806 35.2476 86.0813
15.2381 35.4308 84.1204
14.8592 35.6843 86.3888
15.1238 36.2352 86.7772
14.7416 36 88.7443
15.2193 36.2786 89.2593
15.1713 35.8848 87.7359
14.8074 34.5683 84.4379
14.6696 34.9164 86.5143
14.8353 35.3059 85.4659
14.4064 33.9642 83.1369
14.6411 35.3165 85.0413
14.3685 35.2814 86.6638
14.3125 34.4961 85.1745
14.4429 34.6332 85.2558
14.1979 33.9531 82.1569
