# pn-170911/RbIIR-58-USNO-1280-1959.psd
# Power spectrum* (dif=0,1,2) (really just |FT|^2)
# NOTE: only the first half! (symmetric)
# weeks: 1280-1959
# 8 clock-days, 0 excluded
# PSD: 1441
270.661 0.0392894 0.0201312
18427.6 0.4106 0.0176498
166713 3.3716 0.0226619
23375.9 0.634218 0.0227069
40993.3 2.513 0.0168183
6456.43 0.57092 0.0144433
5266.44 0.475574 0.0187965
3666.07 0.527828 0.0193161
2473.22 0.278074 0.0188429
1661.36 0.219993 0.0181499
1267.64 0.347099 0.0219031
1663.45 0.591478 0.0198014
1644.47 0.774038 0.0152704
1506.31 0.678429 0.0120955
874.908 0.541975 0.0163662
1362.89 1.08955 0.0264086
743.227 0.522594 0.0228846
363.302 0.535873 0.0182015
602.988 0.547664 0.0173532
641.148 0.440139 0.0196729
793.427 1.5813 0.0204545
572.063 0.940147 0.0195181
336.801 0.604098 0.0179851
419.07 0.723507 0.0183678
441.379 1.03532 0.0247243
155.811 0.285012 0.0144476
335.608 0.663371 0.0214498
358.855 1.22437 0.0275296
224.138 0.66433 0.030009
177.135 0.521966 0.0245456
209.098 0.689724 0.0124632
224.627 0.532575 0.0164865
254.249 0.843717 0.0218362
246.514 0.927402 0.0292838
247.753 1.04205 0.0292609
229.712 1.16729 0.0303709
231.723 1.44473 0.0434925
469.787 2.32806 0.054682
248.565 1.96731 0.0378848
302.923 1.79093 0.0316562
236.072 1.40109 0.0310781
276.893 1.47878 0.0310139
157.13 1.2427 0.0307466
137.272 0.922397 0.0280606
214.307 1.73951 0.0372827
174.049 1.40547 0.0298293
160.313 1.02155 0.0332074
187.948 1.84544 0.0462506
101.501 1.0044 0.0278138
145.947 1.45618 0.0261326
107.31 1.09838 0.0468283
211.733 2.19988 0.0654008
113.113 1.02431 0.0320179
247.657 2.72206 0.069466
76.7145 0.980127 0.0389557
140.336 2.04108 0.0555479
253.286 3.07349 0.0476077
235.816 3.2509 0.0872215
191.972 2.33365 0.0541061
193.497 2.48533 0.0424912
189.993 3.60333 0.0972072
287.473 4.34357 0.0777731
219.464 3.32243 0.0982379
74.5507 0.909036 0.0352479
126.92 2.2659 0.0646573
142.719 2.51396 0.0715185
80.9261 1.83095 0.0875028
200.671 3.44503 0.0864234
176.178 3.45043 0.0672231
191.691 4.09698 0.123093
112.466 2.35346 0.0831893
131.525 3.33771 0.136536
301.406 6.4633 0.194203
65.0247 2.03093 0.0902411
140.534 2.9738 0.0949658
208.104 5.15548 0.128707
126.943 3.8864 0.127271
241.685 6.37988 0.211556
129.866 3.72655 0.156028
152.717 3.65022 0.115511
94.1111 2.98874 0.0959323
145.207 3.94229 0.150649
67.1306 1.77531 0.0418478
166.953 4.668 0.228381
154.648 4.58005 0.198682
182.587 5.42253 0.252782
159.785 4.90262 0.186508
140.066 4.54449 0.156243
165.217 5.2493 0.260485
111.911 3.37225 0.141682
109.297 4.12576 0.153347
117.261 4.04232 0.137052
111.757 5.48177 0.273274
265.39 9.77009 0.408183
122.969 4.15398 0.16171
188.322 8.46072 0.394232
114.385 3.86438 0.18956
156.693 6.0613 0.294517
111.072 5.22778 0.240894
80.7745 3.77103 0.172635
128.461 6.4103 0.338773
95.5366 3.83004 0.215896
127.122 5.85032 0.311064
110.083 5.09915 0.297138
88.5227 5.49305 0.35755
184.307 8.53581 0.525454
88.1434 3.93313 0.232592
180.311 8.76188 0.577734
86.148 5.12673 0.275517
174.953 9.22646 0.641266
138.958 7.63131 0.396577
111.959 6.41734 0.461465
155.558 8.93804 0.617239
105.041 6.46023 0.461848
181.603 10.4581 0.776495
142.513 8.51132 0.500676
71.3348 4.42668 0.372794
110.715 6.71888 0.527124
155.515 9.32614 0.735977
112.912 7.16123 0.528436
40.866 2.9922 0.306089
80.9665 5.22504 0.427741
83.4337 6.47428 0.466065
113.991 8.15134 0.606674
102.907 7.45208 0.550592
66.0456 4.37677 0.369394
71.2946 5.38819 0.310196
151.471 11.9268 0.959975
115.407 8.66574 0.715525
149.689 10.9098 0.771533
60.8165 5.47874 0.475775
67.6206 5.32649 0.462735
84.5769 6.59773 0.515027
86.3967 8.36598 0.784627
124.255 9.43725 0.753127
137.593 10.5213 0.903786
41.0116 3.44582 0.267465
60.9899 5.49904 0.563409
120.105 12.8379 1.29995
136.075 11.8246 1.10231
130.588 12.7963 1.36673
115.63 10.6712 0.919015
62.057 5.8093 0.59721
109.098 9.2705 1.00452
151.465 12.3237 1.23366
139.208 11.957 1.08327
165.925 15.4711 1.53014
138.416 12.4876 1.1785
153.751 16.9315 1.62592
95.284 10.1344 1.31454
88.0192 8.38118 0.751868
207.093 23.4343 2.70329
102.622 10.725 1.26403
89.7598 9.14421 1.04763
116.017 12.6322 1.49451
98.9077 9.65253 1.11967
123.836 15.1307 1.68364
57.9558 7.79827 1.03782
141.943 16.546 1.97139
159.106 18.8334 2.15017
79.6842 10.8295 1.48258
109.664 14.2433 1.89782
120.765 13.9252 1.52466
61.0449 8.78634 1.12521
130.766 15.292 2.01203
101.232 11.845 1.47012
112.403 15.3033 2.17359
118.871 14.1213 2.10083
114.342 17.0016 2.39383
81.1511 8.12367 1.06632
89.2405 12.1393 1.73028
98.0608 14.2039 1.99828
77.8087 11.9222 1.89797
80.9873 10.6377 1.63625
93.5708 14.26 2.38452
58.9119 8.26204 1.1033
88.9783 14.0859 1.97085
76.0249 11.2352 1.59377
191.666 30.2987 4.75708
187.081 24.3269 3.43692
64.9572 9.94095 1.56486
105.692 15.5222 2.52014
27.093 4.78742 0.922471
77.8212 12.6225 2.02965
64.9148 9.98395 1.63827
98.6039 19.9395 3.3727
73.874 9.27857 1.40124
67.422 11.1653 2.0374
111.964 17.8128 2.79818
57.7282 9.74091 1.63067
86.0855 11.8859 1.71154
166.526 30.5695 5.48997
92.494 15.9823 3.12164
91.2939 15.8927 2.81194
46.934 9.10786 2.16471
77.4543 11.7958 1.89161
56.0632 7.29135 1.02673
104.652 17.3159 3.24976
88.0557 18.1244 3.71323
76.0511 10.8733 1.62283
59.0618 13.0415 2.93212
117.886 20.2807 3.80156
54.2833 13.4147 3.17954
180.211 32.0898 5.6762
75.3784 14.5328 2.99376
102.498 20.5364 3.91935
55.6977 11.9855 2.6349
112.437 17.263 3.21341
96.3098 19.7043 4.56236
82.7456 14.8471 2.78223
74.2563 16.7467 3.74041
51.3464 9.64349 1.99535
32.7033 8.26279 1.91747
58.7952 13.5837 2.97122
37.8151 9.14104 2.20974
77.9989 17.1617 3.92452
155.595 31.2772 6.60027
63.2582 12.4679 2.87595
92.7273 19.0622 4.35429
100.67 20.7913 4.47725
63.0837 14.1995 3.27104
42.1426 7.95095 1.61616
61.6964 14.5937 3.44836
88.5 19.3328 4.08917
44.1793 9.81754 2.35845
56.9042 13.87 3.28385
47.5943 12.7033 3.49297
73.4565 18.1834 4.15494
82.6491 19.3152 4.66173
75.3228 20.7679 5.42221
55.2155 14.8321 3.86673
80.0207 19.7666 4.77203
51.6099 12.0423 2.89946
79.7134 20.5622 5.23558
97.5321 24.7018 6.11175
86.2478 21.9909 5.30442
64.687 15.323 3.52346
37.9764 10.8085 2.84884
53.2591 14.9394 4.19345
66.6854 17.8426 5.2232
86.7251 21.8425 5.37154
43.2519 11.0601 2.92784
65.0869 18.2326 4.60852
57.2141 17.6017 5.52343
79.91 22.4886 6.86866
141.433 39.7758 11.081
133.187 37.2756 10.4923
53.2594 13.6372 3.76957
37.1919 10.5233 2.89698
70.6238 22.3793 7.3758
73.8819 19.9096 5.22589
86.8386 26.8465 8.38758
73.7111 18.0654 4.82989
64.5428 16.9669 4.64817
52.5793 14.735 4.17813
57.3849 16.7549 4.84037
38.5812 11.7437 4.23002
116.351 35.028 10.4512
61.1778 17.3593 4.96201
103.772 33.8313 10.9284
42.573 16.5096 6.09789
43.2866 10.8834 2.91346
106.025 31.9008 9.82195
53.2816 19.9386 7.0558
83.7649 29.0731 10.322
76.4113 19.5687 5.86677
78.5175 25.5711 8.34804
54.76 18.6195 6.6392
73.4945 28.1381 10.455
82.1904 25.4864 7.49372
53.3283 18.168 6.12567
77.3314 24.074 7.65731
81.9032 25.643 8.53825
66.2612 22.9991 7.85818
75.9232 26.8273 9.90636
43.6644 15.3853 5.24455
65.2687 24.7334 9.4605
60.0561 20.452 7.53972
121.894 38.328 12.3559
64.7298 21.1054 6.85331
22.8611 6.83876 2.25796
107.948 38.6525 14.0299
30.0514 12.0855 4.89507
100.999 36.0739 12.9123
75.3491 27.8446 10.6657
84.4712 30.7247 11.2366
51.6372 21.4522 9.36441
53.3255 22.1113 8.60077
52.1434 17.9719 6.36151
33.3843 11.624 3.79717
57.2494 23.2474 9.03906
66.9859 26.1693 10.9165
39.8262 16.5405 7.4358
50.2065 21.2247 9.55622
54.7331 19.8187 7.6147
48.1291 19.3759 7.80532
81.8702 29.9203 10.48
55.0476 22.7863 9.69211
57.2706 23.7957 9.14363
40.7024 16.6613 6.85243
89.9835 37.906 15.5014
57.4381 21.5783 8.75426
50.9037 18.2686 6.9064
35.5799 15.7739 6.75464
31.1038 14.3842 6.56386
49.4587 22.3346 10.1468
29.8608 11.8134 5.26364
63.1178 27.8753 12.9954
61.5644 25.0332 10.3586
59.7754 22.1863 7.93496
53.5627 25.3587 11.4891
27.775 13.1982 6.69498
47.9908 17.8758 7.15224
39.7645 19.8359 9.79064
65.0117 28.4835 12.6854
56.789 25.4649 11.6549
25.3569 11.3763 5.43051
52.5753 25.4265 12.8453
42.7476 21.6863 12.1264
52.8462 23.2783 10.1414
65.6743 30.6747 14.2009
84.8189 36.4253 15.3521
29.3055 15.8642 8.78479
41.0153 20.1311 10.0855
58.417 22.5316 8.59708
39.2139 19.7081 9.82322
73.2228 38.3445 19.6206
60.4176 24.499 9.00126
46.6575 21.6354 10.1962
43.4694 20.3529 9.83983
46.3217 24.9891 11.956
58.1219 27.9333 13.1779
28.7764 11.982 4.45658
43.1019 27.0094 15.874
55.6382 26.1432 12.2673
48.6619 30.9102 17.4394
40.3312 18.9889 10.703
63.5306 27.7054 12.0158
52.4146 36.1717 22.0576
27.9324 11.0212 5.37479
50.5753 28.6858 15.3826
42.5352 20.99 10.7635
61.234 34.1519 20.0992
71.0265 32.947 14.8078
39.873 22.6296 13.1753
28.9746 17.0822 10.2735
34.0445 19.539 11.8305
39.6916 18.6489 9.96558
54.4122 31.0664 16.9204
34.5754 15.1775 7.60766
51.1907 27.1842 13.5156
30.3916 19.7197 12.6586
50.2914 24.2328 13.4298
38.7053 20.0666 9.42724
35.3544 22.3155 13.2986
33.4503 20.4928 13.0254
44.9466 21.2958 10.8412
51.0014 28.6835 14.8631
43.2541 28.3107 18.0564
46.9072 24.2694 12.7777
59.8811 40.6135 27.3199
88.4023 45.8682 21.6319
49.1048 29.0532 16.1546
15.6188 13.4419 10.2753
22.7753 14.7865 10.5686
36.0015 18.8417 11.2515
29.3089 18.2603 12.5837
42.2234 26.0144 14.2823
29.5947 18.5343 12.0007
35.505 22.7726 14.9654
23.5602 10.6862 5.27276
42.6818 27.1669 16.1247
48.4108 30.1813 17.4183
37.6598 30.0451 20.6726
34.7625 23.2813 17.2087
26.8583 16.5807 12.4864
75.6287 42.3016 23.938
30.336 20.1497 13.9593
43.4322 26.2418 15.7388
30.4997 22.9441 18.0092
56.3308 32.2917 18.2151
25.2456 12.6227 7.22368
34.2304 22.6723 16.0371
33.9457 23.0453 15.7819
44.7373 26.5415 16.3432
42.6521 29.9989 19.6955
30.9135 22.7804 16.3077
36.2515 24.1631 17.0554
26.3592 14.0883 9.24711
31.4423 18.1244 9.99262
28.1921 21.8264 16.1791
19.8868 10.5095 7.09999
28.2624 21.0964 15.6369
30.6556 24.701 20.2394
45.8624 27.9417 17.7423
39.2268 22.7255 13.645
22.4056 16.0366 11.8465
37.191 25.0431 17.1927
36.2232 23.1502 15.4012
25.6978 17.8125 13.7248
60.4343 43.5087 28.721
24.3848 20.8949 17.4338
40.0329 26.1534 16.3058
24.683 26.2813 25.4932
25.9016 13.4545 10.6428
73.0892 49.0281 31.1954
20.5913 15.4498 14.3817
77.838 59.3625 41.156
34.5216 18.8665 11.6936
35.021 27.9828 21.1493
30.6361 26.5861 21.4673
33.052 28.5846 24.2121
16.9106 10.4108 9.22928
34.5438 26.0033 19.5905
26.947 17.7017 11.868
28.3695 23.8972 20.0745
21.7686 14.8273 13.0769
51.1506 39.5777 30.9461
55.2496 37.0137 24.6414
17.3262 15.2676 13.5585
15.9756 10.3432 8.28101
38.1441 31.6697 26.6731
20.2824 11.0012 6.91509
41.0067 29.7875 19.5141
27.5258 20.2135 12.4909
31.8832 31.1286 28.3279
26.8181 20.6304 18.5616
26.4875 19.6561 16.9721
45.5975 37.7374 28.128
22.2197 18.7743 18.6649
35.7526 22.8471 14.8062
26.3768 23.3303 17.7496
33.4249 29.4483 24.3594
24.9329 21.3785 18.374
32.0189 30.5037 26.7885
25.432 22.4735 24.071
40.3913 23.7277 14.9592
32.8811 28.8377 23.3262
34.3891 35.7967 32.8976
39.8435 30.6386 25.1825
27.5783 19.0567 14.7363
28.1295 20.6499 15.3513
14.2522 14.0136 13.4068
23.8447 22.2498 22.8155
29.2765 22.1823 18.9724
36.444 30.0283 24.2844
29.7718 23.3642 17.8472
11.9323 8.3663 7.62642
33.8305 32.8238 32.4248
31.8115 24.8882 22.5354
39.8496 29.5815 21.0914
15.2212 16.7075 19.5773
51.7979 43.2844 34.546
21.5334 17.5749 13.6718
20.1877 18.756 15.9133
28.8607 27.8388 26.118
32.8655 34.9277 37.5382
34.2342 22.4608 16.5016
26.3773 21.3106 16.1523
32.0452 31.8196 29.0812
37.3949 39.0453 33.1552
15.334 15.501 17.3272
35.7386 29.9705 22.2537
25.5066 27.2263 24.9419
10.339 17.0506 23.4814
25.2612 27.4814 31.7438
36.2053 32.6654 30.67
14.964 12.6072 13.0755
21.8853 23.496 24.8652
17.0958 11.7565 10.2906
23.5472 22.2893 20.9887
30.5315 30.8383 30.6644
33.6796 30.265 30.5314
24.404 21.4349 18.8245
20.0501 20.8571 20.3133
14.2489 15.9756 20.1156
27.8173 25.4023 25.5494
29.4265 22.6721 16.3548
15.1351 17.5996 18.5998
19.1357 24.2546 29.3669
37.1795 28.1381 18.5614
18.8895 23.1736 25.9305
33.8877 35.3754 33.1898
11.395 10.3278 12.3094
26.573 28.4421 29.8851
35.4535 39.283 39.9223
28.3914 29.471 28.9935
14.3293 13.5712 17.5807
23.724 21.0078 17.8095
8.80624 8.31704 9.35827
26.5984 32.7982 39.1116
23.3345 22.754 26.018
30.6932 25.1374 22.4241
36.4356 36.526 32.699
7.59977 9.03689 16.793
36.4278 32.0332 25.5433
20.3382 19.9021 18.2904
19.4589 23.465 26.1068
29.1501 31.6419 31.2524
19.0053 21.4381 27.4925
25.0464 23.1667 22.2936
40.7046 45.084 43.7335
24.5701 25.2235 21.5966
8.06213 16.1016 23.7936
11.9309 11.3809 16.5147
19.1371 20.1772 22.8365
32.795 32.7614 33.2574
34.6952 34.6458 30.8377
22.8011 29.3635 35.489
14.235 18.3683 22.5286
10.9798 15.0091 22.0359
19.6301 19.5846 21.2077
21.4613 26.8003 33.4806
16.366 20.5862 31.1712
18.381 15.2453 17.0282
20.3108 19.909 21.4986
33.6953 32.3356 26.9161
14.7862 15.0763 16.3046
30.0772 37.3955 38.035
9.38083 15.1353 23.4558
29.8712 41.9502 56.9104
23.0815 20.8825 21.1193
29.4331 41.2798 49.5798
10.1396 10.3218 19.1575
29.2585 30.1702 32.2201
17.1362 15.0839 14.9913
12.9661 17.0705 25.6405
24.0864 23.8239 27.0276
24.5653 25.9033 29.244
35.5028 42.0101 44.2967
20.0417 20.8644 21.7394
30.3936 38.5902 43.0861
21.4902 28.5083 37.7205
25.6763 26.4672 29.9903
20.5589 24.675 29.0226
21.6448 25.5506 25.8291
13.8447 20.1815 25.8145
12.453 18.7635 27.4457
15.4705 15.7752 21.3618
24.9206 29.2321 32.5524
19.5465 27.3785 38.2378
30.9587 33.0062 34.2493
11.1107 15.2617 22.3524
17.6662 21.575 25.0943
15.0748 22.8665 34.2103
22.6222 25.9536 30.9626
18.5617 19.4283 20.1803
20.6141 31.0841 45.8087
20.4252 24.0164 28.157
13.6434 12.9235 14.3218
15.3987 21.0168 27.8502
28.2836 36.9404 44.4277
11.0535 17.0732 31.0467
30.1706 36.565 39.4254
8.63196 8.12704 12.9491
24.7841 40.8466 58.058
21.8652 27.2686 37.7557
13.8038 14.7396 19.0347
11.3008 15.5444 23.7483
12.773 17.725 23.2024
16.6284 24.9272 46.0989
35.4513 38.524 41.2014
12.5282 14.595 21.0006
24.6596 33.3796 41.2102
17.1922 24.4236 35.7983
15.8842 18.3199 28.8694
21.4958 24.9554 28.8433
19.114 23.0802 29.9586
22.6042 28.2587 33.0045
27.5522 43.4901 64.092
32.9841 36.4292 37.4978
10.8221 16.5883 28.2784
21.4254 28.9507 39.8112
31.2579 41.2755 50.0213
12.3298 17.9878 25.0729
13.0931 23.2876 34.0161
5.46305 9.00518 23.5991
25.4342 33.3544 43.8137
13.9922 16.4593 28.4986
21.4328 27.2608 30.8005
14.2895 25.9086 46.9768
28.4596 31.6273 35.5207
17.1094 23.4127 34.563
22.0583 26.5285 32.5929
20.1943 23.2476 21.1967
9.12283 11.7078 13.707
15.8517 27.1507 35.9143
17.4648 32.833 54.2399
16.3108 21.5183 34.1942
16.6836 17.3196 16.5979
10.7234 21.7497 37.711
9.92816 12.7053 17.4279
11.1723 20.558 34.9461
19.8795 35.1985 58.8519
13.9768 17.4618 33.5787
18.3573 20.9961 26.7809
14.3138 19.7679 30.8078
16.1925 20.0952 30.439
19.4228 26.9799 41.1966
25.4337 29.0253 33.2927
25.1348 37.6313 51.3245
33.6344 56.5067 85.8722
25.2066 36.3989 54.2484
23.7706 37.7598 59.8073
16.1912 18.0981 27.792
25.6929 38.4928 48.3714
16.6522 26.2062 39.1705
19.5834 35.2527 58.1063
15.8318 20.3104 40.9317
26.6161 34.4264 50.7607
32.5525 46.2875 56.0887
17.4398 26.3696 39.8161
10.3171 12.5396 17.175
10.0498 15.7511 20.4212
10.2644 20.7703 35.151
13.7902 26.9699 46.3939
9.44196 12.8021 27.7005
12.3146 16.8831 29.1972
13.8374 16.1785 18.6467
15.6122 26.9032 43.1902
16.0958 26.1178 43.4052
15.6435 21.5615 32.9925
16.9237 23.5581 28.2933
11.6641 15.087 16.5458
9.6005 19.9728 33.8454
22.2549 42.5146 74.9459
16.983 24.2359 41.3989
18.5239 21.105 25.4452
15.3829 27.3706 39.5875
13.9505 27.1598 47.9581
13.1399 17.1216 23.4933
9.94808 17.951 28.0193
12.1115 20.8323 34.2849
14.6443 27.5906 47.295
14.5048 26.2077 45.4384
11.5958 19.5862 40.6652
21.6562 29.8943 42.6212
13.3526 24.6268 57.1602
32.6063 45.5339 54.1788
16.4316 29.6721 44.7061
13.6737 20.4509 27.8158
22.5941 46.9001 76.2449
14.6082 31.0716 63.1695
16.0667 23.1658 42.6804
15.4654 22.9129 34.337
18.6019 36.248 62.7476
17.2617 29.7137 42.047
5.99448 8.74923 19.3805
7.36455 12.8783 25.695
15.4691 32.8591 58.859
11.9991 20.3218 46.3012
19.95 31.425 48.2892
10.7155 16.9354 34.2267
12.2913 19.3561 31.4651
10.2466 17.9003 29.5581
5.79312 10.536 31.1891
13.6887 15.8606 26.5249
28.7876 59.077 102.771
17.1349 19.4377 31.1994
19.4579 27.6806 32.212
9.19239 21.1054 46.5025
15.4313 20.3209 23.2623
7.55952 16.708 34.0532
12.1966 24.0974 47.7398
17.6463 25.7863 38.3935
10.1435 17.3886 30.282
8.30316 14.8704 25.7492
9.22061 16.0222 33.9005
17.3332 29.7558 41.5003
6.76175 11.8175 22.712
12.2756 22.4958 28.6006
5.299 16.2013 38.8263
11.4957 17.3066 27.7472
9.0687 15.9522 23.6734
6.51764 16.4755 45.3639
25.6363 46.7412 69.9628
15.0915 23.74 31.8877
10.0307 26.1249 55.5009
16.9241 27.5192 42.7284
9.06834 13.6406 24.4396
10.0936 18.9556 36.0417
8.11917 18.5519 42.4433
15.405 28.5646 47.1683
12.6589 18.6855 27.5448
4.14232 12.4541 35.0384
14.6532 23.4723 32.3121
10.396 25.255 40.7879
5.4153 14.0705 36.5037
10.5949 25.8018 58.8431
15.1868 25.8637 45.8489
10.2183 20.1946 49.201
12.6875 13.7212 16.1196
4.5459 11.4516 35.0692
16.0492 28.907 52.6494
7.65297 8.63601 26.3097
21.684 35.5219 45.3642
6.3413 17.9929 42.7778
11.7351 17.6157 31.6039
9.85059 19.7765 41.5217
10.0306 12.2248 20.3811
9.66271 16.2008 21.6366
7.75607 20.0332 41.2173
11.763 22.045 33.6138
8.3224 17.0406 33.2818
9.34647 25.7669 61.1324
13.1466 21.0822 43.4746
15.568 22.6535 28.273
11.4891 35.9643 80.0521
13.0885 22.5986 43.1611
11.8114 29.0255 71
14.9071 21.6794 29.3747
8.07431 18.6885 47.6029
16.9773 30.1265 50.116
15.17 40.1653 86.7241
14.5599 17.95 29.1936
9.38482 22.0351 43.8247
6.13256 12.6334 35.1694
13.2938 23.273 37.6692
6.06237 11.9863 31.6064
6.21651 5.44747 11.5179
5.01034 9.55283 29.3813
16.8692 30.8662 49.6999
10.7398 21.9981 49.8902
8.26791 9.51048 18.8688
13.5585 25.1159 39.3098
9.6207 15.407 23.478
9.95453 23.8644 46.2608
8.98532 18.2197 36.1702
14.2174 30.1885 46.6991
8.57269 24.8154 50.9278
10.6587 26.24 52.3613
6.55253 18.3907 59.182
10.5908 20.2254 49.3717
14.8235 30.3937 60.0142
13.2422 28.3078 55.4479
9.24881 13.1556 25.2858
7.9517 16.052 31.5868
9.82407 21.787 37.1572
7.28322 19.4139 48.8776
13.901 29.0317 50.6299
7.21028 13.4336 29.7875
9.95308 25.2469 50.2166
6.01767 13.46 38.5431
7.78534 10.0887 28.071
11.6847 20.0536 26.2832
11.4704 30.3207 50.319
6.99073 22.7156 57.829
11.3795 25.8885 60.679
11.341 23.535 61.3374
16.562 30.0027 54.1531
11.5635 25.5884 56.7361
13.9441 23.9853 36.545
6.55084 15.5902 35.5759
8.80405 21.4149 60.4981
12.0014 19.6121 36.3067
10.3787 23.2107 45.1087
8.58047 21.5222 50.5799
8.83757 16.5661 39.8623
4.5326 10.5538 41.4503
13.0456 19.626 24.8825
6.81287 14.9935 29.8018
7.90444 18.5206 31.645
4.98397 14.5064 34.6523
6.38866 15.7081 44.0303
7.84634 9.2224 10.2573
3.46775 13.6652 40.2279
12.8614 33.9145 67.4628
6.9506 18.5588 62.7445
12.1614 17.2469 24.2783
5.5186 12.4815 25.7478
8.79199 19.8259 35.387
5.65036 16.487 40.5928
5.59648 11.1051 29.2694
5.19051 9.76501 25.9301
8.02556 22.2758 57.8873
7.92148 9.13446 15.2874
6.02517 17.614 49.3948
11.366 27.0961 65.7476
12.4853 18.8912 33.3004
8.02566 18.8401 56.0996
15.7733 25.1651 31.5559
7.3159 20.2724 37.6085
5.92681 17.7275 44.0857
9.68914 24.355 58.4339
4.80328 8.57067 36.8968
12.8337 28.0948 54.8081
10.9244 23.8343 44.0127
6.07819 15.9688 41.936
7.32336 19.2125 40.4376
5.27318 11.2185 42.8694
10.0662 14.8719 17.1958
6.33031 16.8593 38.0668
8.51509 24.2869 55.0817
11.2659 27.8633 57.2634
7.20812 17.7466 47.3258
8.11478 16.8736 35.0281
5.52334 11.9659 28.2012
7.83446 21.5455 43.073
7.4534 28.0637 82.623
12.4124 18.2085 31.8044
6.5116 14.7307 27.237
2.75001 3.41411 10.3533
3.52357 9.41267 15.776
5.23206 19.9897 48.1431
5.64517 12.0701 31.8288
5.32936 11.3083 31.9049
7.24727 17.6739 44.7219
6.74824 17.0084 44.4719
7.94022 17.812 40.4442
3.63528 6.05494 20.1751
6.95133 18.143 50.6863
8.57064 16.0695 36.6815
10.0234 22.7456 37.456
6.67498 27.1553 85.6342
11.548 17.2974 31.5367
6.35646 15.6244 38.7877
7.4246 20.738 49.0411
5.27909 8.53072 26.7177
6.07879 13.7599 34.059
7.80878 22.961 56.1957
7.96561 18.3404 44.0738
9.02156 20.3092 52.0522
9.90131 18.584 30.7933
4.68995 16.5056 53.1059
6.48153 9.7968 30.5142
7.12366 11.5666 13.2922
