# pn-170911/RbII-15-RbIIA-1280-1959.psd
# Power spectrum* (dif=0,1,2) (really just |FT|^2)
# NOTE: only the first half! (symmetric)
# weeks: 1280-1959
# 21 clock-days, 98 excluded
# PSD: 1441
135068 1.80079 0.00980334
6.81519e+06 149.712 0.00214653
5.27085e+06 81.6254 0.00411462
2.18199e+06 49.6235 0.00332031
889331 29.3264 0.00338846
586647 13.749 0.00282337
324655 5.53172 0.00242564
248138 7.79147 0.00403296
170901 7.94794 0.00444118
124369 4.98436 0.00318104
102588 4.31433 0.00385575
75935.6 6.38756 0.00565033
70003.8 5.07338 0.00499148
67828.6 5.3495 0.00543916
61750.3 5.66614 0.00754231
43949.1 3.89292 0.00549124
41893.3 4.28126 0.00624461
34008.8 4.2438 0.0081067
31391.9 2.93411 0.00739799
25826.6 3.00377 0.00576089
28136.6 2.80653 0.00645569
23269.6 3.15169 0.00608013
21794.3 3.55501 0.0102419
20762.9 4.04585 0.0111779
18083 3.43669 0.0130773
16861.4 2.50246 0.0100902
14358 2.7419 0.0101922
12028.2 4.2118 0.0125876
11684.4 3.14181 0.0145454
11209.1 4.03174 0.0195952
10689.8 4.64611 0.0187004
9574.41 2.23446 0.0132331
9726.28 3.65537 0.0208432
8634.09 2.79648 0.0161241
8649.67 3.93255 0.0207322
8943.48 5.21814 0.0340299
9340.53 5.07524 0.0330325
7083.77 2.34455 0.0187871
7174.88 2.9038 0.0167013
6485.79 3.6016 0.0258115
6618.19 3.84852 0.0304865
7256.54 4.50026 0.0403584
5402.65 5.33445 0.0504629
5301.99 4.02786 0.0394028
5640.29 2.55113 0.0235327
5407.31 3.66523 0.035327
5189.08 3.1168 0.0320534
4422.46 3.08737 0.0334469
4919.57 2.88349 0.0393884
4780.05 3.99227 0.0487571
4144.19 3.02367 0.0416879
4662.31 3.1553 0.0431315
3634.97 4.52969 0.0614546
3668.23 3.06633 0.0420871
3453.65 2.87308 0.0387354
3360.07 2.6687 0.0437263
3045.71 2.58959 0.0410881
3786.79 3.42957 0.0470614
3119.75 3.40831 0.0593401
3593.03 4.4081 0.0783341
2882.91 3.06163 0.0557169
2734.69 3.69213 0.0657615
2525.49 2.43505 0.049724
2804.52 3.03709 0.065626
2753.36 2.65149 0.045306
2416.21 3.00356 0.0676596
2168.42 3.61998 0.077422
2227.05 1.84763 0.0472188
2314.23 2.88388 0.0597874
2381.01 3.20232 0.0774171
2143.68 3.01173 0.0690212
2119.44 4.64979 0.107454
2071.49 3.46237 0.0839224
2169.94 4.36026 0.122481
2036.11 2.54067 0.0743276
1891.59 2.73495 0.0783385
1843.35 2.76456 0.0822456
1592.19 2.45827 0.0684636
1692.25 2.66938 0.0781921
1397.75 3.37948 0.102331
1897.18 4.32807 0.123304
1406.78 3.60766 0.112005
1651.35 5.05194 0.176053
1454.19 3.27978 0.0984912
1458.37 3.56223 0.12413
1513.16 2.60619 0.0901435
1736.97 2.73512 0.100166
1239.09 2.80827 0.102648
1283.15 2.72506 0.103287
1241.49 3.54299 0.138809
1251.65 5.08456 0.192127
1234.34 2.38101 0.0978843
1120.17 4.54173 0.181654
1212.66 3.07994 0.122711
1286.33 3.57599 0.150043
929.4 4.42748 0.187302
1147.14 2.63514 0.121495
1157.93 3.51598 0.162977
1027.28 3.4409 0.156596
1157.43 1.96269 0.097902
1026.77 3.08034 0.150778
957.933 4.1714 0.198481
1048.36 6.43234 0.30804
977.254 4.87987 0.262812
1144.8 4.64395 0.228099
916.608 3.38313 0.177791
996.515 3.40979 0.191062
1175.97 4.31476 0.24133
846.947 2.8226 0.169825
806.333 3.96353 0.230298
939.521 4.51536 0.270896
825.521 3.80395 0.225875
978.616 3.37202 0.205092
747.077 2.27023 0.145584
799.938 2.19106 0.148913
847.19 2.85334 0.183339
802.643 2.82569 0.186883
717.682 4.02906 0.261833
649.391 2.57746 0.176055
723.949 3.32746 0.206524
709.353 3.35063 0.244453
678.54 3.34743 0.237797
732.791 2.27479 0.161
665.916 2.01898 0.152837
754.465 3.48113 0.247837
836.324 4.76539 0.376372
695.88 2.46969 0.200352
700.499 5.03928 0.376717
645.175 3.33979 0.262446
660.515 3.50833 0.301576
662.863 2.81967 0.220451
638.05 2.52739 0.216584
504.418 2.24846 0.190177
637.839 4.34035 0.371631
583.278 3.03324 0.261855
528.041 4.26001 0.370644
568.143 3.94108 0.368553
468.13 2.93969 0.262696
531.228 3.04612 0.286338
499.813 3.50693 0.309049
477.891 2.8811 0.269003
491.743 3.04385 0.300075
513.784 2.64368 0.255284
459.01 3.52907 0.339112
498.509 3.7554 0.369142
394.292 2.81133 0.279876
455.336 3.2422 0.31499
498.492 2.93362 0.280192
456.598 3.54921 0.377068
508.24 4.76034 0.515467
495.046 3.2883 0.358084
420.734 2.48689 0.256009
438.34 2.6023 0.296656
415.871 2.92242 0.322223
431.477 3.52024 0.416992
390.582 3.63773 0.386484
392.094 3.50377 0.398044
471.367 2.52366 0.272527
476.797 2.93133 0.353583
419.104 4.21579 0.504304
458.171 3.08799 0.390363
379.771 3.96278 0.488038
380.296 2.41964 0.319183
472.85 2.37079 0.302013
372.744 2.66155 0.342282
423.485 2.39065 0.292358
425.96 2.55703 0.33337
323.806 2.64043 0.3391
358.149 2.61926 0.334111
294.704 3.57354 0.468301
430.707 4.61168 0.645607
366.469 2.02406 0.270819
297.209 3.13973 0.438642
343.37 1.6379 0.2178
368.76 3.47149 0.488005
332.828 3.08261 0.456935
401.171 4.31685 0.622834
322.027 2.40101 0.380097
344.857 2.82748 0.397995
332.65 2.72424 0.422721
318.8 3.01954 0.444238
334.662 2.32091 0.34418
301.912 2.447 0.394293
315.914 2.66534 0.431834
378.286 2.14778 0.360047
305.827 4.46575 0.722984
313.848 2.90387 0.460565
336.735 3.51301 0.594776
247.561 3.36976 0.514636
281.724 3.36414 0.582499
292.988 2.7732 0.47483
268.512 4.08371 0.746382
352.474 2.9923 0.487258
326.564 3.15739 0.503568
301.16 2.49775 0.445041
284.606 3.28841 0.570643
240.447 1.64585 0.330924
277.91 3.14247 0.585692
303.485 3.71655 0.693858
296.003 5.07506 0.988137
277.536 3.2318 0.563619
224.87 2.26857 0.433884
285.546 3.12606 0.589118
272.869 3.82483 0.731529
264.05 3.07977 0.597056
317.514 5.51848 1.11138
232.757 3.15051 0.607789
230.016 1.72832 0.388692
259.172 3.83369 0.722213
229.226 3.4522 0.653835
230.469 2.77176 0.580436
203.855 4.57672 0.976751
242.006 4.20005 0.926603
274.765 5.21572 1.05727
265.03 4.11777 0.931334
219.668 4.09107 0.932764
263.734 2.81779 0.600321
236.337 3.70275 0.911591
220.714 2.17178 0.431502
289.674 3.91221 0.916997
182.056 2.13839 0.447797
240.845 2.81537 0.661362
217.244 3.02963 0.658284
215.51 3.52664 0.796491
209.483 1.61067 0.424241
240.081 3.95391 0.948407
189.967 4.19164 1.00334
237.071 2.4152 0.612367
192.293 2.31602 0.54856
231.674 4.49154 1.13076
179.152 1.94522 0.536292
180.22 2.08716 0.500757
186.239 5.01357 1.2319
190.648 4.06896 1.01327
199.722 3.70041 0.984047
200.545 5.77026 1.41416
167.456 2.0838 0.572831
217.787 4.0735 1.061
190.819 4.69356 1.27414
184.684 3.34392 0.922124
187.005 2.44953 0.653836
159.835 4.07447 1.19441
207.371 3.08013 0.823951
193.719 2.79051 0.737908
162.808 3.04366 0.851302
201.854 2.60629 0.726987
156.055 2.74958 0.85194
164.204 2.34915 0.572919
208.159 3.43615 0.897856
174.921 3.64849 1.05907
204.126 3.99198 1.30625
186.311 3.43687 0.911604
154.77 6.12992 1.74209
176.154 4.28457 1.29238
153.19 3.43416 1.07824
140.706 2.69202 0.783475
176.609 3.81535 1.10045
158.985 3.64955 1.14721
149.476 3.11784 0.91794
156.193 4.3216 1.41959
137.592 4.00926 1.27061
161.851 2.991 0.968053
155.899 2.48288 0.761333
153.121 3.56519 1.16357
167.304 3.84038 1.22132
156.653 2.92293 0.917015
167.591 6.61026 2.29301
166.727 3.61124 1.0799
137.398 2.04472 0.683521
144.661 2.79274 0.962146
142.596 3.99836 1.29214
151.931 2.4495 0.890748
169.524 3.09378 1.077
123.266 3.08932 1.02947
156.468 5.61185 1.85753
146.608 2.44106 0.893786
133.381 3.51516 1.27167
144.955 2.75354 0.957055
146.359 3.84787 1.42816
122.432 3.93703 1.45114
170.58 2.73584 1.00114
104.077 3.06878 1.1324
150.738 3.21281 1.1692
145.858 4.25306 1.59233
140.343 2.68477 0.963122
147.887 4.0391 1.66314
136.489 4.02386 1.44346
134.382 2.94776 1.16455
139.22 3.25522 1.15595
146.066 6.64238 2.65987
143.894 2.87066 1.0049
138.225 1.83886 0.790882
115.919 2.86299 1.20094
146.075 3.3383 1.27453
125.995 3.77952 1.42541
137.786 3.74598 1.50004
146.534 4.94978 1.90175
112.305 3.25708 1.23899
123.261 4.94155 1.96995
127.077 3.02172 1.21067
133.447 3.10111 1.41641
125.173 5.51143 2.18439
119.831 3.05354 1.40083
104.398 4.06313 1.79739
112.168 2.78491 1.1575
97.4649 6.13732 2.4137
126.482 1.90626 0.999378
113.779 2.62261 1.14126
117.523 3.60878 1.52123
141.614 4.11118 1.73428
105.485 4.09082 2.04726
101.115 3.74246 1.57252
124.751 3.09539 1.34497
97.3101 2.85017 1.24863
119.747 5.59872 2.6927
103.697 3.60777 1.56938
106.761 4.18043 1.81197
122.744 2.92297 1.52263
110.236 2.14239 1.02837
94.4182 4.09678 1.70768
126.003 2.21693 1.06508
98.1882 4.08782 1.8335
110.942 2.52601 1.37969
102.286 3.33243 1.45128
100.609 4.35962 2.43204
114.992 2.78747 1.2069
109.087 3.0212 1.52202
98.1048 4.23641 2.07968
113.63 2.87723 1.3902
96.2848 4.43828 2.16516
113.999 3.32295 1.68529
88.3804 2.4984 1.25196
85.3836 2.97176 1.40456
116.363 5.39899 2.57298
99.4317 3.01039 1.54837
105.586 2.83992 1.72531
88.806 3.3408 1.70309
80.1177 4.4705 2.44511
109.888 4.96217 2.50042
93.6633 3.66273 1.65129
91.8915 3.02074 1.76393
87.3469 3.85236 1.79769
90.7931 4.0638 2.43733
95.3301 3.67664 1.85785
97.1596 2.96386 1.60577
83.3295 2.7675 1.64837
100.24 2.9369 1.52307
88.9147 3.19891 1.79264
82.4551 2.71063 1.39994
97.6279 3.99305 2.08749
86.6776 4.33891 2.60717
81.6862 3.17917 1.6593
97.191 3.64834 2.06187
79.8784 2.63211 1.64643
104.746 5.86602 3.2373
95.5889 4.31304 2.47589
94.1099 3.83237 2.503
104.488 3.76906 2.24564
66.7612 1.70999 1.03255
90.5671 2.77785 1.58968
95.452 4.36458 2.63329
84.3826 3.32724 1.88586
86.2485 2.96343 1.65001
70.2887 2.66164 1.51673
78.4701 3.22787 1.98536
90.3851 4.16902 2.58412
80.0344 3.31079 2.39609
86.6763 5.11971 2.56776
81.952 3.3184 2.02565
69.5037 1.70679 1.11998
93.8747 3.34305 2.27729
70.1377 7.15772 4.56418
86.5425 3.23136 1.74272
94.567 3.78901 2.36738
64.4139 2.38313 1.58379
73.4762 2.80058 2.13041
86.5891 3.7737 1.9101
68.1959 3.45729 2.44939
102.361 3.89713 2.223
85.9172 2.8428 1.98397
72.4388 4.43768 3.02123
80.7136 4.67354 2.98767
68.985 2.28413 1.68927
71.4717 3.28693 2.36284
78.4913 3.14727 1.79015
68.0932 4.3122 2.96946
98.9901 2.04443 1.25444
68.2666 3.14366 2.27879
76.2211 4.8808 2.90368
68.9967 3.89268 2.91082
75.0831 3.62124 2.3126
65.4177 2.98036 2.20582
79.3958 2.98771 2.32385
74.8444 3.45036 2.36832
81.011 4.21684 2.65534
71.5458 3.38006 2.31943
80.0565 3.87266 2.77135
84.3992 4.0994 2.92327
71.5287 4.27098 2.88361
85.6683 4.42195 3.26257
76.1908 2.9405 2.39883
70.3302 3.7965 2.5832
68.3635 3.74921 2.45036
64.5592 1.86296 1.68886
69.2724 3.68571 2.69159
80.4552 3.45721 2.47069
57.399 3.82137 2.81932
79.3648 3.01718 1.81066
62.4234 3.74813 3.23791
70.17 5.84887 3.55034
82.8201 4.47531 4.08171
57.6999 3.18971 1.9616
68.2595 4.98453 4.08444
82.2306 4.56407 3.65473
61.8973 4.67439 3.91214
82.5477 6.77992 4.65653
63.047 4.142 3.26485
58.3184 4.21771 3.41476
82.5814 3.83441 2.93153
63.7854 2.33263 1.73632
67.2047 3.84027 2.9074
69.3787 2.87443 2.24427
64.6808 4.61231 3.80771
68.7373 3.85037 3.01162
60.6579 3.33052 2.50354
58.8242 3.00557 2.42684
67.8419 4.60436 3.69342
55.4877 3.6557 3.21893
74.5031 4.43237 3.24245
78.4205 3.68648 3.32523
51.8865 3.06667 2.55969
76.6203 7.27781 5.76899
53.9667 2.11411 1.66097
51.614 3.68748 3.12685
66.3883 3.57926 3.26138
58.5113 3.26786 2.64434
52.3084 4.27525 3.20603
57.2341 3.17101 3.32747
53.5853 4.78405 3.5326
64.4941 4.29563 3.58487
54.4874 3.54434 3.10722
57.2896 3.61199 3.57792
77.5182 4.8742 3.63873
68.3607 3.70625 3.29679
62.4075 3.12085 3.07356
57.1159 4.25115 3.36869
54.5181 2.26186 2.18865
72.9227 5.29604 4.06947
56.8785 3.52098 3.04885
58.953 3.10631 3.34924
62.551 6.21724 5.16482
50.5361 3.52482 3.0534
62.6497 3.51642 3.45748
82.8643 6.98187 5.87697
47.6831 3.15655 3.08902
65.2409 4.07176 3.41085
44.9944 3.98687 4.1794
70.9431 4.99737 4.28551
52.8153 3.55319 3.06132
53.6029 4.11127 4.40425
50.6914 2.7989 2.59974
59.8831 2.77729 2.15061
54.6302 3.47261 3.07919
58.274 3.73723 3.87268
54.5916 4.03702 3.74202
53.6521 3.82341 3.19608
56.7483 2.93788 2.95272
45.5465 3.50631 3.8172
61.2153 4.02802 3.95398
50.037 4.83178 4.07606
48.2709 4.4697 4.08109
58.2052 2.60362 2.86621
49.6054 3.06313 3.00778
51.4636 4.4466 4.15757
56.585 2.60874 2.80776
34.9285 3.99853 3.81264
52.8172 5.74715 5.5466
60.8657 3.8948 4.0627
50.2252 3.96234 3.70487
62.292 4.54341 4.94249
51.6174 5.08958 5.14591
57.4655 5.1165 4.66922
56.8014 3.50227 4.2724
41.6169 2.97417 3.01486
53.2337 4.46026 4.55918
59.3444 4.8038 4.76736
38.7041 4.76367 5.18203
63.134 5.45414 5.17299
48.0863 3.69192 4.28439
48.8894 3.62553 3.4976
56.6317 5.2831 5.52175
48.7182 3.88621 4.12494
45.9898 3.15992 3.39616
58.1814 4.40959 4.59076
45.1111 3.33271 3.34331
55.9964 3.22089 3.33963
41.1741 3.60386 3.6944
40.7725 3.75861 4.15022
46.7533 4.05517 4.28515
42.2466 2.68401 2.89527
50.7145 3.07436 3.68751
50.3916 5.92458 7.1173
51.211 4.18946 4.66099
61.5738 3.43656 4.09986
48.8621 4.79133 4.04312
48.0888 3.98165 4.19341
47.6929 3.2516 3.75335
37.2829 5.42695 5.65951
52.3446 2.61256 3.39578
50.349 3.67264 4.01118
43.908 3.29592 3.30221
55.5064 2.98331 3.33968
38.2235 2.72944 3.40134
60.5229 4.45072 4.44001
50.0152 2.64639 3.54577
37.3819 4.09851 4.63522
48.4472 3.30245 3.93523
43.6046 3.64388 4.53701
37.3389 4.52579 5.59853
50.0688 4.0225 3.82114
36.2962 3.44362 4.50776
45.0653 3.85181 4.86624
44.5595 5.93627 7.21461
44.3299 4.18477 3.79451
55.9169 3.25591 3.54967
47.2715 4.01005 4.64655
44.0174 3.77248 4.27452
50.7943 4.01306 5.58498
32.7792 3.02498 3.34424
41.9842 3.29076 3.9703
53.6047 4.00235 5.04963
39.6525 4.50632 4.87743
48.6584 3.01627 3.29642
47.4606 4.67886 5.95013
39.2618 3.60327 4.06224
41.3722 4.76847 5.95952
37.8157 3.0317 3.40209
48.2052 4.27155 5.68433
43.5053 2.61368 4.03499
35.4752 4.80068 5.80626
43.1936 2.83951 3.15241
38.3769 4.79147 6.15153
39.2129 4.76278 6.41424
47.0813 2.84216 2.9238
38.4875 3.96713 4.42658
42.3768 3.68912 5.15738
45.2318 4.28846 7.1222
29.5639 5.46799 4.81092
50.3143 3.49701 4.2005
34.5448 6.82034 9.9698
48.7393 6.00737 6.12859
45.2074 3.9783 6.08826
37.3428 4.49413 5.17804
40.9559 3.69012 5.10322
44.3503 3.90362 5.42719
33.2563 4.87027 5.61726
41.3142 4.31171 5.17502
35.8313 3.96201 5.25503
41.7473 3.82441 5.36921
45.3072 6.74938 8.34117
40.0269 4.50419 6.09468
42.0233 4.11008 5.3069
47.2224 5.81204 8.26853
29.9991 3.91196 4.83667
45.5352 5.55733 6.51596
36.877 5.78846 7.80979
42.2297 3.22684 5.08013
44.4249 5.67836 7.92512
31.2623 3.62503 4.54773
45.5303 3.65915 5.08112
38.2767 1.93597 3.7219
32.3989 3.95865 5.05514
42.5765 5.64564 7.91843
31.9035 5.36643 5.96042
33.0899 3.38059 4.87849
39.5466 5.07557 6.36432
33.5836 2.91909 3.93326
45.6399 5.06125 7.3208
39.5991 3.53643 4.81929
32.95 3.49789 5.87759
40.8891 3.75303 5.36282
26.5634 3.91818 5.02524
31.1429 5.7245 7.84859
37.4777 3.23767 4.05156
27.5394 3.596 5.64459
43.8767 3.76954 5.15733
41.5387 5.36892 8.15298
30.6633 4.44494 6.04862
43.4169 3.14341 4.98673
30.0127 5.60405 7.68476
35.4326 2.67336 4.26055
39.8288 4.55595 6.25305
29.9862 3.60213 5.12699
43.9913 4.06122 5.76471
41.5206 4.35713 6.58395
29.6671 4.90062 7.48209
38.9371 4.16825 6.50912
31.4994 3.69664 5.12637
35.8504 2.32297 3.97074
42.5908 3.36542 6.34217
38.4452 6.26405 8.80661
38.2917 3.65041 4.2538
39.0446 4.69248 8.35159
26.4096 3.94464 4.41537
42.7502 4.32717 6.14156
25.9507 3.05076 4.66359
34.4094 4.40913 7.55306
39.8603 3.40973 4.80438
34.3795 4.4385 7.76216
39.8151 4.03718 7.65652
32.087 4.91167 6.74812
32.3582 6.93994 8.32418
40.8876 3.49109 5.76372
30.162 3.84812 6.46615
34.858 3.44857 4.40002
34.7052 4.16507 6.7109
31.4913 6.6676 9.58915
40.1616 4.27872 6.16205
32.1002 3.87106 5.85448
27.3628 4.52518 8.06149
43.5688 3.59923 4.76707
30.3829 3.57168 7.57272
34.861 7.44551 10.4868
34.3546 4.49615 7.88123
27.8212 4.97383 7.24705
39.957 3.477 5.15966
32.7923 4.16934 7.33402
32.3582 3.76627 6.09479
37.5054 2.458 4.75513
27.4746 3.08647 4.84497
33.7891 4.99736 7.00447
31.4072 4.80565 7.56994
31.337 5.73899 8.70909
37.1975 5.30473 9.16074
34.5866 2.31342 4.45698
35.6285 6.49179 10.2965
40.2863 3.66502 6.50154
27.546 4.6651 7.22497
33.049 3.67822 6.46326
40.4401 4.6032 6.37434
26.4664 3.44548 6.47131
36.611 4.70927 7.01455
32.185 4.62037 7.18964
30.1576 3.01964 5.34591
41.4898 4.30705 7.95858
26.7069 4.38366 7.2317
30.5861 5.3617 8.82565
34.7948 2.5366 5.32592
28.806 4.08049 6.39454
34.1622 5.15435 9.16843
32.458 2.46415 5.18831
32.2113 5.21405 8.1529
37.3612 3.99696 6.51459
28.9992 3.28992 5.91105
35.2443 3.84393 7.83623
37.9639 4.46956 7.06704
29.1618 5.45675 8.77999
34.372 4.76481 8.56082
27.766 4.62195 8.58938
30.2632 4.2532 7.77937
42.2707 3.52396 6.25743
30.3398 4.08227 6.61364
35.8385 6.45425 10.2803
33.5065 3.48252 6.48263
28.0231 4.11759 8.2849
35.7913 3.99266 7.96958
33.183 3.33453 5.39654
25.9742 3.95404 6.47537
38.7463 3.76618 5.19304
24.1577 5.26837 12.0082
37.7202 4.30655 7.28067
33.8767 2.6674 5.20464
28.7147 5.14807 8.90413
40.1644 3.79065 6.05979
27.6742 3.3672 5.90686
26.054 2.67549 4.5689
37.2239 5.11613 8.97789
28.4512 3.84105 8.09076
33.758 4.6826 7.60175
28.8588 4.2765 7.44788
27.3417 4.87725 8.98736
35.3899 5.28717 8.82944
28.453 3.7582 7.43407
29.3716 3.55342 7.05595
36.3629 5.45368 10.059
19.9887 4.7114 9.93838
36.6107 5.5856 8.10155
26.9526 2.30034 5.33361
28.7109 4.66862 8.70893
34.1856 4.20503 7.89641
28.9253 5.99203 9.53248
24.1143 6.7178 13.4501
34.0468 3.1974 5.6787
23.2747 4.76602 8.56326
33.5492 3.98885 8.94799
31.798 5.19903 11.3985
25.3973 4.36546 7.88567
33.9474 5.29777 10.8556
28.7541 7.33624 12.7758
26.5137 4.17386 6.95302
31.5902 4.28443 9.03935
26.1936 5.28893 9.08559
32.0226 5.2818 11.2262
26.2817 6.32543 10.7526
27.9476 4.22615 7.82357
33.6452 5.3833 9.80459
28.6053 4.14606 7.34191
34.2787 5.81382 12.8602
29.0538 2.79704 6.10076
22.3025 4.69046 9.81863
30.1327 4.14334 6.80838
26.9701 4.84017 8.68695
28.9737 4.96589 8.95507
31.867 4.85726 10.6313
23.3777 4.9435 9.29835
28.4273 6.49274 11.7897
32.6162 4.31598 12.3511
23.5116 5.89923 12.5589
34.2538 7.43987 11.5568
29.4065 3.84135 8.30904
25.1375 6.15962 10.3976
34.208 4.00416 6.9741
25.2064 4.07983 10.63
25.522 4.76371 7.59902
30.8082 4.16582 10.3945
20.9719 5.07884 9.08055
29.7438 3.92043 7.01223
25.4732 3.83758 9.40173
23.3226 4.47604 7.64077
30.306 3.15762 7.09953
27.5827 5.06635 10.9493
28.2361 4.01347 9.69258
33.2994 5.07305 9.37365
21.8166 3.75588 8.26359
35.5024 7.17491 16.6455
26.1764 6.65655 13.5146
24.9664 5.25675 8.85533
32.8831 5.23745 12.9754
23.6195 5.41814 9.04178
29.5282 4.64594 9.92915
25.3461 4.51747 9.15703
21.5842 4.414 8.12876
33.0427 5.00408 10.6659
29.0847 5.43817 11.7696
24.0389 6.18017 14.6318
38.3151 6.06683 12.4944
21.8609 4.42818 10.6897
29.892 3.79945 7.23341
29.1131 4.16608 9.18054
23.8675 4.15653 9.89928
26.2458 5.71719 10.1215
25.2167 3.97015 9.87306
29.5291 6.93851 10.8532
32.0268 4.65532 11.2217
22.3747 7.04359 14.5943
24.2676 3.60237 7.9922
27.7945 6.53518 12.6625
22.0782 3.08075 7.33246
28.4609 2.81607 7.23014
24.6366 4.1755 9.46677
25.8403 3.77472 9.76057
33.9665 7.19868 14.6266
21.7638 3.71876 7.11858
27.0635 7.07958 14.819
33.1056 7.40844 18.7853
21.5539 4.52419 9.59896
27.8292 4.99323 10.6761
24.0606 5.2674 8.46087
19.4982 4.58511 13.5955
28.2483 4.55207 11.5187
22.569 3.90336 6.56173
25.7382 5.30004 9.65696
26.4287 4.19477 10.1596
22.8401 8.13888 20.8303
30.3495 5.98348 10.7542
20.9232 5.35617 11.4635
25.0519 4.00449 9.89247
30.2158 6.12872 13.1565
21.3996 4.04012 9.63996
28.8771 4.09923 10.3072
23.5391 4.99907 12.5051
16.3379 4.40546 11.1108
30.3509 5.61296 11.774
22.2538 4.20434 9.84329
27.0929 5.09262 10.701
29.4479 6.07187 12.9079
19.0024 6.97762 15.9008
24.9204 3.47185 7.90952
24.8315 5.44623 11.6465
17.1647 4.59014 10.1878
28.1589 7.0592 15.7374
21.7568 3.92078 10.0111
20.7341 5.21991 16.374
30.7009 7.19465 14.6872
24.7419 4.18525 9.7529
26.4745 5.91442 13.1491
24.0809 5.97615 11.7856
14.8122 4.15506 12.8918
30.3763 5.93183 13.9824
23.6567 3.65192 7.79271
23.6717 3.94154 9.77196
24.5475 2.87998 8.26806
22.3679 6.49462 16.8142
29.5923 5.25175 8.9735
24.2037 7.41685 19.353
21.3131 4.61614 9.8005
26.2083 3.57467 12.0947
18.167 6.61087 15.1127
20.3452 4.99872 8.30089
26.4194 5.24508 15.1417
19.7079 7.1569 18.4481
26.9657 5.68356 12.0507
22.5493 4.46173 10.547
21.4118 3.29187 8.826
26.7006 4.98515 12.9004
18.5999 6.2718 12.8408
23.4495 6.77433 14.585
28.0841 4.67013 15.4029
19.4055 6.52907 13.2896
25.5037 5.04954 13.3016
21.179 5.28108 12.266
